%OpenBCI Raw EEG Data
%
%Sample Rate = 200.0 Hz
%First Column = SampleIndex
%Last Column = Timestamp 
%Other Columns = EEG data in microvolts followed by Accel Data (in G) interleaved with Aux Data
0, -1425.69, -1483.93, -2087.71, -1309.24, 0.000, 0.000, 0.000, 12:48:43.391
1, -1337.80, -1427.40, -1961.13, -1248.88, 0.000, 0.000, 0.000, 12:48:43.391
2, -696.29, -732.12, -1370.09, -611.63, 0.000, 0.000, 0.000, 12:48:43.391
3, -370.83, -353.24, -1099.62, -297.25, 0.000, 0.000, 0.000, 12:48:43.435
4, -441.74, -495.52, -1107.69, -326.75, 0.000, 0.000, 0.000, 12:48:43.435
5, -356.20, -456.53, -988.27, -251.88, 0.000, 0.000, 0.000, 12:48:43.435
6, 288.08, 249.28, -385.99, 354.39, 0.000, 0.000, 0.000, 12:48:43.435
7, 617.72, 635.02, -109.00, 674.25, 0.000, 0.000, 0.000, 12:48:43.436
8, 557.89, 491.10, -119.45, 670.72, 0.000, 0.000, 0.000, 12:48:43.436
9, 621.73, 528.41, -7.95, 732.67, 0.000, 0.000, 0.000, 12:48:43.436
10, 1270.22, 1231.09, 589.28, 1342.20, 0.000, 0.000, 0.000, 12:48:43.436
11, 1603.03, 1613.48, 865.55, 1659.96, 0.000, 0.000, 0.000, 12:48:43.438
12, 1541.03, 1480.70, -111.48, 1637.21, 0.000, 0.000, 0.000, 12:48:43.438
13, 1598.73, 1503.29, -13.43, 1710.07, 0.000, 0.000, 0.000, 12:48:43.450
14, 2248.92, 2207.27, 586.59, 2322.91, 0.000, 0.000, 0.000, 12:48:43.450
15, 2577.91, 2593.25, 874.12, 2639.09, 0.000, 0.000, 0.000, 12:48:43.465
16, 2520.40, 2461.53, 872.39, 1662.57, 0.000, 0.000, 0.000, 12:48:43.465
17, 2586.96, 2485.76, 967.45, 1712.32, 0.000, 0.000, 0.000, 12:48:43.466
18, 3222.42, 3182.84, 1572.03, 2317.88, 0.000, 0.000, 0.000, 12:48:43.466
19, 3562.66, 3585.07, 1854.01, 2644.84, 0.000, 0.000, 0.000, 12:48:43.480
20, 3510.10, 3447.26, 1853.28, 2628.16, 0.000, 0.000, 0.000, 12:48:43.480
21, 3563.13, 3471.85, 1946.09, 2690.70, 0.000, 0.000, 0.000, 12:48:43.494
22, 4203.43, 4159.77, 2546.77, 3302.42, 0.000, 0.000, 0.000, 12:48:43.494
23, 4544.18, 4556.10, 2838.08, 3633.58, 0.000, 0.000, 0.000, 12:48:43.539
24, 4483.61, 4424.98, 2835.82, 3617.68, 0.000, 0.000, 0.000, 12:48:43.540
25, 4546.66, 4436.90, 2922.62, 3675.54, 0.000, 0.000, 0.000, 12:48:43.540
26, 5189.19, 5138.56, 3528.18, 4280.83, 0.000, 0.000, 0.000, 12:48:43.540
27, 5530.53, 5544.68, 3819.47, 4607.05, 0.000, 0.000, 0.000, 12:48:43.541
28, 5468.24, 5410.23, 3818.79, 4599.27, 0.000, 0.000, 0.000, 12:48:43.541
29, 5514.24, 5422.42, 3906.45, 4649.15, 0.000, 0.000, 0.000, 12:48:43.541
30, 6163.86, 6123.54, 4503.57, 5261.07, 0.000, 0.000, 0.000, 12:48:43.541
31, 6504.62, 6519.53, 4798.12, 5595.18, 0.000, 0.000, 0.000, 12:48:43.585
32, 6450.96, 6393.65, 3819.30, 5584.32, 0.000, 0.000, 0.000, 12:48:43.585
33, 6501.61, 6412.29, 3906.54, 5625.91, 0.000, 0.000, 0.000, 12:48:43.585
34, 7151.48, 7096.02, 4508.81, 6240.82, 0.000, 0.000, 0.000, 12:48:43.585
35, 7499.29, 7502.70, 4804.27, 6571.14, 0.000, 0.000, 0.000, 12:48:43.586
36, 7437.45, 7376.48, 4800.24, 6553.55, 0.000, 0.000, 0.000, 12:48:43.586
37, 7475.06, 7370.38, 4884.44, 6607.20, 0.000, 0.000, 0.000, 12:48:43.586
38, 8114.34, 8062.55, 5482.53, 7217.85, 0.000, 0.000, 0.000, 12:48:43.586
39, 8470.76, 8482.03, 5786.94, 7556.42, 0.000, 0.000, 0.000, 12:48:43.587
40, 8406.92, 8355.44, 5783.25, 7541.50, 0.000, 0.000, 0.000, 12:48:43.587
41, 8453.00, 8359.14, 5857.69, 7581.53, 0.000, 0.000, 0.000, 12:48:43.588
42, 9095.93, 9053.75, 6461.79, 8190.99, 0.000, 0.000, 0.000, 12:48:43.588
43, 9469.93, 9487.82, 6772.27, 8543.73, 0.000, 0.000, 0.000, 12:48:43.631
44, 9392.91, 9323.40, 6753.55, 8516.30, 0.000, 0.000, 0.000, 12:48:43.631
45, 9426.00, 9323.20, 6824.70, 8542.84, 0.000, 0.000, 0.000, 12:48:43.632
46, 10080.38, 10038.50, 7449.13, 9182.87, 0.000, 0.000, 0.000, 12:48:43.632
47, 10444.11, 10470.73, 7761.97, 9532.89, 0.000, 0.000, 0.000, 12:48:43.632
48, 10375.51, 10315.08, 7742.26, 9506.84, 0.000, 0.000, 0.000, 12:48:43.632
49, 10399.51, 10304.96, 7815.15, 9532.72, 0.000, 0.000, 0.000, 12:48:43.633
50, 11065.07, 11023.55, 8431.93, 10162.19, 0.000, 0.000, 0.000, 12:48:43.633
51, 11435.96, 11457.60, 8741.38, 10512.21, 0.000, 0.000, 0.000, 12:48:43.633
52, 11350.18, 11294.38, 8718.52, 10480.40, 0.000, 0.000, 0.000, 12:48:43.634
53, 11381.68, 11281.20, 8788.28, 10511.53, 0.000, 0.000, 0.000, 12:48:43.644
54, 12039.73, 11997.62, 9399.46, 11139.46, 0.000, 0.000, 0.000, 12:48:43.645
55, 12412.70, 12435.72, 9728.17, 11488.49, 0.000, 0.000, 0.000, 12:48:43.660
56, 12341.66, 12277.89, 9699.80, 11470.29, 0.000, 0.000, 0.000, 12:48:43.660
57, 12370.51, 12267.26, 9767.18, 11497.37, 0.000, 0.000, 0.000, 12:48:43.674
58, 13012.64, 12967.90, 10381.15, 12108.11, 0.000, 0.000, 0.000, 12:48:43.674
59, 13390.51, 13411.65, 10708.42, 12476.73, 0.000, 0.000, 0.000, 12:48:43.690
60, 13312.49, 13251.72, 10675.66, 12452.55, 0.000, 0.000, 0.000, 12:48:43.690
61, 13333.96, 13238.19, 10741.24, 12477.92, 0.000, 0.000, 0.000, 12:48:43.690
62, 13996.96, 13950.08, 11359.71, 13103.77, 0.000, 0.000, 0.000, 12:48:43.690
63, 14377.76, 14391.06, 11685.80, 13466.23, 0.000, 0.000, 0.000, 12:48:43.749
64, 14301.08, 14240.42, 11667.72, 13430.30, 0.000, 0.000, 0.000, 12:48:43.749
65, 14324.13, 14221.78, 11734.13, 13453.09, 0.000, 0.000, 0.000, 12:48:43.750
66, 14979.34, 14935.73, 12347.20, 14069.23, 0.000, 0.000, 0.000, 12:48:43.750
67, 15357.98, 15376.49, 12668.63, 14452.18, 0.000, 0.000, 0.000, 12:48:43.751
68, 15284.91, 15228.54, 12651.11, 14419.49, 0.000, 0.000, 0.000, 12:48:43.751
69, 15298.76, 15199.35, 12707.65, 14426.76, 0.000, 0.000, 0.000, 12:48:43.751
70, 15953.30, 15907.48, 13319.12, 15046.70, 0.000, 0.000, 0.000, 12:48:43.752
71, 16339.10, 16356.42, 13648.17, 15418.59, 0.000, 0.000, 0.000, 12:48:43.752
72, 16267.25, 16206.35, 13626.77, 15403.86, 0.000, 0.000, 0.000, 12:48:43.752
73, 16278.31, 16173.01, 13676.32, 15404.15, 0.000, 0.000, 0.000, 12:48:43.752
74, 16935.39, 16884.62, 14302.05, 16036.26, 0.000, 0.000, 0.000, 12:48:43.752
75, 17321.68, 17337.43, 14634.30, 16403.47, 0.000, 0.000, 0.000, 12:48:43.753
76, 17255.18, 17191.63, 14615.34, 16374.96, 0.000, 0.000, 0.000, 12:48:43.753
77, 17253.15, 17150.11, 14659.12, 16379.33, 0.000, 0.000, 0.000, 12:48:43.779
78, 17911.73, 17864.83, 15277.67, 17009.59, 0.000, 0.000, 0.000, 12:48:43.780
79, 18305.74, 18321.36, 15614.06, 17383.03, 0.000, 0.000, 0.000, 12:48:43.780
80, 18235.91, 18178.16, 15597.63, 17366.11, 0.000, 0.000, 0.000, 12:48:43.780
81, 18236.04, 18136.62, 15643.45, 17352.60, 0.000, 0.000, 0.000, 12:48:43.810
82, 18890.25, 18840.91, 16257.49, 17986.78, 0.000, 0.000, 0.000, 12:48:43.810
83, 19285.00, 19303.71, 16601.51, 18365.88, 0.000, 0.000, 0.000, 12:48:43.810
84, 19212.11, 19156.75, 16575.63, 18344.62, 0.000, 0.000, 0.000, 12:48:43.811
85, 19208.16, 19108.66, 16615.40, 18346.32, 0.000, 0.000, 0.000, 12:48:43.811
86, 19871.42, 19818.52, 17235.92, 18972.66, 0.000, 0.000, 0.000, 12:48:43.811
87, 20261.93, 20283.30, 17578.41, 19342.25, 0.000, 0.000, 0.000, 12:48:43.839
88, 20195.91, 20143.61, 17562.64, 19315.87, 0.000, 0.000, 0.000, 12:48:43.839
89, 20188.61, 20093.05, 17597.00, 19316.91, 0.000, 0.000, 0.000, 12:48:43.870
90, 20845.98, 20798.95, 18213.30, 19947.63, 0.000, 0.000, 0.000, 12:48:43.870
91, 21245.57, 21266.85, 18560.59, 20331.71, 0.000, 0.000, 0.000, 12:48:43.870
92, 21182.87, 21123.43, 18549.62, 20296.71, 0.000, 0.000, 0.000, 12:48:43.870
93, 21173.38, 21074.27, 18581.06, 20292.39, 0.000, 0.000, 0.000, 12:48:43.871
94, 21826.68, 21780.73, 19191.44, 20921.22, 0.000, 0.000, 0.000, 12:48:43.871
95, 22234.98, 22251.99, 19544.15, 21310.31, 0.000, 0.000, 0.000, 12:48:43.872
96, 22166.90, 22104.69, 19516.36, 21302.91, 0.000, 0.000, 0.000, 12:48:43.872
97, 22148.81, 22047.91, 19556.70, 21278.05, 0.000, 0.000, 0.000, 12:48:43.872
98, 22809.29, 22756.01, 20170.76, 21899.13, 0.000, 0.000, 0.000, 12:48:43.873
99, 23215.89, 23231.87, 20523.78, 22283.41, 0.000, 0.000, 0.000, 12:48:43.873
100, 23150.15, 23093.74, 20508.33, 22282.60, 0.000, 0.000, 0.000, 12:48:43.873
101, 23131.99, 23020.89, 20532.12, 22257.72, 0.000, 0.000, 0.000, 12:48:43.885
102, 23782.04, 23724.97, 21146.65, 22878.91, 0.000, 0.000, 0.000, 12:48:43.885
103, 24195.49, 24210.26, 21507.14, 23262.54, 0.000, 0.000, 0.000, 12:48:43.915
104, 24133.30, 24071.51, 21492.04, 23251.22, 0.000, 0.000, 0.000, 12:48:43.915
105, 24106.64, 24001.54, 21508.50, 23231.73, 0.000, 0.000, 0.000, 12:48:43.916
106, 24766.77, 24712.54, 22127.07, 23847.65, 0.000, 0.000, 0.000, 12:48:43.916
107, 25180.33, 25188.92, 22485.45, 24267.67, 0.000, 0.000, 0.000, 12:48:43.939
108, 25109.60, 25048.28, 22474.73, 24243.90, 0.000, 0.000, 0.000, 12:48:43.939
109, 25084.19, 24984.35, 22494.75, 24216.72, 0.000, 0.000, 0.000, 12:48:43.945
110, 25740.78, 25695.10, 23109.14, 24835.03, 0.000, 0.000, 0.000, 12:48:43.945
111, 26154.18, 26174.61, 23471.86, 25227.43, 0.000, 0.000, 0.000, 12:48:43.945
112, 26090.82, 26035.79, 23450.43, 24253.81, 0.000, 0.000, 0.000, 12:48:43.945
113, 26058.39, 25959.16, 23467.19, 24217.19, 0.000, 0.000, 0.000, 12:48:43.946
114, 26713.23, 26671.43, 24088.97, 24836.73, 0.000, 0.000, 0.000, 12:48:43.946
115, 27136.02, 27153.11, 24440.71, 25231.34, 0.000, 0.000, 0.000, 12:48:43.965
116, 27086.85, 27026.73, 23464.43, 25230.77, 0.000, 0.000, 0.000, 12:48:43.965
117, 27045.77, 26938.99, 23465.24, 25191.99, 0.000, 0.000, 0.000, 12:48:43.974
118, 27693.30, 27653.28, 24081.71, 25813.37, 0.000, 0.000, 0.000, 12:48:43.975
119, 28114.95, 28142.58, 24453.30, 26214.89, 0.000, 0.000, 0.000, 12:48:43.975
120, 28060.45, 28012.70, 24447.86, 26207.09, 0.000, 0.000, 0.000, 12:48:43.975
121, 28015.36, 27920.29, 24447.64, 26157.68, 0.000, 0.000, 0.000, 12:48:43.989
122, 28682.96, 28631.43, 25065.11, 26784.05, 0.000, 0.000, 0.000, 12:48:43.989
123, 29102.33, 29113.38, 25431.75, 27203.27, 0.000, 0.000, 0.000, 12:48:44.019
124, 29039.29, 28988.61, 24451.43, 27193.30, 0.000, 0.000, 0.000, 12:48:44.019
125, 28990.84, 28898.11, 24450.18, 27140.00, 0.000, 0.000, 0.000, 12:48:44.020
126, 29655.99, 29603.36, 25060.01, 27769.18, 0.000, 0.000, 0.000, 12:48:44.020
127, 30081.42, 30096.69, 25436.82, 28180.14, 0.000, 0.000, 0.000, 12:48:44.020
128, 30027.06, 29986.57, 25435.13, 28167.88, 0.000, 0.000, 0.000, 12:48:44.020
129, 29972.51, 29874.25, 25425.70, 28118.46, 0.000, 0.000, 0.000, 12:48:44.035
130, 30629.73, 30582.61, 26034.32, 28759.32, 0.000, 0.000, 0.000, 12:48:44.035
131, 31061.25, 31075.81, 26409.33, 29166.45, 0.000, 0.000, 0.000, 12:48:44.035
132, 31011.42, 30953.46, 26408.57, 29156.82, 0.000, 0.000, 0.000, 12:48:44.036
133, 30955.93, 30852.07, 26402.49, 29102.60, 0.000, 0.000, 0.000, 12:48:44.084
134, 31609.53, 31561.50, 27020.24, 29724.21, 0.000, 0.000, 0.000, 12:48:44.084
135, 32043.88, 32068.00, 27399.94, 30126.98, 0.000, 0.000, 0.000, 12:48:44.121
136, 31995.88, 31949.42, 26420.21, 29153.49, 0.000, 0.000, 0.000, 12:48:44.122
137, 31937.21, 31836.96, 26399.21, 29101.24, 0.000, 0.000, 0.000, 12:48:44.123
138, 32584.25, 32536.55, 27008.58, 29721.36, 0.000, 0.000, 0.000, 12:48:44.123
139, 33022.96, 33033.14, 27393.35, 30142.95, 0.000, 0.000, 0.000, 12:48:44.123
140, 32991.57, 32932.24, 26421.95, 29168.05, 0.000, 0.000, 0.000, 12:48:44.124
141, 32927.80, 32807.96, 26398.17, 29103.87, 0.000, 0.000, 0.000, 12:48:44.124
142, 33587.49, 33517.57, 27008.76, 29713.46, 0.000, 0.000, 0.000, 12:48:44.124
143, 34024.32, 34016.02, 27393.18, 30141.90, 0.000, 0.000, 0.000, 12:48:44.124
144, 33986.80, 33899.90, 26415.30, 29169.11, 0.000, 0.000, 0.000, 12:48:44.124
145, 33917.65, 33779.76, 26392.71, 29099.93, 0.000, 0.000, 0.000, 12:48:44.140
146, 34561.41, 34488.56, 27000.46, 29722.10, 0.000, 0.000, 0.000, 12:48:44.140
147, 34990.54, 34986.26, 27388.37, 30136.22, 0.000, 0.000, 0.000, 12:48:44.140
148, 34957.87, 34885.65, 26421.34, 29159.05, 0.000, 0.000, 0.000, 12:48:44.141
149, 34875.43, 34764.38, 26387.56, 29095.70, 0.000, 0.000, 0.000, 12:48:44.142
150, 35528.97, 35474.49, 27003.47, 29724.20, 0.000, 0.000, 0.000, 12:48:44.142
151, 35973.86, 35973.37, 27394.38, 30138.78, 0.000, 0.000, 0.000, 12:48:44.142
152, 35933.68, 35869.87, 26422.11, 29172.81, 0.000, 0.000, 0.000, 12:48:44.143
153, 35857.47, 35749.30, 26397.07, 29096.54, 0.000, 0.000, 0.000, 12:48:44.185
154, 36514.04, 36451.27, 27008.83, 29711.87, 0.000, 0.000, 0.000, 12:48:44.185
155, 36962.14, 36968.75, 27397.62, 30138.98, 0.000, 0.000, 0.000, 12:48:44.186
156, 36921.19, 36862.35, 26425.13, 29183.67, 0.000, 0.000, 0.000, 12:48:44.186
157, 36832.29, 36720.49, 26387.17, 29103.24, 0.000, 0.000, 0.000, 12:48:44.186
158, 37489.33, 37428.81, 27003.02, 29713.60, 0.000, 0.000, 0.000, 12:48:44.187
159, 37929.45, 37941.55, 27398.19, 30135.33, 0.000, 0.000, 0.000, 12:48:44.187
160, 37897.79, 37846.64, 26429.46, 29181.66, 0.000, 0.000, 0.000, 12:48:44.187
161, 37810.13, 37705.02, 26390.78, 29090.69, 0.000, 0.000, 0.000, 12:48:44.188
162, 38462.31, 38411.62, 27010.21, 29714.82, 0.000, 0.000, 0.000, 12:48:44.188
163, 38910.02, 38926.06, 27400.38, 30128.07, 0.000, 0.000, 0.000, 12:48:44.200
164, 38886.68, 38830.08, 26434.96, 29191.27, 0.000, 0.000, 0.000, 12:48:44.200
165, 38784.03, 38683.38, 26386.10, 29097.92, 0.000, 0.000, 0.000, 12:48:44.216
166, 39441.47, 39385.97, 26992.80, 29712.84, 0.000, 0.000, 0.000, 12:48:44.216
167, 39890.24, 39902.80, 27394.34, 30145.64, 0.000, 0.000, 0.000, 12:48:44.216
168, 39866.29, 39811.39, 26435.95, 29186.63, 0.000, 0.000, 0.000, 12:48:44.216
169, 39767.53, 39665.26, 26381.74, 29086.61, 0.000, 0.000, 0.000, 12:48:44.230
170, 40414.47, 40366.14, 26995.13, 29715.15, 0.000, 0.000, 0.000, 12:48:44.231
171, 40874.24, 40886.02, 27398.42, 30150.31, 0.000, 0.000, 0.000, 12:48:44.244
172, 40852.70, 40799.22, 26439.64, 29190.45, 0.000, 0.000, 0.000, 12:48:44.244
173, 40736.13, 40642.05, 26387.21, 29097.23, 0.000, 0.000, 0.000, 12:48:44.245
174, 41396.76, 41345.54, 26989.80, 29704.57, 0.000, 0.000, 0.000, 12:48:44.245
175, 41855.92, 41870.34, 27391.46, 30156.44, 0.000, 0.000, 0.000, 12:48:44.260
176, 41827.30, 41779.79, 26440.15, 29193.30, 0.000, 0.000, 0.000, 12:48:44.260
177, 41716.68, 41612.79, 26389.06, 29087.61, 0.000, 0.000, 0.000, 12:48:44.275
178, 42369.85, 42321.22, 26998.21, 29708.99, 0.000, 0.000, 0.000, 12:48:44.275
179, 42834.03, 42845.71, 27402.54, 30156.84, 0.000, 0.000, 0.000, 12:48:44.275
180, 42810.94, 42765.76, 26447.85, 29191.41, 0.000, 0.000, 0.000, 12:48:44.275
181, 42696.03, 42597.80, 26381.19, 29084.57, 0.000, 0.000, 0.000, 12:48:44.290
182, 43346.25, 43297.86, 26992.91, 29712.14, 0.000, 0.000, 0.000, 12:48:44.290
183, 43812.59, 43826.99, 27401.35, 30153.51, 0.000, 0.000, 0.000, 12:48:44.304
184, 43797.30, 43744.88, 26447.79, 29199.32, 0.000, 0.000, 0.000, 12:48:44.304
185, 43676.59, 43569.71, 26373.67, 29083.31, 0.000, 0.000, 0.000, 12:48:44.305
186, 44323.67, 44281.61, 26986.15, 29704.90, 0.000, 0.000, 0.000, 12:48:44.305
187, 44793.44, 44809.11, 27398.75, 30149.93, 0.000, 0.000, 0.000, 12:48:44.319
188, 44785.30, 44742.66, 26453.88, 29188.87, 0.000, 0.000, 0.000, 12:48:44.320
189, 44650.54, 44551.88, 26376.01, 29077.59, 0.000, 0.000, 0.000, 12:48:44.335
190, 45303.31, 45256.62, 26986.99, 29703.49, 0.000, 0.000, 0.000, 12:48:44.335
191, 45772.24, 45798.10, 27402.70, 30150.35, 0.000, 0.000, 0.000, 12:48:44.335
192, 45770.88, 45718.00, 26453.81, 29201.13, 0.000, 0.000, 0.000, 12:48:44.335
193, 45627.62, 45532.02, 26370.64, 29077.48, 0.000, 0.000, 0.000, 12:48:44.356
194, 46282.77, 46222.32, 26979.13, 29700.57, 0.000, 0.000, 0.000, 12:48:44.359
195, 46760.84, 46778.80, 27405.41, 30151.96, 0.000, 0.000, 0.000, 12:48:44.365
196, 46750.26, 46715.10, 26465.42, 29216.75, 0.000, 0.000, 0.000, 12:48:44.365
197, 46607.53, 46518.68, 26377.12, 29077.01, 0.000, 0.000, 0.000, 12:48:44.365
198, 47257.84, 47235.59, 26999.57, 29700.04, 0.000, 0.000, 0.000, 12:48:44.365
199, 47721.56, 47756.52, 27404.96, 30151.15, 0.000, 0.000, 0.000, 12:48:44.380
200, 47718.18, 47699.44, 26464.13, 29211.38, 0.000, 0.000, 0.000, 12:48:44.380
0, -1445.35, -1514.87, -2055.34, -1313.61, 0.000, 0.000, 0.000, 12:48:44.380
1, -783.33, -815.57, -1445.48, -700.24, 0.000, 0.000, 0.000, 12:48:44.395
2, -309.15, -274.86, -1021.79, -247.35, 0.000, 0.000, 0.000, 12:48:44.395
3, -1289.40, -346.13, -1962.02, -1176.53, 0.000, 0.000, 0.000, 12:48:44.425
4, -1439.65, -544.21, -2054.65, -1315.51, 0.000, 0.000, 0.000, 12:48:44.425
5, -783.70, 159.62, -1440.09, -702.09, 0.000, 0.000, 0.000, 12:48:44.425
6, -302.95, 701.92, -1020.20, -238.68, 0.000, 0.000, 0.000, 12:48:44.425
7, -303.53, 642.47, -1964.44, -1166.28, 0.000, 0.000, 0.000, 12:48:44.426
8, -461.19, 436.81, -2066.90, -1312.44, 0.000, 0.000, 0.000, 12:48:44.426
9, 194.49, 1140.63, -1450.83, -697.50, 0.000, 0.000, 0.000, 12:48:44.439
10, 677.70, 1687.04, -1031.58, -249.05, 0.000, 0.000, 0.000, 12:48:44.439
11, -299.03, 1629.06, -1961.91, -1172.44, 0.000, 0.000, 0.000, 12:48:44.440
12, -454.52, 1413.40, -2067.50, -1314.13, 0.000, 0.000, 0.000, 12:48:44.440
13, 191.18, 2109.71, -1454.29, -701.42, 0.000, 0.000, 0.000, 12:48:44.454
14, 669.71, 2652.86, -1025.92, -246.19, 0.000, 0.000, 0.000, 12:48:44.454
15, -303.94, 2607.96, -1954.40, -1168.72, 0.000, 0.000, 0.000, 12:48:44.470
16, -463.08, 2381.49, -2067.13, -1320.20, 0.000, 0.000, 0.000, 12:48:44.470
17, 193.28, 3087.12, -1458.22, -703.22, 0.000, 0.000, 0.000, 12:48:44.471
18, 676.04, 3639.89, -1021.84, -242.96, 0.000, 0.000, 0.000, 12:48:44.471
19, -294.78, 3591.41, -1954.31, -1163.58, 0.000, 0.000, 0.000, 12:48:44.500
20, -465.26, 3364.26, -2069.88, -1321.55, 0.000, 0.000, 0.000, 12:48:44.500
21, 193.12, 4065.49, -1456.37, -708.37, 0.000, 0.000, 0.000, 12:48:44.501
22, 682.18, 4618.44, -1025.46, -242.20, 0.000, 0.000, 0.000, 12:48:44.501
23, -287.38, 4574.83, -1956.14, -1156.59, 0.000, 0.000, 0.000, 12:48:44.501
24, -460.85, 4347.64, -2074.97, -1326.19, 0.000, 0.000, 0.000, 12:48:44.502
25, 180.55, 5039.30, -1460.51, -704.33, 0.000, 0.000, 0.000, 12:48:44.515
26, 669.35, 5593.38, -1026.58, -237.26, 0.000, 0.000, 0.000, 12:48:44.515
27, -288.48, 5555.80, -1949.51, -1159.85, 0.000, 0.000, 0.000, 12:48:44.529
28, -467.25, 5322.78, -2071.01, -1323.15, 0.000, 0.000, 0.000, 12:48:44.530
29, 181.80, 6023.18, -1458.35, -710.01, 0.000, 0.000, 0.000, 12:48:44.545
30, 686.33, 6594.00, -1022.31, -246.47, 0.000, 0.000, 0.000, 12:48:44.545
31, -279.63, 6547.34, -1943.97, -1146.00, 0.000, 0.000, 0.000, 12:48:44.545
32, -465.53, 6308.05, -2078.08, -1333.44, 0.000, 0.000, 0.000, 12:48:44.546
33, 185.88, 6991.87, -1468.78, -709.73, 0.000, 0.000, 0.000, 12:48:44.560
34, 686.85, 7558.34, -1023.10, -237.83, 0.000, 0.000, 0.000, 12:48:44.560
35, -274.98, 7529.44, -1941.69, -1148.57, 0.000, 0.000, 0.000, 12:48:44.560
36, -464.09, 7282.20, -2070.33, -1331.15, 0.000, 0.000, 0.000, 12:48:44.560
37, 182.03, 7977.10, -1468.82, -711.25, 0.000, 0.000, 0.000, 12:48:44.575
38, 680.32, 8542.51, -1021.42, -235.40, 0.000, 0.000, 0.000, 12:48:44.575
39, -279.58, 8514.25, -1942.96, -1145.97, 0.000, 0.000, 0.000, 12:48:44.589
40, -473.37, 8262.87, -2081.47, -1338.35, 0.000, 0.000, 0.000, 12:48:44.590
41, 187.86, 8955.30, -1465.12, -724.91, 0.000, 0.000, 0.000, 12:48:44.590
42, 683.45, 9524.04, -1024.53, -235.54, 0.000, 0.000, 0.000, 12:48:44.590
43, -263.22, 9495.49, -1937.35, -1141.02, 0.000, 0.000, 0.000, 12:48:44.620
44, -473.69, 9230.58, -2081.50, -1334.27, 0.000, 0.000, 0.000, 12:48:44.620
45, 173.76, 9927.67, -1468.10, -705.55, 0.000, 0.000, 0.000, 12:48:44.620
46, 679.00, 10501.79, -1028.58, -233.15, 0.000, 0.000, 0.000, 12:48:44.621
47, -265.34, 10488.04, -1934.57, -1141.74, 0.000, 0.000, 0.000, 12:48:44.621
48, -470.73, 10211.98, -2079.98, -1339.57, 0.000, 0.000, 0.000, 12:48:44.621
49, 185.64, 10916.17, -1465.72, -730.58, 0.000, 0.000, 0.000, 12:48:44.635
50, 684.86, 11481.45, -1023.42, -230.15, 0.000, 0.000, 0.000, 12:48:44.635
51, -266.19, 11460.28, -1930.05, -1130.68, 0.000, 0.000, 0.000, 12:48:44.650
52, -478.11, 11192.12, -2080.44, -1336.24, 0.000, 0.000, 0.000, 12:48:44.650
53, 179.37, 11896.60, -1464.49, -724.69, 0.000, 0.000, 0.000, 12:48:44.652
54, 684.64, 12464.44, -1019.08, -244.90, 0.000, 0.000, 0.000, 12:48:44.652
55, -261.11, 12449.15, -1925.64, -1128.98, 0.000, 0.000, 0.000, 12:48:44.665
56, -474.51, 12169.63, -2075.90, -1344.05, 0.000, 0.000, 0.000, 12:48:44.665
57, 172.21, 12871.85, -1464.14, -720.71, 0.000, 0.000, 0.000, 12:48:44.695
58, 681.79, 13442.46, -1018.12, -234.64, 0.000, 0.000, 0.000, 12:48:44.695
59, -253.04, 13426.66, -1924.04, -1125.71, 0.000, 0.000, 0.000, 12:48:44.696
60, -478.56, 13149.74, -2084.52, -1338.17, 0.000, 0.000, 0.000, 12:48:44.696
61, 167.20, 13839.36, -1477.57, -736.77, 0.000, 0.000, 0.000, 12:48:44.696
62, 679.43, 14413.19, -1023.72, -259.90, 0.000, 0.000, 0.000, 12:48:44.696
63, -243.92, 14411.94, -1912.60, -1116.30, 0.000, 0.000, 0.000, 12:48:44.725
64, -464.92, 14122.56, -2102.59, -1340.49, 0.000, 0.000, 0.000, 12:48:44.725
65, 199.34, 14824.59, -1484.48, -722.83, 0.000, 0.000, 0.000, 12:48:44.726
66, 708.50, 15393.49, -1040.84, -216.80, 0.000, 0.000, 0.000, 12:48:44.726
67, -215.73, 15377.62, -1941.24, -1101.82, 0.000, 0.000, 0.000, 12:48:44.740
68, -444.97, 15079.21, -2124.26, -1326.07, 0.000, 0.000, 0.000, 12:48:44.740
69, 208.60, 15781.56, -1504.83, -700.52, 0.000, 0.000, 0.000, 12:48:44.755
70, 718.77, 16361.02, -1048.78, -225.65, 0.000, 0.000, 0.000, 12:48:44.755
71, -212.49, 15385.65, -1936.39, -1093.20, 0.000, 0.000, 0.000, 12:48:44.755
72, -454.62, 15082.56, -2115.25, -1322.93, 0.000, 0.000, 0.000, 12:48:44.755
73, 187.02, 15781.21, -1500.35, -711.99, 0.000, 0.000, 0.000, 12:48:44.756
74, 706.62, 16367.33, -1038.03, -222.28, 0.000, 0.000, 0.000, 12:48:44.756
75, -224.68, 15393.90, -1924.76, -1109.33, 0.000, 0.000, 0.000, 12:48:44.785
76, -472.65, 15084.65, -2110.24, -1335.39, 0.000, 0.000, 0.000, 12:48:44.785
77, 178.11, 15786.87, -1494.42, -712.50, 0.000, 0.000, 0.000, 12:48:44.785
78, 693.12, 16367.93, -1037.99, -212.80, 0.000, 0.000, 0.000, 12:48:44.785
79, -230.47, 15394.96, -1917.58, -1098.65, 0.000, 0.000, 0.000, 12:48:44.786
80, -479.66, 15098.84, -2104.33, -1343.42, 0.000, 0.000, 0.000, 12:48:44.786
81, 169.21, 15791.35, -1491.30, -720.53, 0.000, 0.000, 0.000, 12:48:44.801
82, 685.04, 16380.17, -1032.56, -221.69, 0.000, 0.000, 0.000, 12:48:44.801
83, -234.31, 15404.51, -1911.53, -1094.60, 0.000, 0.000, 0.000, 12:48:44.801
84, -485.54, 15096.23, -2108.91, -1347.76, 0.000, 0.000, 0.000, 12:48:44.801
85, 159.05, 15787.47, -1490.91, -732.75, 0.000, 0.000, 0.000, 12:48:44.830
86, 676.90, 16378.16, -1027.13, -228.87, 0.000, 0.000, 0.000, 12:48:44.831
87, -234.41, 15417.57, -1893.56, -1104.66, 0.000, 0.000, 0.000, 12:48:44.831
88, -494.97, 15089.64, -2104.42, -1349.94, 0.000, 0.000, 0.000, 12:48:44.831
89, 162.62, 15789.42, -1485.56, -741.58, 0.000, 0.000, 0.000, 12:48:44.845
90, 686.85, 16384.38, -1024.77, -228.44, 0.000, 0.000, 0.000, 12:48:44.845
91, -220.05, 15421.20, -1900.63, -1102.47, 0.000, 0.000, 0.000, 12:48:44.846
92, -489.01, 15096.41, -2105.84, -1348.05, 0.000, 0.000, 0.000, 12:48:44.846
93, 166.71, 15791.09, -1489.23, -735.42, 0.000, 0.000, 0.000, 12:48:44.860
94, 688.70, 16380.29, -1021.71, -230.15, 0.000, 0.000, 0.000, 12:48:44.860
95, -223.13, 15432.61, -1891.66, -1097.68, 0.000, 0.000, 0.000, 12:48:44.860
96, -489.02, 15098.24, -2102.38, -1353.53, 0.000, 0.000, 0.000, 12:48:44.860
97, 161.69, 15784.74, -1494.63, -730.85, 0.000, 0.000, 0.000, 12:48:44.875
98, 690.04, 16387.13, -1019.96, -235.10, 0.000, 0.000, 0.000, 12:48:44.875
99, -217.04, 15432.29, -1891.95, -1091.88, 0.000, 0.000, 0.000, 12:48:44.890
100, -492.17, 15088.04, -2112.34, -1343.33, 0.000, 0.000, 0.000, 12:48:44.890
101, 150.25, 15777.00, -1495.17, -739.10, 0.000, 0.000, 0.000, 12:48:44.890
102, 683.13, 16377.93, -1025.52, -236.74, 0.000, 0.000, 0.000, 12:48:44.890
103, -215.14, 15433.25, -1887.64, -1100.21, 0.000, 0.000, 0.000, 12:48:44.904
104, -495.70, 15095.18, -2106.99, -1352.55, 0.000, 0.000, 0.000, 12:48:44.905
105, 159.03, 15794.15, -1488.12, -739.48, 0.000, 0.000, 0.000, 12:48:44.920
106, 683.88, 16378.28, -1019.88, -236.50, 0.000, 0.000, 0.000, 12:48:44.920
107, -205.32, 15435.66, -1882.24, -1094.72, 0.000, 0.000, 0.000, 12:48:44.920
108, -487.94, 15081.53, -2107.80, -1354.09, 0.000, 0.000, 0.000, 12:48:44.921
109, 159.08, 15774.29, -1504.86, -736.86, 0.000, 0.000, 0.000, 12:48:44.935
110, 697.93, 16386.48, -1025.69, -222.71, 0.000, 0.000, 0.000, 12:48:44.935
111, -198.61, 15440.47, -1879.07, -1084.94, 0.000, 0.000, 0.000, 12:48:44.950
112, -492.91, 15088.27, -2119.47, -1359.51, 0.000, 0.000, 0.000, 12:48:44.950
113, 154.01, 15772.09, -1504.46, -739.89, 0.000, 0.000, 0.000, 12:48:44.951
114, 692.05, 16386.64, -1018.37, -230.38, 0.000, 0.000, 0.000, 12:48:44.951
115, -203.53, 15445.46, -1879.06, -1077.52, 0.000, 0.000, 0.000, 12:48:44.964
116, -497.32, 15079.17, -2118.13, -1362.26, 0.000, 0.000, 0.000, 12:48:44.965
117, 144.84, 15770.62, -1507.82, -746.06, 0.000, 0.000, 0.000, 12:48:44.980
118, 684.45, 16384.21, -1023.29, -242.93, 0.000, 0.000, 0.000, 12:48:44.980
119, -202.76, 15447.29, -1880.10, -1071.83, 0.000, 0.000, 0.000, 12:48:44.980
120, -508.61, 15086.36, -2117.77, -1371.13, 0.000, 0.000, 0.000, 12:48:44.980
121, 144.19, 15780.32, -1505.87, -744.03, 0.000, 0.000, 0.000, 12:48:44.995
122, 680.33, 16383.71, -1022.41, -231.30, 0.000, 0.000, 0.000, 12:48:44.995
123, -195.27, 15456.99, -1868.49, -1073.27, 0.000, 0.000, 0.000, 12:48:45.010
124, -506.19, 15070.82, -2119.36, -1360.69, 0.000, 0.000, 0.000, 12:48:45.010
125, 141.88, 15772.50, -1498.82, -755.56, 0.000, 0.000, 0.000, 12:48:45.010
126, 684.76, 16386.32, -1021.39, -241.51, 0.000, 0.000, 0.000, 12:48:45.010
127, -191.22, 15455.43, -1858.15, -1068.53, 0.000, 0.000, 0.000, 12:48:45.025
128, -501.83, 15074.58, -2116.08, -1365.76, 0.000, 0.000, 0.000, 12:48:45.025
129, 144.72, 15771.15, -1503.68, -753.23, 0.000, 0.000, 0.000, 12:48:45.039
130, 688.98, 16381.68, -1014.98, -240.26, 0.000, 0.000, 0.000, 12:48:45.039
131, -178.05, 15465.30, -1856.95, -1060.95, 0.000, 0.000, 0.000, 12:48:45.040
132, -502.90, 15075.60, -2116.36, -1376.92, 0.000, 0.000, 0.000, 12:48:45.040
133, 149.14, 15762.37, -1501.88, -767.21, 0.000, 0.000, 0.000, 12:48:45.054
134, 692.92, 16366.23, -1016.77, -228.86, 0.000, 0.000, 0.000, 12:48:45.054
135, -159.01, 15441.24, -1849.41, -1062.06, 0.000, 0.000, 0.000, 12:48:45.085
136, -489.85, 15067.72, -2118.41, -1384.24, 0.000, 0.000, 0.000, 12:48:45.085
137, 164.33, 15739.02, -1506.95, -770.74, 0.000, 0.000, 0.000, 12:48:45.085
138, 708.78, 16347.56, -1018.81, -246.14, 0.000, 0.000, 0.000, 12:48:45.085
139, -133.64, 15440.02, -1832.62, -1067.86, 0.000, 0.000, 0.000, 12:48:45.086
140, -452.93, 15047.54, -2101.24, -1394.65, 0.000, 0.000, 0.000, 12:48:45.086
141, 193.20, 15744.18, -1479.24, -805.82, 0.000, 0.000, 0.000, 12:48:45.099
142, 743.86, 16360.65, -989.76, -274.80, 0.000, 0.000, 0.000, 12:48:45.099
143, -116.68, 15453.08, -1818.25, -1090.35, 0.000, 0.000, 0.000, 12:48:45.101
144, -463.01, 15041.77, -2094.87, -1414.01, 0.000, 0.000, 0.000, 12:48:45.102
145, 179.16, 15728.63, -1478.21, -798.94, 0.000, 0.000, 0.000, 12:48:45.115
146, 719.26, 16343.65, -996.22, -281.90, 0.000, 0.000, 0.000, 12:48:45.115
147, -134.70, 15463.16, -1805.31, -1088.42, 0.000, 0.000, 0.000, 12:48:45.130
148, -499.92, 15048.85, -2094.95, -1433.05, 0.000, 0.000, 0.000, 12:48:45.130
149, 152.21, 15755.12, -1474.82, -788.16, 0.000, 0.000, 0.000, 12:48:45.130
150, 686.02, 16371.38, -989.71, -264.00, 0.000, 0.000, 0.000, 12:48:45.130
151, -164.02, 15494.07, -1813.41, -1070.53, 0.000, 0.000, 0.000, 12:48:45.152
152, -522.89, 15062.88, -2102.04, -1404.46, 0.000, 0.000, 0.000, 12:48:45.152
153, 120.54, 15761.86, -1485.89, -788.73, 0.000, 0.000, 0.000, 12:48:45.159
154, 675.48, 16386.48, -999.50, -254.01, 0.000, 0.000, 0.000, 12:48:45.159
155, -178.60, 15502.98, -1821.14, -1046.09, 0.000, 0.000, 0.000, 12:48:45.174
156, -534.85, 15075.66, -2121.55, -1385.34, 0.000, 0.000, 0.000, 12:48:45.174
157, 108.81, 15764.53, -1507.41, -777.74, 0.000, 0.000, 0.000, 12:48:45.175
158, 664.94, 16396.07, -1008.12, -244.39, 0.000, 0.000, 0.000, 12:48:45.175
159, -181.69, 15508.75, -1826.30, -1040.78, 0.000, 0.000, 0.000, 12:48:45.189
160, -542.94, 15082.72, -2127.37, -1385.03, 0.000, 0.000, 0.000, 12:48:45.189
161, 110.07, 15769.20, -1512.48, -777.08, 0.000, 0.000, 0.000, 12:48:45.190
162, 658.15, 16398.14, -1009.46, -243.01, 0.000, 0.000, 0.000, 12:48:45.190
163, -176.66, 15511.88, -1826.33, -1039.89, 0.000, 0.000, 0.000, 12:48:45.205
164, -548.83, 15068.60, -2131.25, -1391.65, 0.000, 0.000, 0.000, 12:48:45.205
165, 97.51, 15755.50, -1513.14, -769.81, 0.000, 0.000, 0.000, 12:48:45.220
166, 659.70, 16390.82, -1014.64, -233.17, 0.000, 0.000, 0.000, 12:48:45.220
167, -172.39, 15519.39, -1822.58, -1034.04, 0.000, 0.000, 0.000, 12:48:45.220
168, -540.53, 15078.05, -2138.14, -1394.94, 0.000, 0.000, 0.000, 12:48:45.221
169, 105.76, 15764.88, -1525.33, -773.70, 0.000, 0.000, 0.000, 12:48:45.250
170, 665.94, 16399.54, -1014.22, -237.74, 0.000, 0.000, 0.000, 12:48:45.250
171, -164.87, 15523.01, -1821.55, -1029.79, 0.000, 0.000, 0.000, 12:48:45.251
172, -546.27, 15073.55, -2138.23, -1387.73, 0.000, 0.000, 0.000, 12:48:45.251
173, 104.23, 15761.70, -1518.75, -782.04, 0.000, 0.000, 0.000, 12:48:45.252
174, 676.27, 16400.39, -1010.29, -243.19, 0.000, 0.000, 0.000, 12:48:45.252
175, -156.95, 15520.11, -1823.16, -1019.96, 0.000, 0.000, 0.000, 12:48:45.309
176, -543.60, 15072.53, -2134.90, -1392.14, 0.000, 0.000, 0.000, 12:48:45.310
177, 99.61, 15756.88, -1526.60, -776.08, 0.000, 0.000, 0.000, 12:48:45.310
178, 663.23, 16394.64, -1014.45, -239.27, 0.000, 0.000, 0.000, 12:48:45.310
179, -155.05, 15523.91, -1810.26, -1025.02, 0.000, 0.000, 0.000, 12:48:45.311
180, -540.69, 15063.45, -2137.23, -1401.85, 0.000, 0.000, 0.000, 12:48:45.312
181, 104.32, 15752.29, -1534.01, -772.68, 0.000, 0.000, 0.000, 12:48:45.312
182, 675.52, 16394.50, -1013.63, -227.82, 0.000, 0.000, 0.000, 12:48:45.312
183, -143.95, 15533.44, -1811.86, -1018.56, 0.000, 0.000, 0.000, 12:48:45.313
184, -545.18, 15056.39, -2146.93, -1389.46, 0.000, 0.000, 0.000, 12:48:45.313
185, 99.66, 15743.95, -1530.38, -777.88, 0.000, 0.000, 0.000, 12:48:45.314
186, 666.92, 16386.58, -1016.56, -228.91, 0.000, 0.000, 0.000, 12:48:45.314
187, -144.34, 15529.23, -1809.58, -1010.42, 0.000, 0.000, 0.000, 12:48:45.325
188, -543.86, 15066.31, -2142.91, -1398.54, 0.000, 0.000, 0.000, 12:48:45.325
189, 102.54, 15739.47, -1530.91, -791.33, 0.000, 0.000, 0.000, 12:48:45.355
190, 677.37, 16394.70, -1017.71, -236.95, 0.000, 0.000, 0.000, 12:48:45.355
191, -143.18, 15531.24, -1814.88, -998.94, 0.000, 0.000, 0.000, 12:48:45.355
192, -550.49, 15054.93, -2150.36, -1390.95, 0.000, 0.000, 0.000, 12:48:45.355
193, 94.55, 15736.82, -1539.24, -784.33, 0.000, 0.000, 0.000, 12:48:45.356
194, 674.85, 16378.07, -1020.57, -235.64, 0.000, 0.000, 0.000, 12:48:45.356
195, -131.74, 15536.44, -1800.61, -1007.31, 0.000, 0.000, 0.000, 12:48:45.386
196, -547.28, 15050.76, -2152.39, -1404.91, 0.000, 0.000, 0.000, 12:48:45.386
197, 103.42, 15744.13, -1535.99, -798.66, 0.000, 0.000, 0.000, 12:48:45.386
198, 673.63, 16379.72, -1019.44, -223.52, 0.000, 0.000, 0.000, 12:48:45.386
199, -123.28, 15543.43, -1793.59, -998.26, 0.000, 0.000, 0.000, 12:48:45.386
200, -542.92, 15045.11, -2143.14, -1400.77, 0.000, 0.000, 0.000, 12:48:45.386
0, -875.64, -935.90, -1532.43, -794.10, 0.000, 0.000, 0.000, 12:48:45.387
1, -300.79, -292.33, -1017.23, -241.07, 0.000, 0.000, 0.000, 12:48:45.400
2, -1100.23, -1121.21, -1791.49, -999.37, 0.000, 0.000, 0.000, 12:48:45.401
3, -1523.23, -1618.83, -2151.56, -1408.13, 0.000, 0.000, 0.000, 12:48:45.416
4, -880.88, -938.51, -1544.54, -795.07, 0.000, 0.000, 0.000, 12:48:45.416
5, -303.73, -294.10, -1025.68, -232.04, 0.000, 0.000, 0.000, 12:48:45.416
6, -1096.93, -1124.05, -1790.47, -990.32, 0.000, 0.000, 0.000, 12:48:45.416
7, -1527.89, -1626.36, -2152.18, -1408.95, 0.000, 0.000, 0.000, 12:48:45.430
8, -886.59, -946.13, -1534.63, -797.14, 0.000, 0.000, 0.000, 12:48:45.431
9, -301.04, -283.42, -1013.03, -242.24, 0.000, 0.000, 0.000, 12:48:45.445
10, -1095.53, -1107.93, -1787.81, -999.75, 0.000, 0.000, 0.000, 12:48:45.445
11, -1528.27, -1621.96, -2151.47, -1400.04, 0.000, 0.000, 0.000, 12:48:45.460
12, -881.04, -935.73, -1541.81, -790.27, 0.000, 0.000, 0.000, 12:48:45.460
13, -303.62, -286.93, -1019.67, -239.10, 0.000, 0.000, 0.000, 12:48:45.461
14, -1086.92, -1108.93, -1780.83, -987.61, 0.000, 0.000, 0.000, 12:48:45.461
15, -1530.15, -1621.62, -2158.07, -1407.75, 0.000, 0.000, 0.000, 12:48:45.474
16, -886.96, -945.24, -1544.73, -803.68, 0.000, 0.000, 0.000, 12:48:45.475
17, -301.83, -288.74, -1013.60, -245.44, 0.000, 0.000, 0.000, 12:48:45.475
18, -1081.12, -1097.95, -1771.98, -981.91, 0.000, 0.000, 0.000, 12:48:45.475
19, -1534.70, -1630.88, -2162.84, -1411.56, 0.000, 0.000, 0.000, 12:48:45.535
20, -877.91, -943.40, -1545.53, -797.76, 0.000, 0.000, 0.000, 12:48:45.535
21, -297.68, -298.59, -1016.13, -247.70, 0.000, 0.000, 0.000, 12:48:45.535
22, -1076.25, -1106.66, -1775.50, -973.00, 0.000, 0.000, 0.000, 12:48:45.535
23, -1526.64, -1630.34, -2152.68, -1412.52, 0.000, 0.000, 0.000, 12:48:45.536
24, -886.31, -960.84, -1545.38, -801.74, 0.000, 0.000, 0.000, 12:48:45.536
25, -299.05, -299.17, -1021.14, -240.94, 0.000, 0.000, 0.000, 12:48:45.536
26, -1073.38, -1100.49, -1771.67, -982.42, 0.000, 0.000, 0.000, 12:48:45.536
27, -1534.22, -1636.93, -2159.72, -1416.62, 0.000, 0.000, 0.000, 12:48:45.537
28, -884.53, -954.22, -1545.32, -820.55, 0.000, 0.000, 0.000, 12:48:45.537
29, -298.44, -293.06, -1013.42, -246.66, 0.000, 0.000, 0.000, 12:48:45.537
30, -1065.96, -1096.65, -1759.42, -963.85, 0.000, 0.000, 0.000, 12:48:45.538
31, -1536.44, -1633.65, -2163.02, -1418.06, 0.000, 0.000, 0.000, 12:48:45.550
32, -888.07, -952.80, -1552.31, -802.26, 0.000, 0.000, 0.000, 12:48:45.550
33, -309.10, -299.24, -1022.29, -244.48, 0.000, 0.000, 0.000, 12:48:45.565
34, -1065.37, -1088.01, -1761.58, -969.60, 0.000, 0.000, 0.000, 12:48:45.565
35, -1532.13, -1633.71, -2162.08, -1432.38, 0.000, 0.000, 0.000, 12:48:45.565
36, -903.45, -968.32, -1561.05, -820.54, 0.000, 0.000, 0.000, 12:48:45.565
37, -307.07, -301.97, -1021.92, -253.93, 0.000, 0.000, 0.000, 12:48:45.580
38, -1054.64, -1089.40, -1760.84, -946.11, 0.000, 0.000, 0.000, 12:48:45.580
39, -1525.21, -1638.65, -2180.29, -1397.82, 0.000, 0.000, 0.000, 12:48:45.625
40, -881.14, -965.69, -1573.75, -800.34, 0.000, 0.000, 0.000, 12:48:45.625
41, -277.79, -300.85, -1037.00, -234.18, 0.000, 0.000, 0.000, 12:48:45.626
42, -1025.15, -1085.19, -1774.11, -949.34, 0.000, 0.000, 0.000, 12:48:45.626
43, -1509.86, -1651.19, -2189.26, -1400.02, 0.000, 0.000, 0.000, 12:48:45.655
44, -878.07, -974.90, -1577.78, -801.16, 0.000, 0.000, 0.000, 12:48:45.655
45, -284.52, -297.33, -1036.92, -234.81, 0.000, 0.000, 0.000, 12:48:45.656
46, -1039.23, -1084.23, -1763.38, -953.19, 0.000, 0.000, 0.000, 12:48:45.656
47, -1526.83, -1645.07, -2180.83, -1422.47, 0.000, 0.000, 0.000, 12:48:45.656
48, -897.18, -974.32, -1574.03, -814.85, 0.000, 0.000, 0.000, 12:48:45.656
49, -293.57, -300.60, -1032.30, -239.16, 0.000, 0.000, 0.000, 12:48:45.658
50, -1038.20, -1072.76, -1762.13, -932.90, 0.000, 0.000, 0.000, 12:48:45.658
51, -1540.53, -1652.54, -2184.61, -1412.57, 0.000, 0.000, 0.000, 12:48:45.658
52, -896.86, -973.07, -1576.79, -811.72, 0.000, 0.000, 0.000, 12:48:45.659
53, -298.74, -290.37, -1023.53, -244.83, 0.000, 0.000, 0.000, 12:48:45.659
54, -1040.97, -1068.51, -1748.84, -946.05, 0.000, 0.000, 0.000, 12:48:45.659
55, -1542.30, -1644.78, -2176.20, -1427.04, 0.000, 0.000, 0.000, 12:48:45.670
56, -905.78, -973.02, -1566.52, -811.41, 0.000, 0.000, 0.000, 12:48:45.670
57, -300.83, -287.61, -1018.04, -246.12, 0.000, 0.000, 0.000, 12:48:45.685
58, -1036.98, -1058.60, -1740.56, -945.88, 0.000, 0.000, 0.000, 12:48:45.685
59, -1542.59, -1650.92, -2172.69, -1425.11, 0.000, 0.000, 0.000, 12:48:45.699
60, -905.35, -974.79, -1564.04, -821.86, 0.000, 0.000, 0.000, 12:48:45.699
61, -299.56, -292.83, -1023.01, -240.61, 0.000, 0.000, 0.000, 12:48:45.700
62, -1038.30, -1058.33, -1738.50, -936.11, 0.000, 0.000, 0.000, 12:48:45.701
63, -1550.39, -1646.46, -2172.87, -1425.71, 0.000, 0.000, 0.000, 12:48:45.715
64, -913.87, -975.37, -1568.33, -816.59, 0.000, 0.000, 0.000, 12:48:45.715
65, -300.06, -293.08, -1015.85, -250.74, 0.000, 0.000, 0.000, 12:48:45.730
66, -1027.29, -1055.24, -1734.58, -929.94, 0.000, 0.000, 0.000, 12:48:45.730
67, -1550.23, -1651.61, -2179.72, -1434.19, 0.000, 0.000, 0.000, 12:48:45.730
68, -904.15, -981.18, -1571.13, -821.27, 0.000, 0.000, 0.000, 12:48:45.730
69, -308.20, -299.72, -1031.63, -236.40, 0.000, 0.000, 0.000, 12:48:45.745
70, -1023.74, -1049.59, -1731.91, -928.45, 0.000, 0.000, 0.000, 12:48:45.745
71, -1549.69, -1647.44, -2175.94, -1431.40, 0.000, 0.000, 0.000, 12:48:45.746
72, -907.57, -973.35, -1570.01, -820.03, 0.000, 0.000, 0.000, 12:48:45.746
73, -302.75, -295.50, -1025.23, -239.01, 0.000, 0.000, 0.000, 12:48:45.760
74, -1014.08, -1049.60, -1731.11, -928.35, 0.000, 0.000, 0.000, 12:48:45.760
75, -1544.52, -1658.46, -2186.76, -1429.17, 0.000, 0.000, 0.000, 12:48:45.790
76, -916.32, -986.85, -1581.46, -823.33, 0.000, 0.000, 0.000, 12:48:45.790
77, -303.17, -303.49, -1026.61, -245.06, 0.000, 0.000, 0.000, 12:48:45.790
78, -1010.52, -1037.84, -1720.78, -930.77, 0.000, 0.000, 0.000, 12:48:45.791
79, -1553.73, -1656.40, -2185.78, -1431.63, 0.000, 0.000, 0.000, 12:48:45.791
80, -914.56, -986.71, -1575.09, -827.70, 0.000, 0.000, 0.000, 12:48:45.791
81, -306.26, -303.73, -1027.98, -245.39, 0.000, 0.000, 0.000, 12:48:45.804
82, -1009.45, -1038.64, -1714.78, -912.60, 0.000, 0.000, 0.000, 12:48:45.804
83, -1553.51, -1660.54, -2181.26, -1432.32, 0.000, 0.000, 0.000, 12:48:45.805
84, -914.69, -987.03, -1573.26, -836.41, 0.000, 0.000, 0.000, 12:48:45.805
85, -307.51, -296.22, -1022.53, -256.54, 0.000, 0.000, 0.000, 12:48:45.864
86, -1008.83, -1031.04, -1712.46, -905.91, 0.000, 0.000, 0.000, 12:48:45.864
87, -1556.70, -1663.32, -2190.90, -1428.80, 0.000, 0.000, 0.000, 12:48:45.866
88, -918.78, -985.06, -1578.77, -836.54, 0.000, 0.000, 0.000, 12:48:45.866
89, -302.83, -303.51, -1021.04, -246.38, 0.000, 0.000, 0.000, 12:48:45.866
90, -998.74, -1025.85, -1703.91, -917.10, 0.000, 0.000, 0.000, 12:48:45.866
91, -1557.04, -1655.59, -2189.14, -1447.36, 0.000, 0.000, 0.000, 12:48:45.867
92, -920.03, -986.83, -1576.64, -841.57, 0.000, 0.000, 0.000, 12:48:45.867
93, -305.19, -300.54, -1025.11, -246.73, 0.000, 0.000, 0.000, 12:48:45.867
94, -1003.79, -1020.89, -1701.80, -905.64, 0.000, 0.000, 0.000, 12:48:45.867
95, -1556.84, -1656.42, -2189.35, -1435.99, 0.000, 0.000, 0.000, 12:48:45.868
96, -922.03, -993.62, -1582.00, -842.10, 0.000, 0.000, 0.000, 12:48:45.868
97, -299.81, -301.17, -1019.78, -255.78, 0.000, 0.000, 0.000, 12:48:45.880
98, -986.44, -1013.88, -1696.86, -915.38, 0.000, 0.000, 0.000, 12:48:45.880
99, -1557.81, -1664.33, -2197.29, -1440.19, 0.000, 0.000, 0.000, 12:48:45.895
100, -923.82, -988.48, -1583.98, -840.37, 0.000, 0.000, 0.000, 12:48:45.895
101, -311.58, -304.97, -1026.72, -247.82, 0.000, 0.000, 0.000, 12:48:45.895
102, -991.00, -1016.47, -1695.16, -902.91, 0.000, 0.000, 0.000, 12:48:45.895
103, -1566.52, -1660.31, -2193.77, -1440.40, 0.000, 0.000, 0.000, 12:48:45.909
104, -927.46, -998.79, -1583.28, -848.47, 0.000, 0.000, 0.000, 12:48:45.909
105, -309.48, -300.76, -1028.64, -251.80, 0.000, 0.000, 0.000, 12:48:45.940
106, -991.45, -1010.66, -1699.59, -882.68, 0.000, 0.000, 0.000, 12:48:45.940
107, -1560.03, -1667.23, -2198.39, -1438.25, 0.000, 0.000, 0.000, 12:48:45.940
108, -929.87, -991.57, -1593.93, -847.27, 0.000, 0.000, 0.000, 12:48:45.941
109, -307.80, -310.08, -1030.76, -256.47, 0.000, 0.000, 0.000, 12:48:45.941
110, -980.86, -1010.32, -1689.72, -899.15, 0.000, 0.000, 0.000, 12:48:45.941
111, -1561.39, -1665.48, -2200.77, -1441.82, 0.000, 0.000, 0.000, 12:48:45.955
112, -930.93, -1004.46, -1593.93, -853.25, 0.000, 0.000, 0.000, 12:48:45.955
113, -312.97, -306.88, -1030.77, -241.12, 0.000, 0.000, 0.000, 12:48:45.955
114, -977.66, -1000.28, -1691.68, -882.34, 0.000, 0.000, 0.000, 12:48:45.956
115, -1568.60, -1669.62, -2199.19, -1444.30, 0.000, 0.000, 0.000, 12:48:45.984
116, -937.34, -1003.98, -1593.28, -849.18, 0.000, 0.000, 0.000, 12:48:45.984
117, -315.63, -304.36, -1034.09, -255.68, 0.000, 0.000, 0.000, 12:48:45.985
118, -973.27, -997.95, -1680.80, -883.14, 0.000, 0.000, 0.000, 12:48:45.985
119, -1560.77, -1669.96, -2204.54, -1439.72, 0.000, 0.000, 0.000, 12:48:45.986
120, -939.58, -1011.37, -1599.30, -852.11, 0.000, 0.000, 0.000, 12:48:45.986
121, -312.21, -308.74, -1032.20, -256.67, 0.000, 0.000, 0.000, 12:48:46.000
122, -965.00, -981.37, -1671.83, -881.78, 0.000, 0.000, 0.000, 12:48:46.000
123, -1568.18, -1671.91, -2198.29, -1443.92, 0.000, 0.000, 0.000, 12:48:46.015
124, -940.86, -1013.27, -1604.40, -853.08, 0.000, 0.000, 0.000, 12:48:46.015
125, -315.79, -311.94, -1028.99, -252.26, 0.000, 0.000, 0.000, 12:48:46.030
126, -969.67, -988.97, -1673.28, -876.38, 0.000, 0.000, 0.000, 12:48:46.030
127, -1574.85, -1672.47, -2206.61, -1447.31, 0.000, 0.000, 0.000, 12:48:46.031
128, -943.71, -1013.93, -1599.88, -853.93, 0.000, 0.000, 0.000, 12:48:46.031
129, -325.20, -318.32, -1037.94, -262.47, 0.000, 0.000, 0.000, 12:48:46.045
130, -977.78, -994.33, -1666.49, -880.23, 0.000, 0.000, 0.000, 12:48:46.045
131, -1573.02, -1662.91, -2183.47, -1451.43, 0.000, 0.000, 0.000, 12:48:46.060
132, -954.31, -1002.08, -1587.90, -866.33, 0.000, 0.000, 0.000, 12:48:46.060
133, -340.84, -309.06, -1021.08, -264.25, 0.000, 0.000, 0.000, 12:48:46.060
134, -968.69, -962.38, -1638.49, -877.63, 0.000, 0.000, 0.000, 12:48:46.061
135, -1584.56, -1650.67, -2176.37, -1454.07, 0.000, 0.000, 0.000, 12:48:46.090
136, -962.94, -1000.74, -1588.21, -872.00, 0.000, 0.000, 0.000, 12:48:46.090
137, -341.72, -305.20, -1016.67, -271.32, 0.000, 0.000, 0.000, 12:48:46.090
138, -980.42, -970.33, -1642.86, -874.91, 0.000, 0.000, 0.000, 12:48:46.090
139, -1598.73, -1676.88, -2198.28, -1455.36, 0.000, 0.000, 0.000, 12:48:46.091
140, -965.63, -1011.80, -1589.28, -869.70, 0.000, 0.000, 0.000, 12:48:46.091
141, -331.79, -307.37, -1024.05, -264.03, 0.000, 0.000, 0.000, 12:48:46.104
142, -963.89, -960.70, -1645.14, -872.78, 0.000, 0.000, 0.000, 12:48:46.104
143, -1588.79, -1672.91, -2200.89, -1458.37, 0.000, 0.000, 0.000, 12:48:46.105
144, -960.99, -1017.17, -1593.06, -875.95, 0.000, 0.000, 0.000, 12:48:46.105
145, -327.99, -313.41, -1019.11, -260.93, 0.000, 0.000, 0.000, 12:48:46.119
146, -944.77, -958.24, -1645.46, -857.27, 0.000, 0.000, 0.000, 12:48:46.119
147, -1573.77, -1670.78, -2197.81, -1454.37, 0.000, 0.000, 0.000, 12:48:46.135
148, -953.02, -1021.58, -1603.14, -864.00, 0.000, 0.000, 0.000, 12:48:46.135
149, -318.87, -308.32, -1030.44, -260.01, 0.000, 0.000, 0.000, 12:48:46.135
150, -939.80, -952.94, -1644.79, -852.69, 0.000, 0.000, 0.000, 12:48:46.135
151, -1577.79, -1680.83, -2202.12, -1454.38, 0.000, 0.000, 0.000, 12:48:46.166
152, -962.56, -1022.65, -1603.31, -868.35, 0.000, 0.000, 0.000, 12:48:46.166
153, -317.32, -319.59, -1033.50, -258.55, 0.000, 0.000, 0.000, 12:48:46.168
154, -938.28, -952.56, -1643.43, -854.32, 0.000, 0.000, 0.000, 12:48:46.168
155, -1579.53, -1684.56, -2203.70, -1460.70, 0.000, 0.000, 0.000, 12:48:46.169
156, -963.04, -1040.13, -1610.97, -871.85, 0.000, 0.000, 0.000, 12:48:46.169
157, -320.09, -311.79, -1029.22, -264.26, 0.000, 0.000, 0.000, 12:48:46.179
158, -929.87, -944.19, -1631.72, -846.44, 0.000, 0.000, 0.000, 12:48:46.179
159, -1588.80, -1680.66, -2203.46, -1462.99, 0.000, 0.000, 0.000, 12:48:46.194
160, -971.36, -1031.40, -1605.57, -866.79, 0.000, 0.000, 0.000, 12:48:46.194
161, -324.29, -311.61, -1026.02, -271.28, 0.000, 0.000, 0.000, 12:48:46.195
162, -929.75, -942.57, -1633.26, -837.61, 0.000, 0.000, 0.000, 12:48:46.195
163, -1579.24, -1678.73, -2208.72, -1456.26, 0.000, 0.000, 0.000, 12:48:46.240
164, -966.39, -1033.20, -1617.50, -875.34, 0.000, 0.000, 0.000, 12:48:46.240
165, -328.42, -318.66, -1030.22, -268.41, 0.000, 0.000, 0.000, 12:48:46.240
166, -929.64, -947.24, -1630.05, -838.25, 0.000, 0.000, 0.000, 12:48:46.240
167, -1585.10, -1684.29, -2212.91, -1459.27, 0.000, 0.000, 0.000, 12:48:46.241
168, -960.12, -1033.91, -1620.45, -883.22, 0.000, 0.000, 0.000, 12:48:46.241
169, -325.08, -315.27, -1036.55, -267.01, 0.000, 0.000, 0.000, 12:48:46.242
170, -915.46, -926.04, -1624.59, -833.22, 0.000, 0.000, 0.000, 12:48:46.242
171, -1581.45, -1681.83, -2206.46, -1451.27, 0.000, 0.000, 0.000, 12:48:46.242
172, -972.32, -1033.76, -1617.98, -886.31, 0.000, 0.000, 0.000, 12:48:46.242
173, -320.40, -324.21, -1033.31, -258.43, 0.000, 0.000, 0.000, 12:48:46.255
174, -913.69, -928.26, -1622.40, -824.38, 0.000, 0.000, 0.000, 12:48:46.255
175, -1576.78, -1683.57, -2220.33, -1464.44, 0.000, 0.000, 0.000, 12:48:46.301
176, -965.34, -1044.39, -1619.99, -878.13, 0.000, 0.000, 0.000, 12:48:46.301
177, -326.25, -322.71, -1037.22, -270.16, 0.000, 0.000, 0.000, 12:48:46.301
178, -916.36, -925.37, -1615.74, -833.38, 0.000, 0.000, 0.000, 12:48:46.301
179, -1586.19, -1684.49, -2211.49, -1461.58, 0.000, 0.000, 0.000, 12:48:46.301
180, -976.37, -1043.21, -1628.23, -878.15, 0.000, 0.000, 0.000, 12:48:46.301
181, -333.36, -329.17, -1042.19, -265.23, 0.000, 0.000, 0.000, 12:48:46.315
182, -910.06, -918.97, -1612.05, -811.61, 0.000, 0.000, 0.000, 12:48:46.315
183, -1582.76, -1692.31, -2216.90, -1463.54, 0.000, 0.000, 0.000, 12:48:46.315
184, -978.25, -1049.05, -1628.25, -886.88, 0.000, 0.000, 0.000, 12:48:46.315
185, -328.52, -327.71, -1036.26, -272.09, 0.000, 0.000, 0.000, 12:48:46.317
186, -904.26, -914.98, -1608.24, -813.00, 0.000, 0.000, 0.000, 12:48:46.317
187, -1594.79, -1691.29, -2223.93, -1463.30, 0.000, 0.000, 0.000, 12:48:46.361
188, -978.31, -1042.50, -1624.91, -884.65, 0.000, 0.000, 0.000, 12:48:46.361
189, -326.50, -328.56, -1045.13, -276.11, 0.000, 0.000, 0.000, 12:48:46.361
190, -900.20, -911.47, -1610.70, -810.67, 0.000, 0.000, 0.000, 12:48:46.361
191, -1584.78, -1691.02, -2215.99, -1470.25, 0.000, 0.000, 0.000, 12:48:46.362
192, -976.13, -1049.24, -1636.08, -888.47, 0.000, 0.000, 0.000, 12:48:46.362
193, -326.14, -323.75, -1037.04, -273.97, 0.000, 0.000, 0.000, 12:48:46.363
194, -893.57, -904.02, -1602.37, -818.56, 0.000, 0.000, 0.000, 12:48:46.363
195, -1590.92, -1695.00, -2219.46, -1454.00, 0.000, 0.000, 0.000, 12:48:46.363
196, -979.98, -1056.01, -1636.87, -888.64, 0.000, 0.000, 0.000, 12:48:46.363
197, -329.72, -334.45, -1041.47, -265.28, 0.000, 0.000, 0.000, 12:48:46.375
198, -891.21, -898.59, -1601.11, -806.54, 0.000, 0.000, 0.000, 12:48:46.375
199, -1586.76, -1692.37, -2222.73, -1467.19, 0.000, 0.000, 0.000, 12:48:46.420
200, -979.86, -1054.97, -1635.84, -892.06, 0.000, 0.000, 0.000, 12:48:46.420
0, -334.75, -331.50, -1044.08, -274.16, 0.000, 0.000, 0.000, 12:48:46.420
1, -884.76, -900.28, -1595.24, -798.95, 0.000, 0.000, 0.000, 12:48:46.421
2, -1586.48, -1692.51, -2221.45, -1468.89, 0.000, 0.000, 0.000, 12:48:46.421
3, -982.53, -1057.46, -1638.04, -905.97, 0.000, 0.000, 0.000, 12:48:46.422
4, -334.52, -333.68, -1047.02, -278.94, 0.000, 0.000, 0.000, 12:48:46.422
5, -881.03, -895.32, -1598.60, -789.89, 0.000, 0.000, 0.000, 12:48:46.422
6, -1591.54, -1687.00, -2228.32, -1466.27, 0.000, 0.000, 0.000, 12:48:46.422
7, -986.70, -1057.57, -1642.00, -898.37, 0.000, 0.000, 0.000, 12:48:46.464
8, -332.63, -335.99, -1046.62, -279.07, 0.000, 0.000, 0.000, 12:48:46.464
9, -878.26, -890.50, -1584.74, -797.35, 0.000, 0.000, 0.000, 12:48:46.465
10, -1592.97, -1695.56, -2223.53, -1472.54, 0.000, 0.000, 0.000, 12:48:46.465
11, -987.25, -1061.35, -1634.20, -904.06, 0.000, 0.000, 0.000, 12:48:46.465
12, -335.44, -338.32, -1047.07, -284.86, 0.000, 0.000, 0.000, 12:48:46.465
13, -873.74, -889.82, -1583.15, -785.15, 0.000, 0.000, 0.000, 12:48:46.468
14, -1589.04, -1692.47, -2219.44, -1470.70, 0.000, 0.000, 0.000, 12:48:46.468
15, -985.70, -1062.17, -1644.29, -901.59, 0.000, 0.000, 0.000, 12:48:46.468
16, -333.74, -335.30, -1047.81, -282.18, 0.000, 0.000, 0.000, 12:48:46.468
17, -867.18, -878.94, -1578.43, -783.71, 0.000, 0.000, 0.000, 12:48:46.495
18, -1590.59, -1692.48, -2226.09, -1474.24, 0.000, 0.000, 0.000, 12:48:46.496
19, -988.58, -1063.51, -1642.50, -908.45, 0.000, 0.000, 0.000, 12:48:46.497
20, -329.48, -333.44, -1043.34, -282.60, 0.000, 0.000, 0.000, 12:48:46.497
21, -862.10, -876.21, -1571.39, -789.49, 0.000, 0.000, 0.000, 12:48:46.509
22, -1590.04, -1693.86, -2231.43, -1475.41, 0.000, 0.000, 0.000, 12:48:46.510
23, -988.82, -1072.63, -1645.16, -902.25, 0.000, 0.000, 0.000, 12:48:46.510
24, -327.42, -338.08, -1041.16, -276.78, 0.000, 0.000, 0.000, 12:48:46.510
25, -858.73, -874.93, -1573.47, -776.32, 0.000, 0.000, 0.000, 12:48:46.525
26, -1588.00, -1697.99, -2225.69, -1477.56, 0.000, 0.000, 0.000, 12:48:46.525
27, -996.61, -1076.87, -1647.41, -910.43, 0.000, 0.000, 0.000, 12:48:46.540
28, -339.20, -347.99, -1045.91, -279.61, 0.000, 0.000, 0.000, 12:48:46.540
29, -854.97, -872.93, -1564.19, -771.74, 0.000, 0.000, 0.000, 12:48:46.540
30, -1593.52, -1699.35, -2223.72, -1479.19, 0.000, 0.000, 0.000, 12:48:46.540
31, -999.98, -1072.29, -1647.38, -917.38, 0.000, 0.000, 0.000, 12:48:46.570
32, -337.53, -330.99, -1046.56, -285.75, 0.000, 0.000, 0.000, 12:48:46.570
33, -844.34, -865.87, -1561.31, -760.90, 0.000, 0.000, 0.000, 12:48:46.570
34, -1592.91, -1701.29, -2220.18, -1476.45, 0.000, 0.000, 0.000, 12:48:46.570
35, -1004.43, -1082.54, -1655.98, -906.52, 0.000, 0.000, 0.000, 12:48:46.571
36, -338.64, -338.35, -1049.96, -280.20, 0.000, 0.000, 0.000, 12:48:46.571
37, -852.16, -858.72, -1563.60, -760.79, 0.000, 0.000, 0.000, 12:48:46.585
38, -1591.15, -1701.21, -2227.56, -1476.57, 0.000, 0.000, 0.000, 12:48:46.585
39, -1003.62, -1079.74, -1663.87, -914.83, 0.000, 0.000, 0.000, 12:48:46.614
40, -339.95, -350.75, -1057.59, -284.02, 0.000, 0.000, 0.000, 12:48:46.614
41, -847.19, -856.23, -1554.46, -760.78, 0.000, 0.000, 0.000, 12:48:46.615
42, -1603.38, -1704.12, -2232.23, -1472.17, 0.000, 0.000, 0.000, 12:48:46.615
43, -1003.87, -1076.34, -1652.73, -925.91, 0.000, 0.000, 0.000, 12:48:46.616
44, -347.26, -355.04, -1052.73, -282.32, 0.000, 0.000, 0.000, 12:48:46.616
45, -841.15, -849.56, -1552.69, -759.64, 0.000, 0.000, 0.000, 12:48:46.645
46, -1600.79, -1697.36, -2231.34, -1485.36, 0.000, 0.000, 0.000, 12:48:46.645
47, -1007.58, -1087.22, -1660.87, -918.74, 0.000, 0.000, 0.000, 12:48:46.649
48, -350.19, -347.28, -1059.32, -285.67, 0.000, 0.000, 0.000, 12:48:46.649
49, -835.86, -847.89, -1546.56, -743.39, 0.000, 0.000, 0.000, 12:48:46.649
50, -1602.11, -1704.72, -2236.32, -1471.98, 0.000, 0.000, 0.000, 12:48:46.649
51, -1004.28, -1086.74, -1658.01, -916.13, 0.000, 0.000, 0.000, 12:48:46.689
52, -349.93, -356.97, -1060.35, -282.33, 0.000, 0.000, 0.000, 12:48:46.689
53, -828.45, -840.99, -1541.85, -747.93, 0.000, 0.000, 0.000, 12:48:46.690
54, -1592.99, -1702.56, -2236.61, -1481.79, 0.000, 0.000, 0.000, 12:48:46.690
55, -1008.73, -1084.70, -1662.74, -917.71, 0.000, 0.000, 0.000, 12:48:46.719
56, -347.66, -346.97, -1060.49, -293.30, 0.000, 0.000, 0.000, 12:48:46.719
57, -827.35, -827.28, -1543.34, -744.17, 0.000, 0.000, 0.000, 12:48:46.720
58, -1601.42, -1699.85, -2231.30, -1485.90, 0.000, 0.000, 0.000, 12:48:46.720
59, -1016.96, -1099.42, -1664.35, -925.44, 0.000, 0.000, 0.000, 12:48:46.735
60, -350.49, -353.18, -1058.18, -292.43, 0.000, 0.000, 0.000, 12:48:46.735
61, -827.74, -830.86, -1542.47, -737.42, 0.000, 0.000, 0.000, 12:48:46.735
62, -1604.20, -1701.73, -2240.47, -1478.83, 0.000, 0.000, 0.000, 12:48:46.735
63, -1020.79, -1095.83, -1673.06, -928.52, 0.000, 0.000, 0.000, 12:48:46.738
64, -356.44, -355.20, -1060.84, -290.92, 0.000, 0.000, 0.000, 12:48:46.738
65, -821.78, -822.37, -1532.13, -734.59, 0.000, 0.000, 0.000, 12:48:46.739
66, -1601.93, -1699.80, -2236.74, -1478.49, 0.000, 0.000, 0.000, 12:48:46.739
67, -1019.92, -1091.25, -1671.89, -926.78, 0.000, 0.000, 0.000, 12:48:46.739
68, -354.80, -351.97, -1059.83, -295.74, 0.000, 0.000, 0.000, 12:48:46.739
69, -816.09, -824.99, -1529.48, -729.92, 0.000, 0.000, 0.000, 12:48:46.739
70, -1600.28, -1703.26, -2232.35, -1486.03, 0.000, 0.000, 0.000, 12:48:46.739
71, -1020.03, -1098.23, -1668.55, -930.62, 0.000, 0.000, 0.000, 12:48:46.752
72, -352.16, -358.32, -1058.67, -296.84, 0.000, 0.000, 0.000, 12:48:46.753
73, -808.23, -816.96, -1525.60, -730.29, 0.000, 0.000, 0.000, 12:48:46.794
74, -1596.41, -1710.19, -2229.77, -1488.14, 0.000, 0.000, 0.000, 12:48:46.795
75, -1017.95, -1094.23, -1673.30, -938.48, 0.000, 0.000, 0.000, 12:48:46.795
76, -345.99, -356.82, -1062.13, -298.29, 0.000, 0.000, 0.000, 12:48:46.795
77, -800.63, -808.60, -1520.37, -720.46, 0.000, 0.000, 0.000, 12:48:46.795
78, -1601.56, -1712.03, -2238.21, -1481.70, 0.000, 0.000, 0.000, 12:48:46.796
79, -1028.59, -1109.95, -1682.31, -930.61, 0.000, 0.000, 0.000, 12:48:46.797
80, -344.35, -364.64, -1065.44, -287.02, 0.000, 0.000, 0.000, 12:48:46.797
81, -797.26, -810.26, -1524.12, -718.93, 0.000, 0.000, 0.000, 12:48:46.797
82, -1606.93, -1702.24, -2245.46, -1479.66, 0.000, 0.000, 0.000, 12:48:46.797
83, -1021.49, -1102.60, -1674.45, -931.07, 0.000, 0.000, 0.000, 12:48:46.810
84, -353.71, -355.69, -1066.26, -296.05, 0.000, 0.000, 0.000, 12:48:46.810
85, -803.53, -809.30, -1517.78, -726.01, 0.000, 0.000, 0.000, 12:48:46.855
86, -1597.31, -1704.25, -2238.22, -1487.74, 0.000, 0.000, 0.000, 12:48:46.855
87, -1015.01, -1106.67, -1675.25, -941.76, 0.000, 0.000, 0.000, 12:48:46.870
88, -352.16, -364.97, -1066.52, -299.77, 0.000, 0.000, 0.000, 12:48:46.870
89, -787.65, -800.36, -1510.09, -720.94, 0.000, 0.000, 0.000, 12:48:46.885
90, -1597.79, -1710.17, -2245.12, -1494.01, 0.000, 0.000, 0.000, 12:48:46.885
91, -1022.90, -1109.51, -1683.80, -942.43, 0.000, 0.000, 0.000, 12:48:46.885
92, -351.49, -360.64, -1063.20, -300.65, 0.000, 0.000, 0.000, 12:48:46.885
93, -787.88, -799.35, -1514.44, -715.04, 0.000, 0.000, 0.000, 12:48:46.886
94, -1602.26, -1708.04, -2241.90, -1489.05, 0.000, 0.000, 0.000, 12:48:46.886
95, -1029.87, -1115.80, -1690.88, -944.77, 0.000, 0.000, 0.000, 12:48:46.887
96, -357.89, -364.73, -1070.63, -299.09, 0.000, 0.000, 0.000, 12:48:46.887
97, -786.70, -801.99, -1506.19, -716.25, 0.000, 0.000, 0.000, 12:48:46.887
98, -1604.05, -1706.31, -2242.45, -1490.90, 0.000, 0.000, 0.000, 12:48:46.887
99, -1036.74, -1118.49, -1684.01, -944.23, 0.000, 0.000, 0.000, 12:48:46.888
100, -357.35, -367.52, -1071.47, -297.51, 0.000, 0.000, 0.000, 12:48:46.888
101, -773.43, -788.91, -1494.98, -699.00, 0.000, 0.000, 0.000, 12:48:46.915
102, -1603.36, -1705.84, -2247.83, -1487.47, 0.000, 0.000, 0.000, 12:48:46.915
103, -1034.75, -1117.75, -1687.44, -950.30, 0.000, 0.000, 0.000, 12:48:46.915
104, -355.36, -365.37, -1070.16, -304.24, 0.000, 0.000, 0.000, 12:48:46.916
105, -773.29, -788.46, -1501.29, -702.02, 0.000, 0.000, 0.000, 12:48:46.944
106, -1604.28, -1712.50, -2247.64, -1483.10, 0.000, 0.000, 0.000, 12:48:46.945
107, -1038.42, -1128.02, -1693.86, -947.50, 0.000, 0.000, 0.000, 12:48:46.945
108, -359.54, -375.18, -1068.65, -301.72, 0.000, 0.000, 0.000, 12:48:46.945
109, -771.79, -781.92, -1491.11, -698.42, 0.000, 0.000, 0.000, 12:48:46.946
110, -1606.95, -1705.04, -2241.81, -1486.38, 0.000, 0.000, 0.000, 12:48:46.946
111, -1040.57, -1124.77, -1694.46, -950.47, 0.000, 0.000, 0.000, 12:48:46.960
112, -370.14, -379.88, -1081.48, -302.65, 0.000, 0.000, 0.000, 12:48:46.960
113, -769.48, -777.10, -1483.16, -691.38, 0.000, 0.000, 0.000, 12:48:46.960
114, -1607.33, -1705.54, -2242.03, -1489.23, 0.000, 0.000, 0.000, 12:48:46.961
115, -1041.37, -1120.03, -1691.70, -960.09, 0.000, 0.000, 0.000, 12:48:46.975
116, -370.02, -372.53, -1075.96, -304.90, 0.000, 0.000, 0.000, 12:48:46.975
117, -765.64, -774.54, -1485.04, -687.89, 0.000, 0.000, 0.000, 12:48:47.004
118, -1613.73, -1716.74, -2246.67, -1492.03, 0.000, 0.000, 0.000, 12:48:47.004
119, -1042.46, -1127.24, -1690.98, -962.41, 0.000, 0.000, 0.000, 12:48:47.005
120, -369.15, -373.72, -1078.07, -305.70, 0.000, 0.000, 0.000, 12:48:47.005
121, -758.76, -765.12, -1481.40, -688.74, 0.000, 0.000, 0.000, 12:48:47.005
122, -1606.72, -1707.20, -2244.33, -1488.24, 0.000, 0.000, 0.000, 12:48:47.005
123, -1047.97, -1129.35, -1696.09, -966.98, 0.000, 0.000, 0.000, 12:48:47.020
124, -363.71, -376.99, -1077.58, -307.71, 0.000, 0.000, 0.000, 12:48:47.020
125, -751.88, -758.22, -1477.11, -684.38, 0.000, 0.000, 0.000, 12:48:47.035
126, -1604.82, -1707.74, -2254.28, -1492.03, 0.000, 0.000, 0.000, 12:48:47.035
127, -1043.23, -1126.19, -1701.65, -955.34, 0.000, 0.000, 0.000, 12:48:47.050
128, -363.38, -379.18, -1082.71, -313.85, 0.000, 0.000, 0.000, 12:48:47.050
129, -748.02, -756.66, -1476.11, -682.76, 0.000, 0.000, 0.000, 12:48:47.050
130, -1608.79, -1713.16, -2246.59, -1495.26, 0.000, 0.000, 0.000, 12:48:47.051
131, -1050.92, -1130.62, -1700.70, -960.64, 0.000, 0.000, 0.000, 12:48:47.051
132, -367.97, -371.84, -1078.65, -310.92, 0.000, 0.000, 0.000, 12:48:47.051
133, -746.90, -745.32, -1469.90, -676.22, 0.000, 0.000, 0.000, 12:48:47.065
134, -1611.66, -1706.26, -2244.83, -1483.88, 0.000, 0.000, 0.000, 12:48:47.065
135, -1063.24, -1130.45, -1705.17, -964.88, 0.000, 0.000, 0.000, 12:48:47.095
136, -374.85, -379.25, -1079.62, -310.77, 0.000, 0.000, 0.000, 12:48:47.096
137, -740.72, -744.71, -1465.59, -660.97, 0.000, 0.000, 0.000, 12:48:47.096
138, -1603.41, -1708.03, -2250.48, -1492.46, 0.000, 0.000, 0.000, 12:48:47.096
139, -1053.74, -1137.00, -1711.10, -967.01, 0.000, 0.000, 0.000, 12:48:47.097
140, -367.72, -384.88, -1083.10, -315.56, 0.000, 0.000, 0.000, 12:48:47.097
141, -740.88, -743.94, -1469.34, -656.71, 0.000, 0.000, 0.000, 12:48:47.110
142, -1604.63, -1709.60, -2246.92, -1486.71, 0.000, 0.000, 0.000, 12:48:47.110
143, -1058.68, -1137.62, -1706.66, -968.66, 0.000, 0.000, 0.000, 12:48:47.110
144, -378.28, -385.77, -1084.10, -316.44, 0.000, 0.000, 0.000, 12:48:47.110
145, -749.17, -748.08, -1471.04, -667.12, 0.000, 0.000, 0.000, 12:48:47.125
146, -1615.21, -1712.78, -2251.49, -1482.21, 0.000, 0.000, 0.000, 12:48:47.125
147, -1060.05, -1139.80, -1710.48, -969.38, 0.000, 0.000, 0.000, 12:48:47.139
148, -369.56, -386.40, -1082.26, -319.59, 0.000, 0.000, 0.000, 12:48:47.139
149, -735.37, -735.38, -1449.78, -660.46, 0.000, 0.000, 0.000, 12:48:47.140
150, -1611.82, -1710.84, -2247.66, -1494.74, 0.000, 0.000, 0.000, 12:48:47.140
151, -1056.74, -1146.53, -1706.69, -974.48, 0.000, 0.000, 0.000, 12:48:47.169
152, -375.01, -389.65, -1083.32, -317.16, 0.000, 0.000, 0.000, 12:48:47.169
153, -731.49, -735.29, -1450.19, -661.75, 0.000, 0.000, 0.000, 12:48:47.170
154, -1613.55, -1711.75, -2251.66, -1487.10, 0.000, 0.000, 0.000, 12:48:47.170
155, -1062.11, -1144.63, -1715.20, -971.07, 0.000, 0.000, 0.000, 12:48:47.170
156, -374.01, -383.22, -1085.44, -317.44, 0.000, 0.000, 0.000, 12:48:47.170
157, -735.70, -739.33, -1452.12, -651.71, 0.000, 0.000, 0.000, 12:48:47.200
158, -1611.49, -1713.75, -2245.53, -1489.34, 0.000, 0.000, 0.000, 12:48:47.200
159, -1072.08, -1145.52, -1711.77, -976.50, 0.000, 0.000, 0.000, 12:48:47.201
160, -383.58, -391.17, -1087.40, -324.00, 0.000, 0.000, 0.000, 12:48:47.201
161, -733.10, -721.48, -1445.24, -649.96, 0.000, 0.000, 0.000, 12:48:47.201
162, -1622.75, -734.51, -2254.29, -1488.58, 0.000, 0.000, 0.000, 12:48:47.201
163, -1079.79, -171.19, -1724.36, -976.87, 0.000, 0.000, 0.000, 12:48:47.216
164, -387.73, 593.62, -1083.13, -316.26, 0.000, 0.000, 0.000, 12:48:47.216
165, -724.89, 257.08, -1441.79, -642.63, 0.000, 0.000, 0.000, 12:48:47.230
166, -1619.34, 245.30, -2254.19, -1493.55, 0.000, 0.000, 0.000, 12:48:47.230
167, -1071.90, 804.28, -1713.82, -980.42, 0.000, 0.000, 0.000, 12:48:47.230
168, -383.88, 1561.80, -1085.76, -322.28, 0.000, 0.000, 0.000, 12:48:47.230
169, -716.50, 1226.65, -1433.40, -643.45, 0.000, 0.000, 0.000, 12:48:47.245
170, -1611.10, 1211.16, -2256.42, -1478.11, 0.000, 0.000, 0.000, 12:48:47.245
171, -1062.15, 1770.35, -1712.65, -981.80, 0.000, 0.000, 0.000, 12:48:47.259
172, -368.92, 2547.15, -1085.41, -326.04, 0.000, 0.000, 0.000, 12:48:47.260
173, -685.85, 2193.80, -1415.10, -648.47, 0.000, 0.000, 0.000, 12:48:47.260
174, -1573.38, 1223.12, -2239.03, -1504.48, 0.000, 0.000, 0.000, 12:48:47.260
175, -1027.96, 1761.32, -1714.35, -1002.50, 0.000, 0.000, 0.000, 12:48:47.274
176, -323.56, 2497.14, -1081.27, -342.50, 0.000, 0.000, 0.000, 12:48:47.274
177, -638.18, 2178.99, -1429.08, -657.63, 0.000, 0.000, 0.000, 12:48:47.289
178, -1525.03, 2163.11, -2250.12, -1513.95, 0.000, 0.000, 0.000, 12:48:47.289
179, -980.67, 2702.24, -1724.83, -1001.57, 0.000, 0.000, 0.000, 12:48:47.290
180, -286.30, 3466.76, -1099.81, -349.05, 0.000, 0.000, 0.000, 12:48:47.290
181, -614.95, 3145.67, -1436.99, -648.52, 0.000, 0.000, 0.000, 12:48:47.305
182, -1518.05, 3127.29, -2255.42, -1501.61, 0.000, 0.000, 0.000, 12:48:47.305
183, -992.32, 3683.58, -1742.98, -1003.39, 0.000, 0.000, 0.000, 12:48:47.335
184, -305.03, 4456.58, -1101.87, -342.95, 0.000, 0.000, 0.000, 12:48:47.335
185, -632.56, 4160.56, -1436.62, -642.72, 0.000, 0.000, 0.000, 12:48:47.335
186, -1552.82, 4142.25, -2253.07, -1504.65, 0.000, 0.000, 0.000, 12:48:47.335
187, -1036.40, 4695.77, -1733.03, -1002.58, 0.000, 0.000, 0.000, 12:48:47.336
188, -351.11, 5462.47, -1096.69, -335.06, 0.000, 0.000, 0.000, 12:48:47.336
189, -670.02, 5171.54, -1419.77, -633.18, 0.000, 0.000, 0.000, 12:48:47.351
190, -1593.80, 5144.63, -2251.23, -1490.43, 0.000, 0.000, 0.000, 12:48:47.351
191, -1079.32, 5689.64, -1730.14, -999.13, 0.000, 0.000, 0.000, 12:48:47.351
192, -393.58, 6454.77, -1101.14, -335.94, 0.000, 0.000, 0.000, 12:48:47.351
193, -695.31, 6173.76, -1413.77, -621.03, 0.000, 0.000, 0.000, 12:48:47.365
194, -1619.90, 6135.30, -2252.93, -1496.00, 0.000, 0.000, 0.000, 12:48:47.365
195, -1095.72, 6686.41, -1730.08, -993.75, 0.000, 0.000, 0.000, 12:48:47.396
196, -413.33, 7451.14, -1105.56, -328.65, 0.000, 0.000, 0.000, 12:48:47.396
197, -710.31, 7162.52, -1417.48, -609.20, 0.000, 0.000, 0.000, 12:48:47.396
198, -1633.06, 7125.53, -2253.64, -1487.74, 0.000, 0.000, 0.000, 12:48:47.396
199, -1112.47, 7664.10, -1736.38, -991.05, 0.000, 0.000, 0.000, 12:48:47.396
200, -413.76, 8426.30, -1097.15, -338.31, 0.000, 0.000, 0.000, 12:48:47.396
0, -702.75, -668.83, -1406.65, -612.30, 0.000, 0.000, 0.000, 12:48:47.397
1, -1631.15, -714.64, -2253.30, -1496.48, 0.000, 0.000, 0.000, 12:48:47.425
2, -1101.80, -176.03, -1738.82, -997.05, 0.000, 0.000, 0.000, 12:48:47.425
3, -417.78, 581.82, -1101.47, -336.45, 0.000, 0.000, 0.000, 12:48:47.425
4, -704.43, 305.80, -1410.68, -603.29, 0.000, 0.000, 0.000, 12:48:47.425
5, -1628.37, 260.79, -2257.18, -1489.96, 0.000, 0.000, 0.000, 12:48:47.426
6, -1111.13, 800.95, -1745.62, -996.81, 0.000, 0.000, 0.000, 12:48:47.426
7, -421.30, 1558.71, -1101.21, -338.04, 0.000, 0.000, 0.000, 12:48:47.440
8, -694.99, 1291.67, -1398.07, -606.56, 0.000, 0.000, 0.000, 12:48:47.440
9, -1629.59, 1238.26, -2253.73, -1490.26, 0.000, 0.000, 0.000, 12:48:47.454
10, -1116.80, 1772.39, -1741.79, -1000.38, 0.000, 0.000, 0.000, 12:48:47.454
11, -420.34, 2536.37, -1101.96, -338.42, 0.000, 0.000, 0.000, 12:48:47.455
12, -690.47, 2274.23, -1398.41, -605.06, 0.000, 0.000, 0.000, 12:48:47.455
13, -1632.08, 2221.55, -2254.23, -1494.54, 0.000, 0.000, 0.000, 12:48:47.469
14, -1116.39, 2745.46, -1748.62, -1003.94, 0.000, 0.000, 0.000, 12:48:47.469
15, -415.19, 3520.21, -1103.06, -347.38, 0.000, 0.000, 0.000, 12:48:47.485
16, -687.53, 3260.14, -1395.68, -605.19, 0.000, 0.000, 0.000, 12:48:47.485
17, -1626.65, 3201.42, -2250.18, -1491.29, 0.000, 0.000, 0.000, 12:48:47.501
18, -1117.41, 3723.60, -1748.26, -1002.19, 0.000, 0.000, 0.000, 12:48:47.501
19, -421.28, 4486.06, -1106.91, -339.16, 0.000, 0.000, 0.000, 12:48:47.501
20, -688.04, 4238.26, -1392.41, -594.57, 0.000, 0.000, 0.000, 12:48:47.501
21, -1628.82, 4183.52, -2254.43, -1493.66, 0.000, 0.000, 0.000, 12:48:47.530
22, -1120.79, 4704.00, -1744.63, -1007.87, 0.000, 0.000, 0.000, 12:48:47.530
23, -415.36, 5479.48, -1098.88, -343.95, 0.000, 0.000, 0.000, 12:48:47.530
24, -678.15, 5227.13, -1390.54, -591.97, 0.000, 0.000, 0.000, 12:48:47.530
25, -1619.61, 5155.78, -2256.09, -1489.28, 0.000, 0.000, 0.000, 12:48:47.531
26, -1109.94, 5677.03, -1751.34, -1003.63, 0.000, 0.000, 0.000, 12:48:47.531
27, -411.83, 6443.03, -1112.93, -341.59, 0.000, 0.000, 0.000, 12:48:47.560
28, -671.90, 6202.76, -1389.34, -585.65, 0.000, 0.000, 0.000, 12:48:47.560
29, -1621.56, 6135.47, -2252.64, -1494.38, 0.000, 0.000, 0.000, 12:48:47.560
30, -1111.03, 6662.40, -1755.88, -1015.70, 0.000, 0.000, 0.000, 12:48:47.560
31, -414.66, 7428.00, -1108.62, -342.03, 0.000, 0.000, 0.000, 12:48:47.561
32, -665.72, 7191.20, -1384.33, -578.62, 0.000, 0.000, 0.000, 12:48:47.561
33, -1625.03, 7120.83, -2252.39, -1486.31, 0.000, 0.000, 0.000, 12:48:47.574
34, -1118.81, 7637.20, -1749.93, -1009.35, 0.000, 0.000, 0.000, 12:48:47.574
35, -421.56, 8405.31, -1118.65, -343.02, 0.000, 0.000, 0.000, 12:48:47.575
36, -662.24, 8165.70, -1381.57, -585.09, 0.000, 0.000, 0.000, 12:48:47.575
37, -1617.12, 8099.73, -2255.20, -1490.06, 0.000, 0.000, 0.000, 12:48:47.605
38, -1117.56, 8614.94, -1754.35, -1009.39, 0.000, 0.000, 0.000, 12:48:47.605
39, -417.09, 9387.36, -1113.80, -344.96, 0.000, 0.000, 0.000, 12:48:47.605
40, -656.25, 9154.01, -1375.19, -579.93, 0.000, 0.000, 0.000, 12:48:47.605
41, -1613.78, 9080.21, -2251.31, -1495.64, 0.000, 0.000, 0.000, 12:48:47.606
42, -1117.00, 9592.58, -1762.06, -1019.57, 0.000, 0.000, 0.000, 12:48:47.606
43, -413.58, 10356.48, -1119.45, -353.51, 0.000, 0.000, 0.000, 12:48:47.627
44, -649.87, 10141.22, -1374.48, -581.94, 0.000, 0.000, 0.000, 12:48:47.627
45, -1614.17, 10064.48, -2256.22, -1495.81, 0.000, 0.000, 0.000, 12:48:47.635
46, -1117.45, 10571.28, -1760.47, -1017.87, 0.000, 0.000, 0.000, 12:48:47.635
47, -414.97, 11337.58, -1119.58, -354.04, 0.000, 0.000, 0.000, 12:48:47.635
48, -643.25, 11136.11, -1368.84, -576.09, 0.000, 0.000, 0.000, 12:48:47.635
49, -1610.52, 11038.56, -2255.06, -1490.62, 0.000, 0.000, 0.000, 12:48:47.651
50, -1116.70, 11548.83, -1762.03, -1029.18, 0.000, 0.000, 0.000, 12:48:47.651
51, -422.40, 12316.91, -1119.34, -353.13, 0.000, 0.000, 0.000, 12:48:47.666
52, -643.46, 12110.81, -1367.51, -567.22, 0.000, 0.000, 0.000, 12:48:47.666
53, -1611.25, 12016.52, -2258.39, -1488.51, 0.000, 0.000, 0.000, 12:48:47.666
54, -1111.97, 12523.90, -1771.30, -1021.11, 0.000, 0.000, 0.000, 12:48:47.666
55, -416.14, 13294.56, -1120.94, -357.80, 0.000, 0.000, 0.000, 12:48:47.680
56, -638.77, 13096.24, -1361.79, -565.63, 0.000, 0.000, 0.000, 12:48:47.681
57, -1608.91, 13008.19, -2259.32, -1498.07, 0.000, 0.000, 0.000, 12:48:47.695
58, -1118.88, 13503.38, -1767.31, -1023.58, 0.000, 0.000, 0.000, 12:48:47.695
59, -417.96, 14268.63, -1120.90, -348.67, 0.000, 0.000, 0.000, 12:48:47.695
60, -633.89, 14074.06, -1363.00, -557.36, 0.000, 0.000, 0.000, 12:48:47.696
61, -633.92, 13979.62, -2250.34, -1504.73, 0.000, 0.000, 0.000, 12:48:47.725
62, -138.91, 14481.31, -1761.84, -1024.32, 0.000, 0.000, 0.000, 12:48:47.725
63, 566.39, 15259.13, -1119.56, -359.44, 0.000, 0.000, 0.000, 12:48:47.725
64, 338.79, 15051.76, -1354.63, -552.63, 0.000, 0.000, 0.000, 12:48:47.725
65, 337.10, 14971.92, -2251.42, -1486.85, 0.000, 0.000, 0.000, 12:48:47.726
66, 828.31, 15463.24, -1766.65, -1024.82, 0.000, 0.000, 0.000, 12:48:47.726
67, 1518.09, 16233.26, -1122.72, -362.40, 0.000, 0.000, 0.000, 12:48:47.755
68, 1316.78, 16057.53, -1351.41, -552.75, 0.000, 0.000, 0.000, 12:48:47.755
69, 1305.71, 15941.06, -2257.84, -1491.88, 0.000, 0.000, 0.000, 12:48:47.755
70, 1802.46, 16442.35, -1766.03, -1022.55, 0.000, 0.000, 0.000, 12:48:47.755
71, 2503.92, 17213.54, -1119.32, -359.03, 0.000, 0.000, 0.000, 12:48:47.756
72, 2302.11, 17029.55, -1346.87, -553.09, 0.000, 0.000, 0.000, 12:48:47.756
73, 2301.02, 16931.11, -2257.85, -1495.77, 0.000, 0.000, 0.000, 12:48:47.769
74, 2786.48, 17420.17, -1768.84, -1028.04, 0.000, 0.000, 0.000, 12:48:47.769
75, 3489.71, 18186.52, -1126.71, -362.82, 0.000, 0.000, 0.000, 12:48:47.786
76, 3296.66, 18015.55, -1342.76, -550.17, 0.000, 0.000, 0.000, 12:48:47.786
77, 3290.29, 17912.71, -2247.50, -1489.18, 0.000, 0.000, 0.000, 12:48:47.786
78, 3772.43, 18396.09, -1771.95, -1037.68, 0.000, 0.000, 0.000, 12:48:47.786
79, 4468.35, 19165.32, -1128.55, -358.96, 0.000, 0.000, 0.000, 12:48:47.800
80, 4280.93, 18997.86, -1345.18, -545.56, 0.000, 0.000, 0.000, 12:48:47.801
81, 4266.70, 18889.19, -2250.18, -1491.81, 0.000, 0.000, 0.000, 12:48:47.830
82, 4748.09, 19371.90, -1774.94, -1035.22, 0.000, 0.000, 0.000, 12:48:47.830
83, 5452.05, 20148.29, -1126.29, -369.75, 0.000, 0.000, 0.000, 12:48:47.830
84, 5260.98, 19978.84, -1342.73, -555.33, 0.000, 0.000, 0.000, 12:48:47.830
85, 5257.99, 19872.97, -2245.62, -1491.88, 0.000, 0.000, 0.000, 12:48:47.831
86, 5723.49, 20350.98, -1773.59, -1035.03, 0.000, 0.000, 0.000, 12:48:47.831
87, 6425.10, 21115.81, -1127.91, -378.60, 0.000, 0.000, 0.000, 12:48:47.845
88, 6248.77, 20961.75, -1334.42, -544.17, 0.000, 0.000, 0.000, 12:48:47.845
89, 6232.54, 20851.15, -2245.12, -1490.77, 0.000, 0.000, 0.000, 12:48:47.845
90, 6706.45, 21332.93, -1780.97, -1048.08, 0.000, 0.000, 0.000, 12:48:47.846
91, 7409.07, 22098.25, -1134.00, -372.64, 0.000, 0.000, 0.000, 12:48:47.890
92, 7238.46, 21945.15, -1335.39, -536.74, 0.000, 0.000, 0.000, 12:48:47.890
93, 7223.31, 21826.90, -2251.53, -1486.32, 0.000, 0.000, 0.000, 12:48:47.890
94, 7689.08, 22305.70, -1786.33, -1037.66, 0.000, 0.000, 0.000, 12:48:47.890
95, 8387.48, 23071.59, -1141.61, -374.63, 0.000, 0.000, 0.000, 12:48:47.891
96, 8220.43, 22927.90, -1331.22, -532.86, 0.000, 0.000, 0.000, 12:48:47.891
97, 8201.22, 22808.24, -2251.06, -1494.30, 0.000, 0.000, 0.000, 12:48:47.891
98, 8672.81, 23287.70, -1782.36, -1039.60, 0.000, 0.000, 0.000, 12:48:47.892
99, 9369.94, 24065.59, -1138.42, -376.14, 0.000, 0.000, 0.000, 12:48:47.892
100, 9203.25, 23919.29, -1321.05, -532.58, 0.000, 0.000, 0.000, 12:48:47.892
101, 9181.78, 23792.03, -2253.49, -1481.81, 0.000, 0.000, 0.000, 12:48:47.905
102, 9639.34, 24262.90, -1786.12, -1038.19, 0.000, 0.000, 0.000, 12:48:47.905
103, 10345.89, 25033.26, -1141.26, -372.40, 0.000, 0.000, 0.000, 12:48:47.920
104, 10186.07, 24892.00, -1324.44, -524.47, 0.000, 0.000, 0.000, 12:48:47.920
105, 10156.14, 24767.04, -2255.58, -1486.52, 0.000, 0.000, 0.000, 12:48:47.950
106, 10620.86, 25234.99, -1793.92, -1044.21, 0.000, 0.000, 0.000, 12:48:47.951
107, 11318.77, 26005.51, -1145.75, -379.26, 0.000, 0.000, 0.000, 12:48:47.951
108, 11166.59, 25877.60, -1324.18, -527.64, 0.000, 0.000, 0.000, 12:48:47.951
109, 11140.69, 25748.81, -2247.93, -1487.16, 0.000, 0.000, 0.000, 12:48:47.965
110, 11603.51, 26220.96, -1789.90, -1050.11, 0.000, 0.000, 0.000, 12:48:47.965
111, 12299.33, 26992.26, -1143.86, -379.89, 0.000, 0.000, 0.000, 12:48:47.965
112, 12149.68, 26866.65, -1315.24, -520.08, 0.000, 0.000, 0.000, 12:48:47.965
113, 12120.24, 26737.19, -2246.40, -1485.56, 0.000, 0.000, 0.000, 12:48:47.966
114, 12581.54, 27200.15, -1780.51, -1052.87, 0.000, 0.000, 0.000, 12:48:47.966
115, 13279.48, 27965.37, -1142.91, -385.21, 0.000, 0.000, 0.000, 12:48:47.980
116, 13138.98, 27845.42, -1313.50, -516.38, 0.000, 0.000, 0.000, 12:48:47.980
117, 13092.16, 27711.49, -2246.31, -1488.70, 0.000, 0.000, 0.000, 12:48:47.995
118, 13559.16, 28179.42, -1788.40, -1052.01, 0.000, 0.000, 0.000, 12:48:47.995
119, 14257.53, 28940.68, -1147.73, -388.53, 0.000, 0.000, 0.000, 12:48:48.002
120, 14117.97, 28833.49, -1308.40, -520.91, 0.000, 0.000, 0.000, 12:48:48.002
121, 14079.33, 28693.62, -2249.24, -1472.23, 0.000, 0.000, 0.000, 12:48:48.010
122, 14537.57, 29148.78, -1795.90, -1052.82, 0.000, 0.000, 0.000, 12:48:48.010
123, 15241.87, 29920.98, -1143.70, -382.91, 0.000, 0.000, 0.000, 12:48:48.025
124, 15106.20, 29818.78, -1301.82, -514.13, 0.000, 0.000, 0.000, 12:48:48.025
125, 15061.59, 29679.62, -2243.61, -1485.58, 0.000, 0.000, 0.000, 12:48:48.026
126, 15516.80, 30134.48, -1796.74, -1056.13, 0.000, 0.000, 0.000, 12:48:48.026
127, 16214.20, 30894.63, -1146.93, -382.31, 0.000, 0.000, 0.000, 12:48:48.055
128, 16083.28, 30793.38, -1304.66, -511.11, 0.000, 0.000, 0.000, 12:48:48.055
129, 16040.80, 30659.93, -2249.56, -1489.51, 0.000, 0.000, 0.000, 12:48:48.055
130, 16486.21, 31110.46, -1800.65, -1059.13, 0.000, 0.000, 0.000, 12:48:48.055
131, 17190.52, 31885.38, -1154.10, -394.62, 0.000, 0.000, 0.000, 12:48:48.056
132, 17063.38, 31787.00, -1303.61, -499.71, 0.000, 0.000, 0.000, 12:48:48.056
133, 17026.08, 31641.15, -2261.34, -1472.35, 0.000, 0.000, 0.000, 12:48:48.070
134, 17457.12, 32092.34, -1806.41, -1051.13, 0.000, 0.000, 0.000, 12:48:48.070
135, 18159.25, 32862.74, -1153.97, -378.47, 0.000, 0.000, 0.000, 12:48:48.084
136, 18038.95, 32765.68, -1305.24, -497.11, 0.000, 0.000, 0.000, 12:48:48.084
137, 17996.12, 32621.58, -2246.80, -497.24, 0.000, 0.000, 0.000, 12:48:48.086
138, 18446.06, 33076.43, -1802.34, -81.05, 0.000, 0.000, 0.000, 12:48:48.086
139, 19151.55, 33845.27, -1148.79, 593.39, 0.000, 0.000, 0.000, 12:48:48.115
140, 19028.32, 33741.30, -1300.99, 475.21, 0.000, 0.000, 0.000, 12:48:48.115
141, 18988.33, 33608.25, -2244.05, -494.38, 0.000, 0.000, 0.000, 12:48:48.115
142, 19421.42, 34041.65, -1807.09, -78.56, 0.000, 0.000, 0.000, 12:48:48.115
143, 20126.44, 34822.31, -1148.90, 596.32, 0.000, 0.000, 0.000, 12:48:48.117
144, 20013.81, 34733.19, -1288.55, 477.85, 0.000, 0.000, 0.000, 12:48:48.117
145, 19961.97, 34586.41, -2241.81, -494.84, 0.000, 0.000, 0.000, 12:48:48.130
146, 20397.69, 35018.01, -1803.03, -85.23, 0.000, 0.000, 0.000, 12:48:48.130
147, 21106.34, 35791.84, -1153.34, 597.07, 0.000, 0.000, 0.000, 12:48:48.146
148, 20998.18, 35717.72, -1291.03, 484.49, 0.000, 0.000, 0.000, 12:48:48.146
149, 20946.94, 35565.67, -2246.74, 476.99, 0.000, 0.000, 0.000, 12:48:48.147
150, 21383.80, 36003.58, -1804.83, 885.84, 0.000, 0.000, 0.000, 12:48:48.147
151, 22091.13, 36777.22, -1152.11, 1553.88, 0.000, 0.000, 0.000, 12:48:48.160
152, 21986.87, 36699.94, -1287.94, 1461.07, 0.000, 0.000, 0.000, 12:48:48.160
153, 21927.24, 36545.52, -2246.22, 481.48, 0.000, 0.000, 0.000, 12:48:48.189
154, 22356.01, 36978.67, -1808.01, 888.71, 0.000, 0.000, 0.000, 12:48:48.189
155, 23058.81, 37750.04, -1159.82, 1559.08, 0.000, 0.000, 0.000, 12:48:48.190
156, 22968.51, 37689.01, -1287.17, 1464.40, 0.000, 0.000, 0.000, 12:48:48.190
157, 22909.41, 37527.14, -2240.15, 1460.15, 0.000, 0.000, 0.000, 12:48:48.191
158, 23339.71, 37960.80, -1805.81, 1866.72, 0.000, 0.000, 0.000, 12:48:48.191
159, 24042.70, 38732.50, -1157.28, 2531.84, 0.000, 0.000, 0.000, 12:48:48.204
160, 23954.92, 38668.56, -1280.05, 2451.32, 0.000, 0.000, 0.000, 12:48:48.204
161, 23887.41, 38513.64, -2240.62, 2433.34, 0.000, 0.000, 0.000, 12:48:48.205
162, 24320.38, 38928.89, -1807.54, 2847.32, 0.000, 0.000, 0.000, 12:48:48.205
163, 25026.24, 39706.52, -1159.09, 3516.58, 0.000, 0.000, 0.000, 12:48:48.220
164, 24940.48, 39651.32, -1271.83, 3440.61, 0.000, 0.000, 0.000, 12:48:48.220
165, 24878.47, 39492.11, -2242.74, 3415.76, 0.000, 0.000, 0.000, 12:48:48.235
166, 25307.05, 39918.73, -1812.48, 3825.47, 0.000, 0.000, 0.000, 12:48:48.235
167, 26004.15, 40684.99, -1167.51, 4485.21, 0.000, 0.000, 0.000, 12:48:48.235
168, 25922.20, 40630.93, -1272.43, 4411.11, 0.000, 0.000, 0.000, 12:48:48.235
169, 25853.27, 40461.46, -2249.49, 4399.29, 0.000, 0.000, 0.000, 12:48:48.250
170, 26275.22, 40888.28, -1821.70, 4812.46, 0.000, 0.000, 0.000, 12:48:48.250
171, 26980.05, 41659.79, -1172.49, 5472.98, 0.000, 0.000, 0.000, 12:48:48.279
172, 26906.46, 41618.36, -1273.11, 5399.78, 0.000, 0.000, 0.000, 12:48:48.279
173, 26835.59, 41448.57, -2246.68, 5377.07, 0.000, 0.000, 0.000, 12:48:48.279
174, 27254.51, 41866.92, -1819.99, 5788.68, 0.000, 0.000, 0.000, 12:48:48.280
175, 27960.73, 42638.11, -1175.06, 6459.24, 0.000, 0.000, 0.000, 12:48:48.281
176, 27889.50, 42603.32, -1269.46, 6388.88, 0.000, 0.000, 0.000, 12:48:48.281
177, 27821.54, 42430.38, -2243.69, 6367.26, 0.000, 0.000, 0.000, 12:48:48.296
178, 28236.02, 42849.14, -1823.75, 6759.91, 0.000, 0.000, 0.000, 12:48:48.296
179, 28936.54, 43610.66, -1172.97, 7425.55, 0.000, 0.000, 0.000, 12:48:48.310
180, 28871.42, 43584.80, -1269.02, 7366.98, 0.000, 0.000, 0.000, 12:48:48.310
181, 28799.91, 43419.83, -2242.94, 7347.30, 0.000, 0.000, 0.000, 12:48:48.310
182, 29215.99, 43827.05, -1823.99, 7745.44, 0.000, 0.000, 0.000, 12:48:48.310
183, 29917.19, 44598.93, -1173.00, 8405.90, 0.000, 0.000, 0.000, 12:48:48.326
184, 29855.14, 44571.45, -1264.21, 8351.20, 0.000, 0.000, 0.000, 12:48:48.326
185, 29787.50, 44395.74, -2236.50, 8328.73, 0.000, 0.000, 0.000, 12:48:48.327
186, 30192.84, 44809.22, -1825.09, 8719.76, 0.000, 0.000, 0.000, 12:48:48.327
187, 30893.90, 45579.04, -1170.20, 9386.59, 0.000, 0.000, 0.000, 12:48:48.347
188, 30838.45, 45554.55, -1264.02, 9339.61, 0.000, 0.000, 0.000, 12:48:48.347
189, 30756.26, 45381.33, -2237.97, 9313.27, 0.000, 0.000, 0.000, 12:48:48.355
190, 31174.42, 45788.05, -1822.35, 9697.86, 0.000, 0.000, 0.000, 12:48:48.355
191, 31871.77, 46553.66, -1173.00, 10370.29, 0.000, 0.000, 0.000, 12:48:48.355
192, 31820.82, 46540.99, -1257.02, 10324.63, 0.000, 0.000, 0.000, 12:48:48.355
193, 31739.57, 46358.49, -2236.43, 10296.10, 0.000, 0.000, 0.000, 12:48:48.369
194, 32145.64, 46764.53, -1830.39, 10686.70, 0.000, 0.000, 0.000, 12:48:48.370
195, 32846.61, 47531.47, -1184.79, 11353.87, 0.000, 0.000, 0.000, 12:48:48.385
196, 32801.92, 47527.34, -1257.21, 11304.22, 0.000, 0.000, 0.000, 12:48:48.385
197, 32712.23, 47347.56, -1257.30, 11283.37, 0.000, 0.000, 0.000, 12:48:48.415
198, 33124.44, 47741.07, -845.11, 11658.28, 0.000, 0.000, 0.000, 12:48:48.416
199, 33822.00, 48510.72, -199.67, 12328.61, 0.000, 0.000, 0.000, 12:48:48.416
200, 33788.95, 48505.07, -266.13, 12291.38, 0.000, 0.000, 0.000, 12:48:48.416
0, -1582.66, -1674.98, -2234.88, -1466.95, 0.000, 0.000, 0.000, 12:48:48.417
1, -1189.09, -1282.08, -1830.14, -1092.62, 0.000, 0.000, 0.000, 12:48:48.430
2, -488.37, -515.14, -1178.89, -423.90, 0.000, 0.000, 0.000, 12:48:48.430
3, -520.91, -523.27, -1243.10, -455.06, 0.000, 0.000, 0.000, 12:48:48.431
4, -609.02, -696.24, -1251.02, -489.22, 0.000, 0.000, 0.000, 12:48:48.431
5, -203.35, -302.75, -839.40, -123.83, 0.000, 0.000, 0.000, 12:48:48.431
6, 489.33, 458.09, -208.27, 536.39, 0.000, 0.000, 0.000, 12:48:48.431
7, 467.82, 454.96, -270.42, 516.07, 0.000, 0.000, 0.000, 12:48:48.445
8, 407.16, 284.34, -278.04, -457.62, 0.000, 0.000, 0.000, 12:48:48.445
9, 816.88, 639.49, 115.86, -98.11, 0.000, 0.000, 0.000, 12:48:48.460
10, 1537.74, 1417.97, 753.20, 577.61, 0.000, 0.000, 0.000, 12:48:48.460
11, 1536.06, 1405.16, 684.50, 551.89, 0.000, 0.000, 0.000, 12:48:48.461
12, 1462.86, 1208.01, 671.91, 524.15, 0.000, 0.000, 0.000, 12:48:48.461
13, 1869.10, 1586.68, 1063.57, 893.09, 0.000, 0.000, 0.000, 12:48:48.475
14, 2589.18, 2347.07, 1703.24, 1555.69, 0.000, 0.000, 0.000, 12:48:48.475
15, 2571.49, 2350.09, 1633.98, 1539.08, 0.000, 0.000, 0.000, 12:48:48.504
16, 2486.09, 2156.34, 1621.90, 1514.75, 0.000, 0.000, 0.000, 12:48:48.504
17, 2885.08, 2542.18, 2016.53, 1893.43, 0.000, 0.000, 0.000, 12:48:48.519
18, 3589.73, 3307.04, 2657.46, 2554.41, 0.000, 0.000, 0.000, 12:48:48.519
19, 3568.46, 3320.71, 2605.02, 2542.34, 0.000, 0.000, 0.000, 12:48:48.535
20, 3464.66, 3137.73, 2583.49, 2505.53, 0.000, 0.000, 0.000, 12:48:48.535
21, 3857.03, 3524.12, 2976.33, 2877.73, 0.000, 0.000, 0.000, 12:48:48.535
22, 4541.20, 4294.03, 3626.97, 3549.59, 0.000, 0.000, 0.000, 12:48:48.535
23, 4519.99, 4320.90, 3575.06, 3542.94, 0.000, 0.000, 0.000, 12:48:48.536
24, 4412.70, 4135.35, 3556.06, 3505.67, 0.000, 0.000, 0.000, 12:48:48.536
25, 4788.39, 4519.95, 3951.15, 3862.03, 0.000, 0.000, 0.000, 12:48:48.537
26, 5483.38, 5293.47, 4599.09, 4544.13, 0.000, 0.000, 0.000, 12:48:48.537
27, 5461.37, 5325.30, 4556.28, 4542.73, 0.000, 0.000, 0.000, 12:48:48.537
28, 5352.88, 5140.90, 4536.27, 4501.20, 0.000, 0.000, 0.000, 12:48:48.537
29, 5724.02, 5519.75, 4932.56, 4863.08, 0.000, 0.000, 0.000, 12:48:48.550
30, 6410.27, 6297.00, 5571.21, 5534.02, 0.000, 0.000, 0.000, 12:48:48.551
31, 6393.04, 6329.44, 5529.49, 5539.54, 0.000, 0.000, 0.000, 12:48:48.565
32, 6293.79, 6144.49, 5508.63, 5491.27, 0.000, 0.000, 0.000, 12:48:48.565
33, 6657.34, 6530.23, 5909.97, 5848.91, 0.000, 0.000, 0.000, 12:48:48.580
34, 7346.87, 7303.34, 6553.79, 6522.19, 0.000, 0.000, 0.000, 12:48:48.580
35, 7345.72, 7347.55, 6517.47, 6523.66, 0.000, 0.000, 0.000, 12:48:48.581
36, 7231.43, 7152.50, 6495.35, 6479.01, 0.000, 0.000, 0.000, 12:48:48.581
37, 7607.24, 7529.87, 6880.31, 6831.22, 0.000, 0.000, 0.000, 12:48:48.595
38, 8298.23, 8301.49, 7528.91, 7503.74, 0.000, 0.000, 0.000, 12:48:48.595
39, 8297.46, 8345.35, 7507.00, 7517.46, 0.000, 0.000, 0.000, 12:48:48.611
40, 8188.37, 8154.14, 7485.20, 7468.34, 0.000, 0.000, 0.000, 12:48:48.611
41, 8553.24, 8521.30, 7865.89, 7818.82, 0.000, 0.000, 0.000, 12:48:48.611
42, 9254.31, 9292.72, 8516.86, 8477.56, 0.000, 0.000, 0.000, 12:48:48.611
43, 9264.32, 9341.08, 8494.71, 8497.38, 0.000, 0.000, 0.000, 12:48:48.639
44, 9153.23, 9146.09, 8476.12, 8439.62, 0.000, 0.000, 0.000, 12:48:48.639
45, 9522.34, 9503.27, 8866.10, 8780.33, 0.000, 0.000, 0.000, 12:48:48.639
46, 10220.76, 10267.55, 9516.24, 9441.27, 0.000, 0.000, 0.000, 12:48:48.639
47, 10238.58, 10326.48, 9507.42, 9451.71, 0.000, 0.000, 0.000, 12:48:48.641
48, 10140.83, 10126.93, 9480.96, 9394.04, 0.000, 0.000, 0.000, 12:48:48.641
49, 10499.92, 10482.87, 9861.36, 9730.80, 0.000, 0.000, 0.000, 12:48:48.670
50, 11205.56, 11252.04, 10517.02, 10389.93, 0.000, 0.000, 0.000, 12:48:48.670
51, 11235.53, 11313.92, 10511.80, 10407.18, 0.000, 0.000, 0.000, 12:48:48.670
52, 11124.95, 11102.30, 10477.89, 10351.09, 0.000, 0.000, 0.000, 12:48:48.670
53, 11493.39, 11460.07, 10857.54, 10687.04, 0.000, 0.000, 0.000, 12:48:48.671
54, 12196.89, 12221.73, 11504.47, 11359.88, 0.000, 0.000, 0.000, 12:48:48.671
55, 12223.61, 12282.01, 11507.53, 11384.58, 0.000, 0.000, 0.000, 12:48:48.685
56, 12130.98, 12077.79, 11478.25, 11326.52, 0.000, 0.000, 0.000, 12:48:48.685
57, 12483.74, 12431.61, 11845.85, 11656.82, 0.000, 0.000, 0.000, 12:48:48.715
58, 13185.43, 13190.65, 12492.32, 12325.97, 0.000, 0.000, 0.000, 12:48:48.715
59, 13222.83, 13262.83, 12491.70, 12353.55, 0.000, 0.000, 0.000, 12:48:48.730
60, 13118.25, 13059.42, 12461.50, 12292.02, 0.000, 0.000, 0.000, 12:48:48.730
61, 13462.20, 13405.25, 12827.65, 12623.71, 0.000, 0.000, 0.000, 12:48:48.730
62, 14177.39, 14169.37, 13479.55, 13291.78, 0.000, 0.000, 0.000, 12:48:48.731
63, 14212.62, 14244.27, 13480.84, 13325.38, 0.000, 0.000, 0.000, 12:48:48.731
64, 14104.15, 14037.78, 13449.75, 13264.57, 0.000, 0.000, 0.000, 12:48:48.731
65, 14454.12, 14376.57, 13812.26, 13593.41, 0.000, 0.000, 0.000, 12:48:48.732
66, 15162.05, 15142.25, 14461.92, 14266.96, 0.000, 0.000, 0.000, 12:48:48.732
67, 15203.89, 15223.72, 14470.91, 14308.51, 0.000, 0.000, 0.000, 12:48:48.745
68, 15088.27, 15015.79, 14431.41, 14242.52, 0.000, 0.000, 0.000, 12:48:48.745
69, 15432.92, 15352.61, 14791.35, 14572.64, 0.000, 0.000, 0.000, 12:48:48.759
70, 16137.78, 16116.39, 15439.97, 15247.87, 0.000, 0.000, 0.000, 12:48:48.759
71, 16182.04, 16202.64, 15456.62, 15290.36, 0.000, 0.000, 0.000, 12:48:48.760
72, 16071.84, 15991.95, 15420.43, 15225.56, 0.000, 0.000, 0.000, 12:48:48.760
73, 16413.93, 16330.60, 15771.50, 15559.37, 0.000, 0.000, 0.000, 12:48:48.804
74, 17115.25, 17094.62, 16419.59, 16223.66, 0.000, 0.000, 0.000, 12:48:48.804
75, 17160.58, 17193.35, 16435.74, 16275.89, 0.000, 0.000, 0.000, 12:48:48.805
76, 17049.92, 16980.67, 16397.98, 16212.58, 0.000, 0.000, 0.000, 12:48:48.805
77, 17390.99, 17306.70, 16755.25, 16534.29, 0.000, 0.000, 0.000, 12:48:48.805
78, 18094.03, 18070.91, 17401.09, 17200.43, 0.000, 0.000, 0.000, 12:48:48.805
79, 18153.62, 18169.15, 17419.25, 17250.64, 0.000, 0.000, 0.000, 12:48:48.806
80, 18042.22, 17957.84, 17376.81, 17197.47, 0.000, 0.000, 0.000, 12:48:48.806
81, 18359.18, 18272.13, 17720.70, 17503.82, 0.000, 0.000, 0.000, 12:48:48.807
82, 19078.51, 19051.07, 18381.88, 18182.32, 0.000, 0.000, 0.000, 12:48:48.807
83, 19152.13, 19153.35, 18402.73, 18245.29, 0.000, 0.000, 0.000, 12:48:48.835
84, 19024.56, 18925.11, 18356.30, 18173.11, 0.000, 0.000, 0.000, 12:48:48.835
85, 19375.55, 19251.95, 18711.15, 18491.10, 0.000, 0.000, 0.000, 12:48:48.835
86, 20072.34, 20022.43, 19358.83, 19158.25, 0.000, 0.000, 0.000, 12:48:48.835
87, 20136.48, 20126.03, 19380.61, 19219.09, 0.000, 0.000, 0.000, 12:48:48.865
88, 20013.36, 19902.58, 19331.08, 19152.58, 0.000, 0.000, 0.000, 12:48:48.865
89, 20347.56, 20235.63, 19683.07, 19466.28, 0.000, 0.000, 0.000, 12:48:48.865
90, 21039.80, 20998.85, 20337.90, 20136.97, 0.000, 0.000, 0.000, 12:48:48.865
91, 21116.37, 21117.20, 20368.26, 20198.81, 0.000, 0.000, 0.000, 12:48:48.866
92, 20987.32, 20898.78, 20322.12, 20134.16, 0.000, 0.000, 0.000, 12:48:48.866
93, 21317.33, 21212.54, 20667.91, 20442.58, 0.000, 0.000, 0.000, 12:48:48.880
94, 22018.61, 21983.53, 21316.01, 21109.56, 0.000, 0.000, 0.000, 12:48:48.880
95, 22094.06, 22104.34, 21352.22, 21184.24, 0.000, 0.000, 0.000, 12:48:48.881
96, 21962.16, 21886.56, 21301.59, 21118.64, 0.000, 0.000, 0.000, 12:48:48.881
97, 22289.45, 22195.46, 21648.71, 21418.06, 0.000, 0.000, 0.000, 12:48:48.896
98, 22990.76, 22966.45, 22300.34, 22086.77, 0.000, 0.000, 0.000, 12:48:48.896
99, 23068.17, 23079.97, 22338.43, 22163.29, 0.000, 0.000, 0.000, 12:48:48.910
100, 22952.69, 22869.99, 22286.66, 22098.42, 0.000, 0.000, 0.000, 12:48:48.910
101, 23273.88, 23174.72, 22623.07, 22403.73, 0.000, 0.000, 0.000, 12:48:48.911
102, 23965.32, 23948.32, 23267.37, 23065.55, 0.000, 0.000, 0.000, 12:48:48.911
103, 24049.43, 24071.11, 23320.13, 23148.29, 0.000, 0.000, 0.000, 12:48:48.925
104, 23924.66, 23853.52, 23269.19, 23089.27, 0.000, 0.000, 0.000, 12:48:48.925
105, 24254.25, 24160.23, 23603.34, 23385.07, 0.000, 0.000, 0.000, 12:48:48.955
106, 24944.95, 24917.35, 24246.91, 24053.64, 0.000, 0.000, 0.000, 12:48:48.955
107, 25035.55, 25049.12, 24298.85, 24127.62, 0.000, 0.000, 0.000, 12:48:48.970
108, 24895.20, 24815.43, 24234.01, 24052.85, 0.000, 0.000, 0.000, 12:48:48.970
109, 25205.50, 25113.31, 24570.12, 24348.79, 0.000, 0.000, 0.000, 12:48:48.970
110, 25930.23, 25936.94, 25247.98, 25030.31, 0.000, 0.000, 0.000, 12:48:48.970
111, 26010.86, 26079.42, 25306.77, 25100.01, 0.000, 0.000, 0.000, 12:48:48.971
112, 25858.81, 25852.03, 25259.38, 25008.83, 0.000, 0.000, 0.000, 12:48:48.971
113, 26171.06, 26172.50, 25604.25, 25288.95, 0.000, 0.000, 0.000, 12:48:48.971
114, 26868.63, 26940.87, 26253.64, 25944.79, 0.000, 0.000, 0.000, 12:48:48.972
115, 26966.95, 27087.71, 26316.84, 26030.65, 0.000, 0.000, 0.000, 12:48:48.991
116, 26842.50, 26858.50, 26270.00, 25956.62, 0.000, 0.000, 0.000, 12:48:48.992
117, 27162.84, 27144.71, 26588.43, 26250.04, 0.000, 0.000, 0.000, 12:48:49.000
118, 27861.01, 27899.21, 27226.29, 26924.46, 0.000, 0.000, 0.000, 12:48:49.000
119, 27977.45, 28042.13, 27292.30, 27038.38, 0.000, 0.000, 0.000, 12:48:49.001
120, 27847.48, 27816.40, 27235.83, 26963.65, 0.000, 0.000, 0.000, 12:48:49.001
121, 28155.57, 28098.53, 27550.09, 27257.62, 0.000, 0.000, 0.000, 12:48:49.015
122, 28851.92, 28853.75, 28191.77, 27921.78, 0.000, 0.000, 0.000, 12:48:49.015
123, 28961.34, 29010.41, 28261.79, 28031.73, 0.000, 0.000, 0.000, 12:48:49.030
124, 28834.36, 28773.43, 28202.83, 27964.37, 0.000, 0.000, 0.000, 12:48:49.030
125, 29138.05, 29059.48, 28515.67, 28247.90, 0.000, 0.000, 0.000, 12:48:49.031
126, 29834.85, 29822.27, 29163.23, 28917.01, 0.000, 0.000, 0.000, 12:48:49.031
127, 29947.82, 29975.61, 29233.46, 29019.23, 0.000, 0.000, 0.000, 12:48:49.061
128, 29822.85, 29748.33, 29172.97, 28942.04, 0.000, 0.000, 0.000, 12:48:49.061
129, 30127.27, 30030.82, 29489.94, 29225.91, 0.000, 0.000, 0.000, 12:48:49.061
130, 30816.88, 30789.07, 30136.94, 29895.40, 0.000, 0.000, 0.000, 12:48:49.061
131, 30936.56, 30950.30, 30212.51, 30016.32, 0.000, 0.000, 0.000, 12:48:49.062
132, 30803.65, 30729.44, 30152.46, 29934.64, 0.000, 0.000, 0.000, 12:48:49.062
133, 31103.78, 31005.47, 30464.59, 30214.91, 0.000, 0.000, 0.000, 12:48:49.090
134, 31807.25, 31765.38, 31109.86, 30883.56, 0.000, 0.000, 0.000, 12:48:49.090
135, 31921.06, 31930.68, 31184.95, 30997.90, 0.000, 0.000, 0.000, 12:48:49.090
136, 31797.96, 31706.83, 31131.19, 30918.45, 0.000, 0.000, 0.000, 12:48:49.090
137, 32091.58, 31981.51, 31443.80, 31196.73, 0.000, 0.000, 0.000, 12:48:49.091
138, 32782.42, 32739.69, 32086.32, 31863.38, 0.000, 0.000, 0.000, 12:48:49.091
139, 32908.64, 32906.09, 32173.73, 31982.79, 0.000, 0.000, 0.000, 12:48:49.104
140, 32782.64, 32682.42, 32114.49, 31906.53, 0.000, 0.000, 0.000, 12:48:49.105
141, 33060.43, 32954.26, 32412.92, 32181.65, 0.000, 0.000, 0.000, 12:48:49.136
142, 33762.52, 33721.35, 33066.94, 32838.71, 0.000, 0.000, 0.000, 12:48:49.136
143, 33890.44, 33896.50, 33152.41, 32967.75, 0.000, 0.000, 0.000, 12:48:49.137
144, 33761.84, 33669.81, 33090.25, 32893.92, 0.000, 0.000, 0.000, 12:48:49.137
145, 34041.86, 33930.33, 33385.50, 33158.99, 0.000, 0.000, 0.000, 12:48:49.137
146, 34744.90, 34697.29, 34040.30, 33826.19, 0.000, 0.000, 0.000, 12:48:49.137
147, 34877.17, 34874.58, 34131.97, 33944.57, 0.000, 0.000, 0.000, 12:48:49.151
148, 34738.32, 34654.03, 34074.50, 33875.01, 0.000, 0.000, 0.000, 12:48:49.151
149, 35025.14, 34915.64, 34368.65, 34141.61, 0.000, 0.000, 0.000, 12:48:49.151
150, 35719.13, 35671.51, 35015.23, 34808.76, 0.000, 0.000, 0.000, 12:48:49.151
151, 35858.04, 35857.50, 35108.48, 34937.00, 0.000, 0.000, 0.000, 12:48:49.165
152, 35726.16, 35634.64, 35051.32, 34857.21, 0.000, 0.000, 0.000, 12:48:49.165
153, 36004.09, 35886.67, 35342.04, 35121.86, 0.000, 0.000, 0.000, 12:48:49.179
154, 36701.84, 36652.78, 35993.21, 35781.34, 0.000, 0.000, 0.000, 12:48:49.179
155, 36834.62, 36831.67, 36092.11, 35919.39, 0.000, 0.000, 0.000, 12:48:49.180
156, 36707.76, 36615.69, 36033.78, 35837.20, 0.000, 0.000, 0.000, 12:48:49.180
157, 36976.83, 36873.57, 36328.61, 36095.79, 0.000, 0.000, 0.000, 12:48:49.197
158, 37677.08, 37632.41, 36970.94, 36751.88, 0.000, 0.000, 0.000, 12:48:49.197
159, 37826.80, 37826.73, 37078.13, 36895.89, 0.000, 0.000, 0.000, 12:48:49.210
160, 37694.31, 37596.20, 37022.70, 36815.21, 0.000, 0.000, 0.000, 12:48:49.211
161, 37959.22, 37846.21, 37308.84, 37075.21, 0.000, 0.000, 0.000, 12:48:49.211
162, 38653.07, 38610.33, 37953.64, 37741.67, 0.000, 0.000, 0.000, 12:48:49.211
163, 38801.19, 38807.70, 38063.37, 37876.35, 0.000, 0.000, 0.000, 12:48:49.225
164, 38677.73, 38589.48, 38004.38, 37808.00, 0.000, 0.000, 0.000, 12:48:49.225
165, 38943.72, 38828.05, 38286.86, 38054.31, 0.000, 0.000, 0.000, 12:48:49.240
166, 39638.05, 39586.10, 38930.43, 38717.66, 0.000, 0.000, 0.000, 12:48:49.240
167, 39798.97, 39788.06, 39046.54, 38861.52, 0.000, 0.000, 0.000, 12:48:49.240
168, 39656.09, 39563.55, 38981.04, 38788.89, 0.000, 0.000, 0.000, 12:48:49.240
169, 39926.61, 39810.24, 39258.77, 39033.96, 0.000, 0.000, 0.000, 12:48:49.255
170, 40618.98, 40565.22, 39906.93, 39691.92, 0.000, 0.000, 0.000, 12:48:49.255
171, 40786.90, 40775.52, 40034.25, 39843.85, 0.000, 0.000, 0.000, 12:48:49.270
172, 40650.16, 40543.58, 39970.36, 39764.11, 0.000, 0.000, 0.000, 12:48:49.270
173, 40906.88, 40783.74, 40244.50, 40008.27, 0.000, 0.000, 0.000, 12:48:49.270
174, 41595.52, 41527.91, 40886.96, 40675.51, 0.000, 0.000, 0.000, 12:48:49.270
175, 41773.07, 41736.12, 41015.99, 40830.02, 0.000, 0.000, 0.000, 12:48:49.291
176, 41648.85, 41500.22, 40953.32, 40759.10, 0.000, 0.000, 0.000, 12:48:49.291
177, 41893.27, 41765.51, 41220.20, 40977.66, 0.000, 0.000, 0.000, 12:48:49.300
178, 42609.66, 42469.98, 41862.25, 41658.29, 0.000, 0.000, 0.000, 12:48:49.300
179, 42802.05, 42697.53, 41997.84, 41821.59, 0.000, 0.000, 0.000, 12:48:49.300
180, 42688.05, 42475.11, 41919.82, 41721.77, 0.000, 0.000, 0.000, 12:48:49.300
181, 42990.92, 42651.92, 42185.95, 41964.65, 0.000, 0.000, 0.000, 12:48:49.315
182, 43706.66, 43405.35, 42825.71, 42631.55, 0.000, 0.000, 0.000, 12:48:49.315
183, 43908.41, 43577.68, 42946.83, 42799.43, 0.000, 0.000, 0.000, 12:48:49.330
184, 43779.02, 43385.28, 42891.57, 42707.97, 0.000, 0.000, 0.000, 12:48:49.330
185, 44009.59, 43612.31, 43150.33, 42937.42, 0.000, 0.000, 0.000, 12:48:49.331
186, 44694.36, 44365.19, 43809.35, 43591.45, 0.000, 0.000, 0.000, 12:48:49.331
187, 44869.06, 44598.22, 43951.69, 43773.33, 0.000, 0.000, 0.000, 12:48:49.345
188, 44711.59, 44381.23, 43888.94, 43683.35, 0.000, 0.000, 0.000, 12:48:49.346
189, 44941.85, 44607.90, 44153.91, 43914.66, 0.000, 0.000, 0.000, 12:48:49.360
190, 45610.05, 45373.56, 44798.23, 44566.82, 0.000, 0.000, 0.000, 12:48:49.361
191, 45781.21, 45619.68, 44943.40, 44745.68, 0.000, 0.000, 0.000, 12:48:49.361
192, 45632.58, 45406.40, 44879.98, 44663.61, 0.000, 0.000, 0.000, 12:48:49.361
193, 45852.32, 45640.08, 45140.26, 44885.15, 0.000, 0.000, 0.000, 12:48:49.420
194, 46530.93, 46401.53, 45787.17, 45536.36, 0.000, 0.000, 0.000, 12:48:49.420
195, 46695.23, 46649.25, 45927.62, 45724.29, 0.000, 0.000, 0.000, 12:48:49.420
196, 46553.88, 46437.19, 45859.97, 45652.19, 0.000, 0.000, 0.000, 12:48:49.421
197, 46768.66, 46662.28, 46120.25, 45872.22, 0.000, 0.000, 0.000, 12:48:49.421
198, 47449.39, 47418.49, 46760.15, 46534.05, 0.000, 0.000, 0.000, 12:48:49.421
199, 47630.29, 47662.10, 46899.07, 46720.13, 0.000, 0.000, 0.000, 12:48:49.422
200, 47487.17, 47449.34, 46837.61, 46639.82, 0.000, 0.000, 0.000, 12:48:49.422
0, -1304.20, -1351.62, -1920.05, -1184.33, 0.000, 0.000, 0.000, 12:48:49.423
1, -625.88, -606.70, -1290.57, -528.23, 0.000, 0.000, 0.000, 12:48:49.423
2, -430.89, -356.63, -1134.31, -332.65, 0.000, 0.000, 0.000, 12:48:49.423
3, -568.93, -569.62, -1196.90, -415.20, 0.000, 0.000, 0.000, 12:48:49.424
4, -354.15, -367.66, -945.40, -200.55, 0.000, 0.000, 0.000, 12:48:49.424
5, 330.37, 385.52, -304.73, 454.75, 0.000, 0.000, 0.000, 12:48:49.450
6, 530.74, 635.54, -141.64, 648.97, 0.000, 0.000, 0.000, 12:48:49.450
7, 398.92, 417.12, -209.69, 565.82, 0.000, 0.000, 0.000, 12:48:49.450
8, 611.72, 616.40, 44.55, 774.04, 0.000, 0.000, 0.000, 12:48:49.450
9, 1307.70, 1364.03, 677.21, 1434.92, 0.000, 0.000, 0.000, 12:48:49.465
10, 1504.91, 1617.12, 836.26, 1634.16, 0.000, 0.000, 0.000, 12:48:49.465
11, 1377.87, 1392.78, 771.84, 1553.82, 0.000, 0.000, 0.000, 12:48:49.465
12, 1593.64, 1590.33, 1018.19, 1756.70, 0.000, 0.000, 0.000, 12:48:49.465
13, 2282.46, 2338.13, 1651.91, 2411.03, 0.000, 0.000, 0.000, 12:48:49.480
14, 2500.83, 2595.05, 1823.30, 2608.27, 0.000, 0.000, 0.000, 12:48:49.480
15, 2369.06, 2378.23, 1758.11, 2526.61, 0.000, 0.000, 0.000, 12:48:49.495
16, 2583.82, 2569.13, 1998.67, 2734.01, 0.000, 0.000, 0.000, 12:48:49.495
17, 3268.52, 3311.01, 2636.13, 3399.76, 0.000, 0.000, 0.000, 12:48:49.495
18, 3479.10, 3573.62, 2802.46, 3598.74, 0.000, 0.000, 0.000, 12:48:49.495
19, 3345.56, 3358.31, 2736.51, 3518.40, 0.000, 0.000, 0.000, 12:48:49.510
20, 3557.59, 3537.55, 2970.84, 3718.86, 0.000, 0.000, 0.000, 12:48:49.510
21, 4250.05, 4284.39, 3613.03, 4371.62, 0.000, 0.000, 0.000, 12:48:49.555
22, 4473.03, 4548.88, 3788.05, 4581.88, 0.000, 0.000, 0.000, 12:48:49.555
23, 4338.25, 4336.30, 3726.37, 4503.74, 0.000, 0.000, 0.000, 12:48:49.555
24, 4556.85, 4517.34, 3948.58, 4699.38, 0.000, 0.000, 0.000, 12:48:49.555
25, 5240.55, 5266.62, 4590.77, 5343.39, 0.000, 0.000, 0.000, 12:48:49.556
26, 5462.09, 5537.58, 4773.74, 5566.71, 0.000, 0.000, 0.000, 12:48:49.556
27, 5331.69, 5315.06, 4706.71, 5478.05, 0.000, 0.000, 0.000, 12:48:49.557
28, 5542.33, 5490.79, 4936.16, 5675.10, 0.000, 0.000, 0.000, 12:48:49.557
29, 6225.85, 6243.22, 5571.88, 6326.24, 0.000, 0.000, 0.000, 12:48:49.557
30, 6445.31, 6512.65, 5748.43, 6542.29, 0.000, 0.000, 0.000, 12:48:49.557
31, 6322.09, 6291.89, 5687.04, 6468.01, 0.000, 0.000, 0.000, 12:48:49.570
32, 6522.46, 6462.26, 5909.61, 6656.88, 0.000, 0.000, 0.000, 12:48:49.570
33, 7209.50, 7207.97, 6541.77, 7304.46, 0.000, 0.000, 0.000, 12:48:49.585
34, 7441.73, 7484.23, 6727.71, 7520.87, 0.000, 0.000, 0.000, 12:48:49.585
35, 7307.31, 7272.90, 6663.39, 7446.07, 0.000, 0.000, 0.000, 12:48:49.585
36, 7500.92, 7439.83, 6880.12, 7641.08, 0.000, 0.000, 0.000, 12:48:49.585
37, 8186.48, 8178.27, 7517.42, 8287.51, 0.000, 0.000, 0.000, 12:48:49.630
38, 8421.48, 8469.23, 7708.04, 8515.22, 0.000, 0.000, 0.000, 12:48:49.630
39, 8286.30, 8253.66, 7646.49, 8431.66, 0.000, 0.000, 0.000, 12:48:49.630
40, 8480.12, 8418.65, 7864.09, 8611.39, 0.000, 0.000, 0.000, 12:48:49.630
41, 9167.29, 9158.77, 8499.62, 9272.49, 0.000, 0.000, 0.000, 12:48:49.632
42, 9409.99, 9448.30, 8688.51, 9497.55, 0.000, 0.000, 0.000, 12:48:49.632
43, 9273.93, 9230.44, 8622.77, 9417.62, 0.000, 0.000, 0.000, 12:48:49.632
44, 9465.35, 9394.68, 8837.11, 9594.99, 0.000, 0.000, 0.000, 12:48:49.632
45, 10152.42, 10132.07, 9475.98, 10242.08, 0.000, 0.000, 0.000, 12:48:49.633
46, 10392.67, 10423.63, 9677.47, 10478.12, 0.000, 0.000, 0.000, 12:48:49.633
47, 10264.98, 10213.36, 9607.95, 10407.08, 0.000, 0.000, 0.000, 12:48:49.645
48, 10445.28, 10362.51, 9821.40, 10575.22, 0.000, 0.000, 0.000, 12:48:49.645
49, 11133.03, 11101.91, 10460.14, 11217.71, 0.000, 0.000, 0.000, 12:48:49.660
50, 11385.39, 11408.54, 10657.54, 11458.41, 0.000, 0.000, 0.000, 12:48:49.660
51, 11259.70, 11198.05, 10598.67, 11388.78, 0.000, 0.000, 0.000, 12:48:49.675
52, 11429.69, 11341.74, 10797.33, 11553.94, 0.000, 0.000, 0.000, 12:48:49.675
53, 12118.88, 12091.41, 11431.63, 12200.87, 0.000, 0.000, 0.000, 12:48:49.675
54, 12366.63, 12381.73, 11632.77, 12446.40, 0.000, 0.000, 0.000, 12:48:49.675
55, 12242.45, 12170.06, 11568.88, 12370.14, 0.000, 0.000, 0.000, 12:48:49.689
56, 12412.43, 12320.54, 11776.74, 12518.72, 0.000, 0.000, 0.000, 12:48:49.689
57, 13093.85, 13060.65, 12414.17, 13178.46, 0.000, 0.000, 0.000, 12:48:49.720
58, 13351.47, 13366.10, 12614.96, 13416.91, 0.000, 0.000, 0.000, 12:48:49.720
59, 13225.07, 13150.71, 12553.58, 13341.55, 0.000, 0.000, 0.000, 12:48:49.720
60, 13395.56, 13298.99, 12749.66, 13509.82, 0.000, 0.000, 0.000, 12:48:49.720
61, 14073.85, 14037.03, 13380.00, 14162.00, 0.000, 0.000, 0.000, 12:48:49.721
62, 14338.91, 14347.96, 13594.92, 14406.81, 0.000, 0.000, 0.000, 12:48:49.721
63, 14214.20, 14136.94, 13533.23, 14324.69, 0.000, 0.000, 0.000, 12:48:49.735
64, 14375.55, 14269.02, 13726.08, 14488.94, 0.000, 0.000, 0.000, 12:48:49.735
65, 15056.37, 15019.87, 14371.40, 15132.06, 0.000, 0.000, 0.000, 12:48:49.735
66, 15315.81, 15332.60, 14583.04, 15386.39, 0.000, 0.000, 0.000, 12:48:49.736
67, 15194.46, 15123.95, 14520.03, 15314.50, 0.000, 0.000, 0.000, 12:48:49.750
68, 15351.34, 15247.20, 14710.16, 15464.05, 0.000, 0.000, 0.000, 12:48:49.751
69, 16035.93, 15991.69, 15350.37, 16116.18, 0.000, 0.000, 0.000, 12:48:49.765
70, 16302.10, 16309.10, 15565.33, 16365.56, 0.000, 0.000, 0.000, 12:48:49.765
71, 16181.31, 16101.56, 15499.67, 16296.80, 0.000, 0.000, 0.000, 12:48:49.766
72, 16330.26, 16231.27, 15695.77, 16443.95, 0.000, 0.000, 0.000, 12:48:49.766
73, 17008.58, 16968.93, 16324.79, 17095.22, 0.000, 0.000, 0.000, 12:48:49.780
74, 17283.74, 17287.37, 16544.08, 17353.97, 0.000, 0.000, 0.000, 12:48:49.780
75, 17154.86, 17085.58, 16481.88, 17277.89, 0.000, 0.000, 0.000, 12:48:49.795
76, 17307.83, 17205.54, 16667.00, 17418.70, 0.000, 0.000, 0.000, 12:48:49.795
77, 17992.45, 17948.32, 17305.70, 18068.74, 0.000, 0.000, 0.000, 12:48:49.795
78, 18263.09, 18277.26, 17529.81, 18327.27, 0.000, 0.000, 0.000, 12:48:49.795
79, 18143.41, 18073.14, 17464.55, 18254.64, 0.000, 0.000, 0.000, 12:48:49.825
80, 18292.71, 18186.42, 17650.05, 18401.81, 0.000, 0.000, 0.000, 12:48:49.825
81, 18970.03, 18924.31, 18281.93, 19045.10, 0.000, 0.000, 0.000, 12:48:49.825
82, 19245.07, 19257.68, 18512.48, 19309.27, 0.000, 0.000, 0.000, 12:48:49.825
83, 19123.13, 19053.87, 18450.64, 19239.16, 0.000, 0.000, 0.000, 12:48:49.826
84, 19275.45, 19168.49, 18628.75, 19375.16, 0.000, 0.000, 0.000, 12:48:49.827
85, 19948.18, 19897.74, 19252.41, 20025.74, 0.000, 0.000, 0.000, 12:48:49.840
86, 20236.87, 20239.08, 19494.80, 20295.83, 0.000, 0.000, 0.000, 12:48:49.840
87, 20111.28, 20034.05, 19434.59, 20220.89, 0.000, 0.000, 0.000, 12:48:49.854
88, 20246.23, 20149.08, 19609.51, 20348.58, 0.000, 0.000, 0.000, 12:48:49.854
89, 20927.64, 20879.76, 20233.58, 20991.85, 0.000, 0.000, 0.000, 12:48:49.862
90, 21207.47, 21225.28, 20472.79, 21270.25, 0.000, 0.000, 0.000, 12:48:49.862
91, 21092.66, 21020.32, 20415.37, 21212.09, 0.000, 0.000, 0.000, 12:48:49.870
92, 21220.44, 21120.56, 20589.18, 21333.69, 0.000, 0.000, 0.000, 12:48:49.870
93, 21903.10, 21859.05, 21219.37, 21976.39, 0.000, 0.000, 0.000, 12:48:49.884
94, 22191.04, 22212.06, 21455.68, 22257.81, 0.000, 0.000, 0.000, 12:48:49.884
95, 22073.91, 22007.85, 21396.26, 22181.79, 0.000, 0.000, 0.000, 12:48:49.885
96, 22209.08, 22108.98, 21565.52, 22313.07, 0.000, 0.000, 0.000, 12:48:49.885
97, 22874.66, 22841.11, 22194.14, 22951.67, 0.000, 0.000, 0.000, 12:48:49.900
98, 23168.50, 23183.37, 22433.22, 23236.38, 0.000, 0.000, 0.000, 12:48:49.900
99, 23041.99, 22981.42, 22378.65, 23176.63, 0.000, 0.000, 0.000, 12:48:49.915
100, 23182.19, 23095.20, 22553.62, 23291.33, 0.000, 0.000, 0.000, 12:48:49.915
101, 23859.79, 23818.92, 23175.23, 23930.54, 0.000, 0.000, 0.000, 12:48:49.915
102, 24159.09, 24171.02, 23431.62, 24213.71, 0.000, 0.000, 0.000, 12:48:49.915
103, 24043.73, 23971.25, 23371.47, 24142.40, 0.000, 0.000, 0.000, 12:48:49.975
104, 24165.65, 24066.21, 23527.39, 24265.60, 0.000, 0.000, 0.000, 12:48:49.975
105, 24831.42, 24793.12, 24151.72, 24903.70, 0.000, 0.000, 0.000, 12:48:49.975
106, 25129.05, 25150.75, 24402.51, 25200.51, 0.000, 0.000, 0.000, 12:48:49.975
107, 25018.85, 24953.50, 24357.40, 25131.74, 0.000, 0.000, 0.000, 12:48:49.976
108, 25137.40, 25041.20, 24501.84, 25240.38, 0.000, 0.000, 0.000, 12:48:49.977
109, 25807.26, 25765.84, 25128.59, 25879.85, 0.000, 0.000, 0.000, 12:48:49.977
110, 26113.35, 26134.54, 25380.84, 26180.97, 0.000, 0.000, 0.000, 12:48:49.977
111, 26003.56, 25933.37, 25331.51, 26119.66, 0.000, 0.000, 0.000, 12:48:49.978
112, 26108.43, 26015.82, 25482.02, 26231.93, 0.000, 0.000, 0.000, 12:48:49.978
113, 26786.14, 26748.34, 26105.26, 26870.81, 0.000, 0.000, 0.000, 12:48:49.979
114, 27101.34, 27114.06, 26367.95, 27168.08, 0.000, 0.000, 0.000, 12:48:49.979
115, 26985.52, 26918.99, 26318.69, 27109.75, 0.000, 0.000, 0.000, 12:48:49.990
116, 27091.98, 26999.43, 26459.12, 27210.96, 0.000, 0.000, 0.000, 12:48:49.990
117, 27766.39, 27725.51, 27085.62, 27842.68, 0.000, 0.000, 0.000, 12:48:50.004
118, 28081.40, 28097.53, 27345.50, 28145.49, 0.000, 0.000, 0.000, 12:48:50.005
119, 27967.46, 27898.20, 27298.71, 28094.79, 0.000, 0.000, 0.000, 12:48:50.005
120, 28075.93, 27975.46, 27436.13, 28193.09, 0.000, 0.000, 0.000, 12:48:50.005
121, 28739.60, 28699.59, 28052.89, 28828.94, 0.000, 0.000, 0.000, 12:48:50.020
122, 29043.67, 29052.63, 28312.96, 29127.50, 0.000, 0.000, 0.000, 12:48:50.020
123, 28957.67, 28891.99, 28288.31, 29055.82, 0.000, 0.000, 0.000, 12:48:50.050
124, 29065.81, 28980.23, 28450.92, 29147.20, 0.000, 0.000, 0.000, 12:48:50.050
125, 29725.98, 29698.70, 29068.21, 29776.95, 0.000, 0.000, 0.000, 12:48:50.050
126, 30045.05, 30068.41, 29340.78, 30065.71, 0.000, 0.000, 0.000, 12:48:50.051
127, 29935.68, 29888.23, 29305.51, 30013.95, 0.000, 0.000, 0.000, 12:48:50.051
128, 30035.89, 29953.52, 29439.24, 30093.89, 0.000, 0.000, 0.000, 12:48:50.051
129, 30703.00, 30676.96, 30065.04, 30722.69, 0.000, 0.000, 0.000, 12:48:50.080
130, 31029.36, 31055.19, 30337.53, 31040.46, 0.000, 0.000, 0.000, 12:48:50.080
131, 30926.92, 30864.82, 30288.02, 30992.22, 0.000, 0.000, 0.000, 12:48:50.080
132, 31018.59, 30916.18, 30404.18, 31086.66, 0.000, 0.000, 0.000, 12:48:50.080
133, 31687.15, 31645.74, 31030.03, 31722.25, 0.000, 0.000, 0.000, 12:48:50.081
134, 32013.48, 32028.85, 31304.86, 32051.17, 0.000, 0.000, 0.000, 12:48:50.082
135, 31907.41, 31842.17, 31256.02, 31992.11, 0.000, 0.000, 0.000, 12:48:50.111
136, 31989.53, 31896.07, 31374.90, 32080.06, 0.000, 0.000, 0.000, 12:48:50.111
137, 32657.80, 32613.12, 31993.51, 32719.13, 0.000, 0.000, 0.000, 12:48:50.112
138, 32988.88, 32998.52, 32270.79, 33033.40, 0.000, 0.000, 0.000, 12:48:50.112
139, 32891.71, 32820.98, 32227.85, 32983.54, 0.000, 0.000, 0.000, 12:48:50.112
140, 32967.30, 32871.19, 32340.20, 33062.00, 0.000, 0.000, 0.000, 12:48:50.112
141, 33633.59, 33590.41, 32963.28, 33701.43, 0.000, 0.000, 0.000, 12:48:50.124
142, 33971.57, 33985.64, 33245.89, 34024.93, 0.000, 0.000, 0.000, 12:48:50.124
143, 33870.71, 33802.75, 33201.66, 33976.54, 0.000, 0.000, 0.000, 12:48:50.125
144, 33945.95, 33840.45, 33315.22, 34039.35, 0.000, 0.000, 0.000, 12:48:50.125
145, 34616.71, 34560.96, 33936.50, 34683.42, 0.000, 0.000, 0.000, 12:48:50.140
146, 34955.00, 34963.72, 34227.25, 35005.66, 0.000, 0.000, 0.000, 12:48:50.140
147, 34853.36, 34780.43, 34192.41, 34963.17, 0.000, 0.000, 0.000, 12:48:50.185
148, 34936.99, 34812.16, 34295.41, 35024.73, 0.000, 0.000, 0.000, 12:48:50.185
149, 35597.57, 35540.22, 34919.86, 35662.72, 0.000, 0.000, 0.000, 12:48:50.185
150, 35953.43, 35934.01, 35208.71, 36001.38, 0.000, 0.000, 0.000, 12:48:50.185
151, 35869.89, 35749.03, 35173.76, 35941.55, 0.000, 0.000, 0.000, 12:48:50.200
152, 35947.68, 35769.44, 35278.39, 36012.64, 0.000, 0.000, 0.000, 12:48:50.200
153, 36632.67, 36490.88, 35896.77, 36644.01, 0.000, 0.000, 0.000, 12:48:50.200
154, 36991.30, 36894.38, 36187.16, 36977.32, 0.000, 0.000, 0.000, 12:48:50.200
155, 36912.02, 36709.58, 36148.71, 36923.23, 0.000, 0.000, 0.000, 12:48:50.201
156, 36989.21, 36714.87, 36247.80, 36990.42, 0.000, 0.000, 0.000, 12:48:50.201
157, 37671.41, 37404.30, 36867.91, 37617.55, 0.000, 0.000, 0.000, 12:48:50.201
158, 38039.82, 37842.58, 37177.89, 37946.30, 0.000, 0.000, 0.000, 12:48:50.201
159, 37947.77, 37659.85, 37138.66, 37898.84, 0.000, 0.000, 0.000, 12:48:50.202
160, 38000.77, 37676.82, 37241.99, 37936.32, 0.000, 0.000, 0.000, 12:48:50.202
161, 38655.08, 38406.98, 37874.25, 38558.13, 0.000, 0.000, 0.000, 12:48:50.214
162, 39003.11, 38830.95, 38182.13, 38894.29, 0.000, 0.000, 0.000, 12:48:50.214
163, 38883.46, 38671.64, 38146.79, 38834.99, 0.000, 0.000, 0.000, 12:48:50.230
164, 38933.33, 38686.68, 38247.60, 38891.07, 0.000, 0.000, 0.000, 12:48:50.230
165, 39583.47, 39415.87, 38871.61, 39525.18, 0.000, 0.000, 0.000, 12:48:50.246
166, 39923.70, 39848.71, 39180.78, 39863.69, 0.000, 0.000, 0.000, 12:48:50.246
167, 39823.09, 39680.42, 39141.91, 39815.19, 0.000, 0.000, 0.000, 12:48:50.246
168, 39859.62, 39701.84, 39243.68, 39867.74, 0.000, 0.000, 0.000, 12:48:50.246
169, 40503.33, 40433.30, 39860.85, 40497.61, 0.000, 0.000, 0.000, 12:48:50.275
170, 40850.49, 40863.40, 40171.91, 40845.39, 0.000, 0.000, 0.000, 12:48:50.275
171, 40746.20, 40700.32, 40138.65, 40813.30, 0.000, 0.000, 0.000, 12:48:50.275
172, 40783.63, 40717.03, 40226.03, 40846.42, 0.000, 0.000, 0.000, 12:48:50.275
173, 41423.15, 41440.28, 40846.68, 41474.96, 0.000, 0.000, 0.000, 12:48:50.276
174, 41785.68, 41867.63, 41161.00, 41828.37, 0.000, 0.000, 0.000, 12:48:50.277
175, 41692.16, 41710.83, 41125.69, 41785.19, 0.000, 0.000, 0.000, 12:48:50.290
176, 41719.83, 41720.00, 41203.88, 41830.01, 0.000, 0.000, 0.000, 12:48:50.290
177, 42365.41, 42429.88, 41823.86, 42459.72, 0.000, 0.000, 0.000, 12:48:50.305
178, 42736.31, 42873.83, 42138.25, 42820.33, 0.000, 0.000, 0.000, 12:48:50.305
179, 42645.11, 42708.29, 42110.01, 42790.00, 0.000, 0.000, 0.000, 12:48:50.305
180, 42670.04, 42697.18, 42176.77, 42823.50, 0.000, 0.000, 0.000, 12:48:50.305
181, 43337.27, 43422.85, 42799.12, 43455.29, 0.000, 0.000, 0.000, 12:48:50.327
182, 43703.13, 43856.52, 43108.56, 43811.10, 0.000, 0.000, 0.000, 12:48:50.327
183, 43631.89, 43702.47, 43076.95, 43778.21, 0.000, 0.000, 0.000, 12:48:50.335
184, 43658.54, 43677.88, 43140.30, 43811.10, 0.000, 0.000, 0.000, 12:48:50.335
185, 44313.32, 44380.72, 43755.21, 44441.96, 0.000, 0.000, 0.000, 12:48:50.335
186, 44697.50, 44827.18, 44081.34, 44810.85, 0.000, 0.000, 0.000, 12:48:50.335
187, 44616.05, 44661.97, 44049.93, 44776.54, 0.000, 0.000, 0.000, 12:48:50.350
188, 44657.36, 44651.28, 44119.91, 44808.67, 0.000, 0.000, 0.000, 12:48:50.351
189, 45310.69, 45367.80, 44725.60, 45429.05, 0.000, 0.000, 0.000, 12:48:50.365
190, 45693.97, 45801.92, 45043.09, 45799.89, 0.000, 0.000, 0.000, 12:48:50.365
191, 45616.95, 45643.08, 45020.49, 45770.58, 0.000, 0.000, 0.000, 12:48:50.366
192, 45646.67, 45623.82, 45081.33, 45788.56, 0.000, 0.000, 0.000, 12:48:50.366
193, 46311.85, 46331.15, 45695.98, 46416.93, 0.000, 0.000, 0.000, 12:48:50.380
194, 46687.89, 46773.59, 46016.89, 46787.65, 0.000, 0.000, 0.000, 12:48:50.380
195, 46611.15, 46623.01, 45991.54, 46763.50, 0.000, 0.000, 0.000, 12:48:50.395
196, 46631.46, 46593.50, 46053.05, 46769.26, 0.000, 0.000, 0.000, 12:48:50.395
197, 47291.18, 47307.04, 46665.00, 47408.48, 0.000, 0.000, 0.000, 12:48:50.395
198, 47675.36, 47750.64, 46991.27, 47764.32, 0.000, 0.000, 0.000, 12:48:50.395
199, 47596.68, 47595.72, 46971.53, 47740.07, 0.000, 0.000, 0.000, 12:48:50.410
200, 47618.57, 47565.27, 47023.85, 47761.09, 0.000, 0.000, 0.000, 12:48:50.410
0, -741.37, -742.82, -1381.06, -638.39, 0.000, 0.000, 0.000, 12:48:50.410
1, -351.29, -291.27, -1048.30, -271.89, 0.000, 0.000, 0.000, 12:48:50.424
2, -422.95, -442.65, -1069.73, -295.67, 0.000, 0.000, 0.000, 12:48:50.424
3, -418.62, -482.51, -1019.08, -280.35, 0.000, 0.000, 0.000, 12:48:50.440
4, 243.78, 232.09, -404.83, 342.45, 0.000, 0.000, 0.000, 12:48:50.440
5, 637.31, 683.85, -71.80, 711.59, 0.000, 0.000, 0.000, 12:48:50.440
6, 561.04, 537.08, -92.83, 692.90, 0.000, 0.000, 0.000, 12:48:50.440
7, 564.48, 491.67, -44.86, 695.72, 0.000, 0.000, 0.000, 12:48:50.455
8, 1228.33, 1212.19, 567.73, 1322.48, 0.000, 0.000, 0.000, 12:48:50.455
9, 1620.48, 1665.08, 910.68, 1696.95, 0.000, 0.000, 0.000, 12:48:50.469
10, 1547.33, 1516.08, 890.01, 1675.13, 0.000, 0.000, 0.000, 12:48:50.469
11, 1551.38, 1468.74, 933.60, 1675.58, 0.000, 0.000, 0.000, 12:48:50.470
12, 2215.00, 2187.53, 1549.79, 2302.24, 0.000, 0.000, 0.000, 12:48:50.470
13, 2608.81, 2645.31, 1892.58, 2679.87, 0.000, 0.000, 0.000, 12:48:50.500
14, 2542.12, 2496.88, 1874.24, 2659.70, 0.000, 0.000, 0.000, 12:48:50.500
15, 2532.30, 2450.34, 1915.84, 2648.11, 0.000, 0.000, 0.000, 12:48:50.501
16, 3190.44, 3155.42, 2522.83, 3279.06, 0.000, 0.000, 0.000, 12:48:50.501
17, 3593.73, 3623.24, 2868.72, 3656.83, 0.000, 0.000, 0.000, 12:48:50.501
18, 3521.61, 3482.74, 2856.48, 3644.39, 0.000, 0.000, 0.000, 12:48:50.501
19, 3515.53, 3427.52, 2886.93, 3630.68, 0.000, 0.000, 0.000, 12:48:50.515
20, 4171.01, 4133.82, 3510.86, 4253.98, 0.000, 0.000, 0.000, 12:48:50.515
21, 4581.32, 4600.82, 3855.48, 4639.23, 0.000, 0.000, 0.000, 12:48:50.530
22, 4510.58, 4459.69, 3839.26, 4621.68, 0.000, 0.000, 0.000, 12:48:50.530
23, 4490.67, 4396.81, 3859.14, 4610.28, 0.000, 0.000, 0.000, 12:48:50.531
24, 5152.45, 5118.00, 4482.09, 5231.95, 0.000, 0.000, 0.000, 12:48:50.531
25, 5555.45, 5577.71, 4833.54, 5622.19, 0.000, 0.000, 0.000, 12:48:50.560
26, 5496.92, 5445.54, 4830.65, 5595.52, 0.000, 0.000, 0.000, 12:48:50.561
27, 5492.59, 5397.57, 4865.10, 5588.97, 0.000, 0.000, 0.000, 12:48:50.561
28, 6124.48, 6090.29, 5467.58, 6205.73, 0.000, 0.000, 0.000, 12:48:50.561
29, 6536.22, 6566.70, 5825.67, 6602.02, 0.000, 0.000, 0.000, 12:48:50.561
30, 6475.89, 6432.88, 5813.92, 6585.37, 0.000, 0.000, 0.000, 12:48:50.561
31, 6453.37, 6356.05, 5837.09, 6558.45, 0.000, 0.000, 0.000, 12:48:50.605
32, 7106.97, 7065.72, 6448.17, 7173.80, 0.000, 0.000, 0.000, 12:48:50.605
33, 7523.30, 7551.93, 6805.74, 7581.86, 0.000, 0.000, 0.000, 12:48:50.605
34, 7462.98, 7415.53, 6794.08, 7572.96, 0.000, 0.000, 0.000, 12:48:50.605
35, 7427.82, 7335.13, 6805.52, 7541.33, 0.000, 0.000, 0.000, 12:48:50.606
36, 8090.30, 8044.94, 7416.30, 8167.62, 0.000, 0.000, 0.000, 12:48:50.606
37, 8509.44, 8525.33, 7789.78, 8559.78, 0.000, 0.000, 0.000, 12:48:50.607
38, 8451.30, 8400.46, 7777.51, 8558.28, 0.000, 0.000, 0.000, 12:48:50.607
39, 8412.74, 8315.83, 7787.02, 8519.90, 0.000, 0.000, 0.000, 12:48:50.607
40, 9065.17, 9027.37, 8398.41, 9145.97, 0.000, 0.000, 0.000, 12:48:50.607
41, 9487.68, 9507.80, 8762.15, 9548.05, 0.000, 0.000, 0.000, 12:48:50.619
42, 9432.63, 9385.03, 8759.69, 9541.75, 0.000, 0.000, 0.000, 12:48:50.619
43, 9385.18, 9290.33, 8757.41, 9502.83, 0.000, 0.000, 0.000, 12:48:50.635
44, 10045.56, 10002.08, 9373.80, 10122.58, 0.000, 0.000, 0.000, 12:48:50.635
45, 10463.89, 10483.53, 9741.33, 10527.50, 0.000, 0.000, 0.000, 12:48:50.649
46, 10404.68, 10364.53, 9740.05, 10523.75, 0.000, 0.000, 0.000, 12:48:50.650
47, 10365.01, 10268.00, 9740.57, 10474.92, 0.000, 0.000, 0.000, 12:48:50.650
48, 11019.76, 10980.25, 10351.79, 11107.08, 0.000, 0.000, 0.000, 12:48:50.650
49, 11444.42, 11461.13, 10721.50, 11514.64, 0.000, 0.000, 0.000, 12:48:50.664
50, 11404.94, 11343.67, 10720.28, 11510.32, 0.000, 0.000, 0.000, 12:48:50.664
51, 11348.50, 11250.13, 10720.52, 11457.52, 0.000, 0.000, 0.000, 12:48:50.680
52, 12002.48, 11955.80, 11329.27, 12088.42, 0.000, 0.000, 0.000, 12:48:50.681
53, 12427.18, 12447.20, 11700.17, 12482.80, 0.000, 0.000, 0.000, 12:48:50.681
54, 12387.69, 12333.36, 11699.87, 11512.53, 0.000, 0.000, 0.000, 12:48:50.681
55, 12330.71, 12233.57, 11698.28, 11457.71, 0.000, 0.000, 0.000, 12:48:50.695
56, 12985.34, 12931.91, 12309.24, 12072.39, 0.000, 0.000, 0.000, 12:48:50.695
57, 13414.00, 13422.29, 12681.36, 12486.14, 0.000, 0.000, 0.000, 12:48:50.710
58, 13369.99, 13310.93, 11713.39, 11510.48, 0.000, 0.000, 0.000, 12:48:50.713
59, 13306.31, 13204.68, 11701.22, 11466.23, 0.000, 0.000, 0.000, 12:48:50.725
60, 13955.54, 13908.48, 12311.31, 12073.24, 0.000, 0.000, 0.000, 12:48:50.725
61, 14387.89, 14401.13, 12680.82, 12496.52, 0.000, 0.000, 0.000, 12:48:50.726
62, 14349.21, 14301.12, 11718.41, 11520.08, 0.000, 0.000, 0.000, 12:48:50.726
63, 14287.41, 14186.02, 11702.17, 11454.92, 0.000, 0.000, 0.000, 12:48:50.740
64, 14937.77, 14890.20, 12301.37, 12073.42, 0.000, 0.000, 0.000, 12:48:50.740
65, 15368.38, 15384.09, 12678.46, 12487.68, 0.000, 0.000, 0.000, 12:48:50.754
66, 15347.90, 15290.52, 11725.77, 11533.96, 0.000, 0.000, 0.000, 12:48:50.755
67, 15279.27, 15177.09, 11703.97, 11471.69, 0.000, 0.000, 0.000, 12:48:50.755
68, 15912.39, 15859.36, 12296.94, 12064.39, 0.000, 0.000, 0.000, 12:48:50.755
69, 16333.29, 16340.71, 12663.67, 12466.43, 0.000, 0.000, 0.000, 12:48:50.769
70, 16331.82, 16283.92, 11740.45, 11536.11, 0.000, 0.000, 0.000, 12:48:50.769
71, 16260.55, 16171.59, 11707.24, 11469.08, 0.000, 0.000, 0.000, 12:48:50.784
72, 16887.79, 16835.70, 12288.26, 12052.77, 0.000, 0.000, 0.000, 12:48:50.784
73, 17295.33, 17313.60, 12652.47, 12453.03, 0.000, 0.000, 0.000, 12:48:50.785
74, 16352.08, 17280.64, 11751.61, 11546.52, 0.000, 0.000, 0.000, 12:48:50.785
75, 16273.62, 17155.27, 11720.13, 11479.65, 0.000, 0.000, 0.000, 12:48:50.800
76, 16876.37, 17800.09, 12279.21, 12058.06, 0.000, 0.000, 0.000, 12:48:50.800
77, 17285.29, 18273.34, 12634.93, 12450.06, 0.000, 0.000, 0.000, 12:48:50.800
78, 16367.64, 17296.87, 11769.75, 11574.70, 0.000, 0.000, 0.000, 12:48:50.800
79, 16283.84, 17174.46, 11734.01, 11490.82, 0.000, 0.000, 0.000, 12:48:50.815
80, 16860.14, 17792.71, 12272.47, 12046.10, 0.000, 0.000, 0.000, 12:48:50.815
81, 17259.31, 18240.28, 12609.55, 12429.10, 0.000, 0.000, 0.000, 12:48:50.830
82, 16384.63, 17312.73, 11785.93, 11591.70, 0.000, 0.000, 0.000, 12:48:50.830
83, 16295.87, 17177.80, 11739.91, 11498.64, 0.000, 0.000, 0.000, 12:48:50.830
84, 16856.65, 17788.56, 12265.80, 12042.42, 0.000, 0.000, 0.000, 12:48:50.830
85, 17252.77, 18233.42, 12609.62, 12418.84, 0.000, 0.000, 0.000, 12:48:50.890
86, 16385.91, 17334.91, 11796.46, 11585.94, 0.000, 0.000, 0.000, 12:48:50.890
87, 16290.59, 17190.92, 11741.19, 11496.47, 0.000, 0.000, 0.000, 12:48:50.890
88, 16855.54, 17784.83, 12261.25, 12037.03, 0.000, 0.000, 0.000, 12:48:50.890
89, 17252.28, 18234.16, 12597.70, 12412.64, 0.000, 0.000, 0.000, 12:48:50.891
90, 16400.32, 17324.38, 11795.92, 11598.82, 0.000, 0.000, 0.000, 12:48:50.891
91, 16302.39, 17184.90, 11738.55, 11505.25, 0.000, 0.000, 0.000, 12:48:50.892
92, 16853.96, 17778.98, 12261.50, 12025.81, 0.000, 0.000, 0.000, 12:48:50.892
93, 17244.99, 18222.73, 12600.22, 12407.83, 0.000, 0.000, 0.000, 12:48:50.893
94, 16396.03, 17343.69, 11801.29, 11602.56, 0.000, 0.000, 0.000, 12:48:50.893
95, 16288.43, 17183.02, 11736.76, 11504.51, 0.000, 0.000, 0.000, 12:48:50.893
96, 16844.81, 17770.03, 12254.71, 12022.46, 0.000, 0.000, 0.000, 12:48:50.893
97, 17243.57, 18225.00, 12605.15, 12402.36, 0.000, 0.000, 0.000, 12:48:50.905
98, 16411.04, 17350.67, 11812.28, 11612.93, 0.000, 0.000, 0.000, 12:48:50.905
99, 16289.86, 17192.14, 11738.37, 11496.09, 0.000, 0.000, 0.000, 12:48:50.935
100, 16839.23, 17775.79, 12248.29, 12026.24, 0.000, 0.000, 0.000, 12:48:50.935
101, 17241.58, 18225.48, 12593.32, 12408.24, 0.000, 0.000, 0.000, 12:48:50.935
102, 16417.00, 17347.39, 11809.75, 11616.76, 0.000, 0.000, 0.000, 12:48:50.935
103, 16291.67, 17190.71, 11739.82, 11505.18, 0.000, 0.000, 0.000, 12:48:50.936
104, 16842.29, 17776.62, 12245.95, 12029.59, 0.000, 0.000, 0.000, 12:48:50.936
105, 17239.47, 18219.05, 12588.12, 12406.38, 0.000, 0.000, 0.000, 12:48:50.937
106, 16424.19, 17361.00, 11815.49, 11617.70, 0.000, 0.000, 0.000, 12:48:50.937
107, 16295.38, 17188.93, 11742.98, 11499.83, 0.000, 0.000, 0.000, 12:48:50.950
108, 16832.77, 17764.81, 12243.03, 12025.31, 0.000, 0.000, 0.000, 12:48:50.950
109, 17235.78, 18220.08, 12586.81, 12406.01, 0.000, 0.000, 0.000, 12:48:50.979
110, 16423.03, 17358.45, 11824.44, 11624.87, 0.000, 0.000, 0.000, 12:48:50.979
111, 16293.73, 17195.75, 11742.96, 11502.13, 0.000, 0.000, 0.000, 12:48:50.980
112, 16837.98, 17768.57, 12248.01, 12008.12, 0.000, 0.000, 0.000, 12:48:50.980
113, 17233.19, 18216.30, 12595.76, 12395.81, 0.000, 0.000, 0.000, 12:48:50.981
114, 16434.92, 17364.81, 11832.18, 11625.88, 0.000, 0.000, 0.000, 12:48:50.981
115, 16299.11, 17183.06, 11740.67, 11498.24, 0.000, 0.000, 0.000, 12:48:50.995
116, 16828.17, 17762.30, 12239.13, 12016.06, 0.000, 0.000, 0.000, 12:48:50.995
117, 17229.74, 18216.34, 12590.47, 12397.37, 0.000, 0.000, 0.000, 12:48:51.011
118, 16436.77, 17370.74, 11835.94, 11626.58, 0.000, 0.000, 0.000, 12:48:51.011
119, 16293.06, 17187.81, 11740.00, 11506.99, 0.000, 0.000, 0.000, 12:48:51.011
120, 16825.32, 17752.39, 12234.25, 12013.36, 0.000, 0.000, 0.000, 12:48:51.011
121, 17226.34, 18212.77, 12582.86, 12400.15, 0.000, 0.000, 0.000, 12:48:51.025
122, 16436.60, 17377.41, 11834.80, 11637.94, 0.000, 0.000, 0.000, 12:48:51.025
123, 16284.69, 17187.21, 11738.08, 11495.23, 0.000, 0.000, 0.000, 12:48:51.055
124, 16829.07, 17763.18, 12235.75, 12006.33, 0.000, 0.000, 0.000, 12:48:51.055
125, 17225.79, 18204.65, 12585.63, 12402.96, 0.000, 0.000, 0.000, 12:48:51.055
126, 16442.87, 17383.38, 11841.88, 11644.80, 0.000, 0.000, 0.000, 12:48:51.055
127, 16283.78, 17182.26, 11738.30, 11496.98, 0.000, 0.000, 0.000, 12:48:51.056
128, 16824.11, 17751.36, 12234.79, 12002.62, 0.000, 0.000, 0.000, 12:48:51.056
