%OpenBCI Raw EEG Data
%
%Sample Rate = 200.0 Hz
%First Column = SampleIndex
%Last Column = Timestamp 
%Other Columns = EEG data in microvolts followed by Accel Data (in G) interleaved with Aux Data
0, -2856.12, -2921.78, -3688.32, -2883.22, 0.000, 0.000, 0.000, 12:53:46.769
1, -3721.84, -3848.77, -4451.37, -3666.56, 0.000, 0.000, 0.000, 12:53:46.799
2, -3714.38, -3887.10, -4449.59, -3695.37, 0.000, 0.000, 0.000, 12:53:46.799
3, -3103.13, -3199.79, -3908.79, -3150.05, 0.000, 0.000, 0.000, 12:53:46.800
4, -2817.13, -2896.19, -3654.91, -2864.03, 0.000, 0.000, 0.000, 12:53:46.800
5, -3665.82, -3737.21, -4420.23, -3648.99, 0.000, 0.000, 0.000, 12:53:46.800
6, -3675.68, -3787.30, -4426.35, -3681.81, 0.000, 0.000, 0.000, 12:53:46.800
7, -3079.92, -3114.42, -3876.25, -3122.43, 0.000, 0.000, 0.000, 12:53:46.828
8, -2808.31, -2877.21, -3637.43, -2846.38, 0.000, 0.000, 0.000, 12:53:46.828
9, -3665.77, -3761.10, -4409.19, -3632.37, 0.000, 0.000, 0.000, 12:53:46.829
10, -3683.84, -3876.28, -4424.35, -3674.75, 0.000, 0.000, 0.000, 12:53:46.829
11, -3084.18, -3152.99, -3880.36, -3123.28, 0.000, 0.000, 0.000, 12:53:46.843
12, -2811.06, -2842.61, -3629.52, -2836.98, 0.000, 0.000, 0.000, 12:53:46.843
13, -3661.73, -2862.58, -4393.93, -3614.09, 0.000, 0.000, 0.000, 12:53:46.844
14, -3679.81, -2869.90, -4402.55, -3668.32, 0.000, 0.000, 0.000, 12:53:46.844
15, -3076.24, -2212.05, -3864.34, -3115.33, 0.000, 0.000, 0.000, 12:53:46.859
16, -2791.28, -1815.44, -3614.40, -2833.70, 0.000, 0.000, 0.000, 12:53:46.859
17, -3633.34, -2763.99, -4377.00, -3611.23, 0.000, 0.000, 0.000, 12:53:46.865
18, -3666.17, -2900.11, -4394.13, -3658.70, 0.000, 0.000, 0.000, 12:53:46.866
19, -3066.00, -2220.64, -3857.67, -3108.58, 0.000, 0.000, 0.000, 12:53:46.873
20, -2782.85, -1830.72, -3606.87, -2824.21, 0.000, 0.000, 0.000, 12:53:46.873
21, -3636.67, -1880.38, -4372.34, -3606.35, 0.000, 0.000, 0.000, 12:53:46.903
22, -3669.09, -1877.73, -4402.47, -3650.86, 0.000, 0.000, 0.000, 12:53:46.903
23, -3061.03, -1166.86, -3866.73, -3107.26, 0.000, 0.000, 0.000, 12:53:46.904
24, -2778.85, -823.77, -3607.64, -2824.14, 0.000, 0.000, 0.000, 12:53:46.904
25, -3635.82, -834.96, -4376.41, -3604.96, 0.000, 0.000, 0.000, 12:53:46.905
26, -3674.62, -927.12, -4404.11, -3665.25, 0.000, 0.000, 0.000, 12:53:46.906
27, -3071.24, -132.56, -3865.99, -3104.42, 0.000, 0.000, 0.000, 12:53:46.919
28, -2795.51, 48.60, -3610.74, -2823.02, 0.000, 0.000, 0.000, 12:53:46.919
29, -3644.58, -895.74, -4366.30, -3602.82, 0.000, 0.000, 0.000, 12:53:46.919
30, -3673.32, -934.76, -4398.69, -3663.93, 0.000, 0.000, 0.000, 12:53:46.919
31, -3074.14, -177.63, -3861.27, -3111.88, 0.000, 0.000, 0.000, 12:53:46.933
32, -2773.67, 140.99, -3590.64, -2813.66, 0.000, 0.000, 0.000, 12:53:46.933
33, -3624.14, -785.39, -4349.11, -3600.24, 0.000, 0.000, 0.000, 12:53:46.950
34, -3673.13, -905.96, -4393.19, -3662.49, 0.000, 0.000, 0.000, 12:53:46.950
35, -3079.95, -210.25, -3858.64, -3111.35, 0.000, 0.000, 0.000, 12:53:46.963
36, -2782.75, 125.44, -3596.84, -2815.95, 0.000, 0.000, 0.000, 12:53:46.963
37, -3629.75, -781.49, -4356.23, -3593.14, 0.000, 0.000, 0.000, 12:53:46.964
38, -3665.28, -922.50, -4391.77, -3656.12, 0.000, 0.000, 0.000, 12:53:46.964
39, -3065.83, -183.62, -3861.58, -3113.14, 0.000, 0.000, 0.000, 12:53:46.978
40, -2772.63, 88.59, -3600.45, -2811.73, 0.000, 0.000, 0.000, 12:53:46.978
41, -3612.92, -865.03, -4365.15, -3588.48, 0.000, 0.000, 0.000, 12:53:46.978
42, -3662.92, -844.89, -4403.98, -3659.61, 0.000, 0.000, 0.000, 12:53:46.979
43, -3078.17, -153.90, -3865.28, -3113.02, 0.000, 0.000, 0.000, 12:53:46.994
44, -2770.83, 90.70, -3596.42, -2808.79, 0.000, 0.000, 0.000, 12:53:46.994
45, -3615.22, -800.51, -4360.93, -3591.99, 0.000, 0.000, 0.000, 12:53:47.008
46, -3686.61, -812.79, -4420.83, -3681.07, 0.000, 0.000, 0.000, 12:53:47.008
47, -3103.55, -211.61, -3885.05, -3143.96, 0.000, 0.000, 0.000, 12:53:47.009
48, -2771.38, 106.89, -3574.68, -2810.04, 0.000, 0.000, 0.000, 12:53:47.009
49, -3618.16, -773.06, -4324.84, -3586.53, 0.000, 0.000, 0.000, 12:53:47.039
50, -3681.86, -865.67, -4371.15, -3676.10, 0.000, 0.000, 0.000, 12:53:47.039
51, -3090.08, -191.00, -3830.00, -3139.47, 0.000, 0.000, 0.000, 12:53:47.039
52, -2780.80, 76.89, -3544.49, -2828.31, 0.000, 0.000, 0.000, 12:53:47.039
53, -3628.88, -850.20, -4295.45, -3605.10, 0.000, 0.000, 0.000, 12:53:47.040
54, -3672.76, -811.52, -4337.12, -3685.57, 0.000, 0.000, 0.000, 12:53:47.040
55, -3087.55, -129.61, -3806.92, -3145.30, 0.000, 0.000, 0.000, 12:53:47.054
56, -2782.56, 139.66, -3539.81, -2830.98, 0.000, 0.000, 0.000, 12:53:47.054
57, -3628.13, -747.98, -4306.18, -3617.37, 0.000, 0.000, 0.000, 12:53:47.069
58, -3673.53, -814.96, -4356.17, -3688.69, 0.000, 0.000, 0.000, 12:53:47.069
59, -3098.39, -281.09, -3840.59, -3145.03, 0.000, 0.000, 0.000, 12:53:47.084
60, -2776.46, 95.50, -3563.14, -2834.70, 0.000, 0.000, 0.000, 12:53:47.084
61, -3620.89, -822.51, -4324.02, -3603.45, 0.000, 0.000, 0.000, 12:53:47.085
62, -3675.93, -835.54, -4377.22, -3687.10, 0.000, 0.000, 0.000, 12:53:47.085
63, -3085.30, -162.75, -3852.26, -3138.15, 0.000, 0.000, 0.000, 12:53:47.114
64, -2774.22, 130.46, -3574.75, -2815.89, 0.000, 0.000, 0.000, 12:53:47.114
65, -3617.58, -829.85, -4327.20, -3586.84, 0.000, 0.000, 0.000, 12:53:47.114
66, -3681.59, -819.33, -4387.43, -3668.37, 0.000, 0.000, 0.000, 12:53:47.114
67, -3105.56, -294.21, -3868.28, -3130.56, 0.000, 0.000, 0.000, 12:53:47.115
68, -2773.74, 150.82, -3579.73, -2807.28, 0.000, 0.000, 0.000, 12:53:47.115
69, -3612.70, 145.84, -4343.19, -3583.12, 0.000, 0.000, 0.000, 12:53:47.128
70, -3677.16, 56.93, -4404.17, -3673.46, 0.000, 0.000, 0.000, 12:53:47.128
71, -3102.19, 769.48, -3880.09, -3136.05, 0.000, 0.000, 0.000, 12:53:47.129
72, -2775.33, 1088.62, -3584.04, -2813.29, 0.000, 0.000, 0.000, 12:53:47.129
73, -3619.36, 111.36, -4342.90, -3582.33, 0.000, 0.000, 0.000, 12:53:47.144
74, -3679.58, 191.49, -4404.30, -3672.26, 0.000, 0.000, 0.000, 12:53:47.144
75, -3097.88, 706.07, -3875.76, -3134.76, 0.000, 0.000, 0.000, 12:53:47.159
76, -2762.71, 1176.26, -3571.02, -2811.99, 0.000, 0.000, 0.000, 12:53:47.159
77, -3596.48, 1109.13, -4324.93, -3575.11, 0.000, 0.000, 0.000, 12:53:47.159
78, -3663.30, 1074.21, -4380.75, -3676.13, 0.000, 0.000, 0.000, 12:53:47.159
79, -3073.03, 1751.35, -3861.56, -3134.52, 0.000, 0.000, 0.000, 12:53:47.173
80, -2751.88, 2130.03, -3574.94, -2806.02, 0.000, 0.000, 0.000, 12:53:47.173
81, -3607.41, 1162.29, -4331.73, -3581.32, 0.000, 0.000, 0.000, 12:53:47.189
82, -3677.08, 1176.87, -4404.06, -3672.42, 0.000, 0.000, 0.000, 12:53:47.189
83, -3091.70, 1668.11, -3878.85, -3134.21, 0.000, 0.000, 0.000, 12:53:47.189
84, -2769.87, 2033.73, -3592.88, -2807.72, 0.000, 0.000, 0.000, 12:53:47.189
85, -3607.66, 1235.39, -4345.96, -3571.13, 0.000, 0.000, 0.000, 12:53:47.203
86, -3686.01, 1084.14, -4416.09, -3676.38, 0.000, 0.000, 0.000, 12:53:47.203
87, -3105.64, 1694.10, -3888.56, -3137.53, 0.000, 0.000, 0.000, 12:53:47.234
88, -2762.99, 2174.98, -3588.37, -2798.18, 0.000, 0.000, 0.000, 12:53:47.234
89, -3601.85, 2167.32, -4335.52, -3570.14, 0.000, 0.000, 0.000, 12:53:47.234
90, -3682.78, 2175.10, -4403.36, -3664.86, 0.000, 0.000, 0.000, 12:53:47.234
91, -3093.21, 2726.99, -3879.66, -3128.47, 0.000, 0.000, 0.000, 12:53:47.235
92, -2755.86, 3052.89, -3575.55, -2797.73, 0.000, 0.000, 0.000, 12:53:47.235
93, -3598.29, 2082.13, -4326.54, -3571.20, 0.000, 0.000, 0.000, 12:53:47.249
94, -3686.32, 1996.73, -4412.42, -3677.32, 0.000, 0.000, 0.000, 12:53:47.249
95, -3103.60, 2637.62, -3888.93, -3143.38, 0.000, 0.000, 0.000, 12:53:47.249
96, -2764.69, 3092.79, -3589.63, -2797.22, 0.000, 0.000, 0.000, 12:53:47.249
97, -3598.08, 2188.89, -4333.16, -3559.82, 0.000, 0.000, 0.000, 12:53:47.278
98, -3683.62, 2112.88, -4414.32, -3666.19, 0.000, 0.000, 0.000, 12:53:47.278
99, -3102.91, 2704.57, -3892.66, -3136.63, 0.000, 0.000, 0.000, 12:53:47.279
100, -2760.67, 3029.21, -3583.89, -2798.55, 0.000, 0.000, 0.000, 12:53:47.279
101, -3599.17, 2231.94, -4328.89, -3557.39, 0.000, 0.000, 0.000, 12:53:47.279
102, -3694.83, 1978.29, -4415.69, -3676.16, 0.000, 0.000, 0.000, 12:53:47.280
103, -3122.66, 2755.61, -3906.55, -3148.69, 0.000, 0.000, 0.000, 12:53:47.308
104, -2759.12, 3106.17, -3578.31, -2799.75, 0.000, 0.000, 0.000, 12:53:47.308
105, -3591.63, 2219.09, -4325.86, -3566.90, 0.000, 0.000, 0.000, 12:53:47.308
106, -3684.85, 2114.01, -4412.85, -3673.70, 0.000, 0.000, 0.000, 12:53:47.309
107, -3109.56, 2680.61, -3897.50, -3153.16, 0.000, 0.000, 0.000, 12:53:47.309
108, -2746.86, 3065.71, -3574.90, -2801.75, 0.000, 0.000, 0.000, 12:53:47.309
109, -3582.81, 2236.49, -4321.58, -3567.67, 0.000, 0.000, 0.000, 12:53:47.329
110, -3684.55, 2085.73, -4413.09, -3682.69, 0.000, 0.000, 0.000, 12:53:47.329
111, -3108.22, 2770.80, -3900.53, -3152.58, 0.000, 0.000, 0.000, 12:53:47.354
112, -2754.83, 3125.97, -3580.48, -2797.11, 0.000, 0.000, 0.000, 12:53:47.354
113, -3580.11, 3054.66, -4325.07, -3560.70, 0.000, 0.000, 0.000, 12:53:47.354
114, -3688.06, 2956.04, -4417.61, -3680.16, 0.000, 0.000, 0.000, 12:53:47.354
115, -3116.61, 3688.79, -3901.05, -3155.88, 0.000, 0.000, 0.000, 12:53:47.356
116, -2754.21, 4088.80, -3585.05, -2792.35, 0.000, 0.000, 0.000, 12:53:47.356
117, -3582.23, 3141.19, -4323.46, -3559.84, 0.000, 0.000, 0.000, 12:53:47.369
118, -3683.81, 2997.10, -4415.17, -3677.61, 0.000, 0.000, 0.000, 12:53:47.369
119, -3129.87, 3674.50, -3904.04, -3154.26, 0.000, 0.000, 0.000, 12:53:47.384
120, -2751.53, 4031.69, -3573.95, -2788.96, 0.000, 0.000, 0.000, 12:53:47.384
121, -3569.64, 3117.62, -4316.53, -3549.05, 0.000, 0.000, 0.000, 12:53:47.384
122, -3681.13, 3008.51, -4411.48, -3674.24, 0.000, 0.000, 0.000, 12:53:47.385
123, -3113.54, 3621.74, -3898.00, -3155.26, 0.000, 0.000, 0.000, 12:53:47.398
124, -2749.20, 4053.54, -3565.34, -2790.87, 0.000, 0.000, 0.000, 12:53:47.399
125, -3572.04, 3153.90, -4311.58, -3554.14, 0.000, 0.000, 0.000, 12:53:47.414
126, -3684.19, 3038.15, -4409.00, -3691.76, 0.000, 0.000, 0.000, 12:53:47.414
127, -3114.76, 3654.14, -3909.69, -3163.98, 0.000, 0.000, 0.000, 12:53:47.414
128, -2747.82, 4067.65, -3572.79, -2791.46, 0.000, 0.000, 0.000, 12:53:47.414
129, -3576.83, 3131.13, -4316.79, -3550.77, 0.000, 0.000, 0.000, 12:53:47.428
130, -3694.81, 3062.53, -4423.89, -3680.65, 0.000, 0.000, 0.000, 12:53:47.428
131, -3128.21, 3658.28, -3915.28, -3158.91, 0.000, 0.000, 0.000, 12:53:47.429
132, -2752.75, 4051.01, -3570.25, -2793.29, 0.000, 0.000, 0.000, 12:53:47.429
133, -3566.54, 3128.97, -4312.94, -3542.40, 0.000, 0.000, 0.000, 12:53:47.459
134, -3682.70, 3000.78, -4413.37, -3668.06, 0.000, 0.000, 0.000, 12:53:47.459
135, -3110.20, 3618.54, -3900.57, -3148.17, 0.000, 0.000, 0.000, 12:53:47.459
136, -2729.42, 4057.25, -3568.69, -2779.07, 0.000, 0.000, 0.000, 12:53:47.459
137, -3542.56, 3124.57, -4307.20, -3540.45, 0.000, 0.000, 0.000, 12:53:47.460
138, -3648.05, 2991.61, -4399.59, -3683.04, 0.000, 0.000, 0.000, 12:53:47.460
139, -3073.61, 3608.30, -3898.25, -3164.79, 0.000, 0.000, 0.000, 12:53:47.473
140, -2680.89, 4013.98, -3556.91, -2796.70, 0.000, 0.000, 0.000, 12:53:47.473
141, -3481.42, 3226.83, -4293.91, -3543.61, 0.000, 0.000, 0.000, 12:53:47.489
142, -3584.71, 2956.64, -4397.98, -3691.77, 0.000, 0.000, 0.000, 12:53:47.489
143, -3007.91, 3630.78, -3896.12, -3172.62, 0.000, 0.000, 0.000, 12:53:47.489
144, -2617.76, 4009.47, -3547.41, -2798.88, 0.000, 0.000, 0.000, 12:53:47.489
145, -3441.13, 3123.04, -4292.24, -3543.70, 0.000, 0.000, 0.000, 12:53:47.519
146, -3575.78, 2953.80, -4416.96, -3693.56, 0.000, 0.000, 0.000, 12:53:47.519
147, -3024.47, 3540.03, -3917.43, -3179.35, 0.000, 0.000, 0.000, 12:53:47.519
148, -2637.96, 3996.97, -3567.17, -2799.96, 0.000, 0.000, 0.000, 12:53:47.519
149, -3462.28, 3129.80, -4296.69, -3538.04, 0.000, 0.000, 0.000, 12:53:47.519
150, -3609.22, 2996.95, -4414.79, -3693.57, 0.000, 0.000, 0.000, 12:53:47.519
151, -3049.97, 3603.35, -3905.89, -3169.53, 0.000, 0.000, 0.000, 12:53:47.533
152, -2686.16, 4063.15, -3561.78, -2787.07, 0.000, 0.000, 0.000, 12:53:47.534
153, -3515.20, 3176.32, -4292.93, -3541.26, 0.000, 0.000, 0.000, 12:53:47.548
154, -3659.31, 2971.10, -4418.88, -3693.96, 0.000, 0.000, 0.000, 12:53:47.549
155, -3104.36, 3671.11, -3898.02, -3174.15, 0.000, 0.000, 0.000, 12:53:47.549
156, -2729.70, 4090.46, -3565.80, -2798.14, 0.000, 0.000, 0.000, 12:53:47.549
157, -3552.51, 3206.80, -4291.15, -3532.90, 0.000, 0.000, 0.000, 12:53:47.563
158, -3707.35, 3034.62, -4423.63, -3695.35, 0.000, 0.000, 0.000, 12:53:47.563
159, -3136.99, 3643.54, -3912.64, -3179.03, 0.000, 0.000, 0.000, 12:53:47.593
160, -2746.00, 4066.75, -3561.72, -2790.19, 0.000, 0.000, 0.000, 12:53:47.593
161, -3575.37, 3208.22, -4297.67, -3538.23, 0.000, 0.000, 0.000, 12:53:47.594
162, -3709.47, 3039.78, -4412.03, -3683.59, 0.000, 0.000, 0.000, 12:53:47.594
163, -3155.09, 3667.76, -3924.99, -3180.84, 0.000, 0.000, 0.000, 12:53:47.594
164, -2756.90, 4084.59, -3563.25, -2783.25, 0.000, 0.000, 0.000, 12:53:47.595
165, -3571.18, 3195.74, -4293.98, -3525.97, 0.000, 0.000, 0.000, 12:53:47.608
166, -3714.84, 3022.26, -4426.80, -3687.84, 0.000, 0.000, 0.000, 12:53:47.608
167, -3165.84, 3639.29, -3933.45, -3178.26, 0.000, 0.000, 0.000, 12:53:47.609
168, -2767.30, 4064.89, -3571.23, -2781.43, 0.000, 0.000, 0.000, 12:53:47.609
169, -3577.27, 3217.49, -4292.10, -3522.64, 0.000, 0.000, 0.000, 12:53:47.623
170, -3732.46, 3042.72, -4428.93, -3692.53, 0.000, 0.000, 0.000, 12:53:47.623
171, -3175.28, 3663.86, -3931.65, -3182.88, 0.000, 0.000, 0.000, 12:53:47.639
172, -2763.43, 4106.44, -3570.73, -2782.86, 0.000, 0.000, 0.000, 12:53:47.639
173, -3577.37, 3181.36, -4292.90, -3525.27, 0.000, 0.000, 0.000, 12:53:47.639
174, -3718.18, 3042.91, -4436.28, -3694.90, 0.000, 0.000, 0.000, 12:53:47.639
175, -3169.62, 3642.52, -3938.89, -3177.85, 0.000, 0.000, 0.000, 12:53:47.669
176, -2760.37, 4142.87, -3567.03, -2783.91, 0.000, 0.000, 0.000, 12:53:47.669
177, -3570.42, 3257.32, -4289.49, -3525.59, 0.000, 0.000, 0.000, 12:53:47.669
178, -3740.71, 2949.36, -4437.37, -3698.45, 0.000, 0.000, 0.000, 12:53:47.669
179, -3170.25, 3697.31, -3942.67, -3192.50, 0.000, 0.000, 0.000, 12:53:47.670
180, -2767.32, 4059.34, -3568.16, -2786.54, 0.000, 0.000, 0.000, 12:53:47.670
181, -3557.91, 3110.18, -4285.97, -3520.58, 0.000, 0.000, 0.000, 12:53:47.684
182, -3717.08, 2999.01, -4428.65, -3696.02, 0.000, 0.000, 0.000, 12:53:47.684
183, -3167.26, 3635.66, -3937.16, -3191.18, 0.000, 0.000, 0.000, 12:53:47.713
184, -2756.24, 4075.65, -3563.46, -2782.20, 0.000, 0.000, 0.000, 12:53:47.713
185, -3559.34, 3173.02, -4285.58, -3501.10, 0.000, 0.000, 0.000, 12:53:47.714
186, -3708.33, 3067.99, -4431.85, -3688.17, 0.000, 0.000, 0.000, 12:53:47.714
187, -3164.04, 3634.19, -3937.55, -3183.05, 0.000, 0.000, 0.000, 12:53:47.714
188, -2748.75, 4085.10, -3567.15, -2780.04, 0.000, 0.000, 0.000, 12:53:47.714
189, -3546.15, 3180.85, -4280.32, -3518.60, 0.000, 0.000, 0.000, 12:53:47.729
190, -3720.87, 3045.73, -4439.46, -3695.55, 0.000, 0.000, 0.000, 12:53:47.729
191, -3171.49, 3613.08, -3944.24, -3193.99, 0.000, 0.000, 0.000, 12:53:47.745
192, -2744.39, 4074.70, -3570.21, -2777.89, 0.000, 0.000, 0.000, 12:53:47.745
193, -3544.25, 3221.77, -4280.77, -3510.60, 0.000, 0.000, 0.000, 12:53:47.758
194, -3706.13, 2947.80, -4435.79, -3692.84, 0.000, 0.000, 0.000, 12:53:47.758
195, -3159.19, 3567.02, -3940.15, -3187.34, 0.000, 0.000, 0.000, 12:53:47.759
196, -2745.37, 4126.61, -3558.81, -2773.01, 0.000, 0.000, 0.000, 12:53:47.759
197, -3543.28, 3202.72, -4272.69, -3501.35, 0.000, 0.000, 0.000, 12:53:47.760
198, -3710.93, 3022.12, -4431.85, -3689.65, 0.000, 0.000, 0.000, 12:53:47.760
199, -3171.13, 3668.98, -3942.93, -3195.35, 0.000, 0.000, 0.000, 12:53:47.789
200, -2739.71, 4114.54, -3564.14, -2769.22, 0.000, 0.000, 0.000, 12:53:47.789
0, -3541.68, -3668.67, -4278.17, -3502.30, 0.000, 0.000, 0.000, 12:53:47.789
1, -3716.52, -3812.44, -4434.40, -3694.86, 0.000, 0.000, 0.000, 12:53:47.789
2, -3168.22, -3263.38, -3939.08, -3190.73, 0.000, 0.000, 0.000, 12:53:47.789
3, -2734.90, -2793.45, -3557.21, -2780.54, 0.000, 0.000, 0.000, 12:53:47.803
4, -3531.90, -3735.00, -4269.23, -3502.06, 0.000, 0.000, 0.000, 12:53:47.803
5, -3718.57, -3904.30, -4436.34, -3694.03, 0.000, 0.000, 0.000, 12:53:47.804
6, -3172.44, -3286.71, -3949.28, -3198.22, 0.000, 0.000, 0.000, 12:53:47.804
7, -2745.96, -2768.55, -3565.56, -2779.70, 0.000, 0.000, 0.000, 12:53:47.834
8, -3532.11, -3651.61, -4271.50, -3502.44, 0.000, 0.000, 0.000, 12:53:47.834
9, -3711.27, -3731.09, -4433.57, -3696.50, 0.000, 0.000, 0.000, 12:53:47.834
10, -3181.20, -3237.33, -3959.08, -3208.58, 0.000, 0.000, 0.000, 12:53:47.834
11, -2739.71, -2780.71, -3555.02, -2777.52, 0.000, 0.000, 0.000, 12:53:47.835
12, -3525.44, -3638.20, -4269.87, -3492.31, 0.000, 0.000, 0.000, 12:53:47.835
13, -3721.89, -3847.82, -4436.93, -3695.05, 0.000, 0.000, 0.000, 12:53:47.848
14, -3179.98, -3215.43, -3947.41, -3207.04, 0.000, 0.000, 0.000, 12:53:47.849
15, -2743.92, -2838.70, -3560.18, -2775.67, 0.000, 0.000, 0.000, 12:53:47.863
16, -3516.67, -3717.14, -4262.24, -3491.28, 0.000, 0.000, 0.000, 12:53:47.863
17, -3717.23, -3854.43, -4444.99, -3698.99, 0.000, 0.000, 0.000, 12:53:47.864
18, -3171.71, -3274.88, -3953.59, -3204.43, 0.000, 0.000, 0.000, 12:53:47.864
19, -2732.78, -2788.35, -3562.21, -2781.56, 0.000, 0.000, 0.000, 12:53:47.878
20, -3520.17, -3701.85, -4257.90, -3494.20, 0.000, 0.000, 0.000, 12:53:47.879
21, -3715.79, -3815.81, -4428.79, -3703.17, 0.000, 0.000, 0.000, 12:53:47.908
22, -3176.15, -3300.36, -3953.18, -3206.69, 0.000, 0.000, 0.000, 12:53:47.908
23, -2723.70, -2740.96, -3545.62, -2770.01, 0.000, 0.000, 0.000, 12:53:47.908
24, -3512.66, -3541.57, -4252.95, -3483.10, 0.000, 0.000, 0.000, 12:53:47.908
25, -3718.38, -3736.61, -4439.08, -3703.31, 0.000, 0.000, 0.000, 12:53:47.910
26, -3177.54, -3285.75, -3951.62, -3206.33, 0.000, 0.000, 0.000, 12:53:47.910
27, -2732.26, -2824.41, -3549.06, -2780.97, 0.000, 0.000, 0.000, 12:53:47.923
28, -3511.22, -3532.79, -4248.70, -3481.94, 0.000, 0.000, 0.000, 12:53:47.923
29, -3721.12, -3733.67, -4437.31, -3703.55, 0.000, 0.000, 0.000, 12:53:47.938
30, -3179.22, -3313.17, -3955.86, -3209.86, 0.000, 0.000, 0.000, 12:53:47.938
31, -2724.96, -2824.66, -3551.00, -2772.49, 0.000, 0.000, 0.000, 12:53:47.939
32, -3504.98, -3534.30, -4249.85, -3478.15, 0.000, 0.000, 0.000, 12:53:47.939
33, -3714.11, -3786.93, -4437.91, -3699.76, 0.000, 0.000, 0.000, 12:53:47.954
34, -3175.10, -3265.81, -3959.50, -3207.82, 0.000, 0.000, 0.000, 12:53:47.954
35, -2728.87, -2729.00, -3553.60, -2774.75, 0.000, 0.000, 0.000, 12:53:47.956
36, -3505.21, -3649.75, -4255.70, -3480.00, 0.000, 0.000, 0.000, 12:53:47.956
37, -3724.67, -3915.10, -4440.72, -3699.68, 0.000, 0.000, 0.000, 12:53:47.969
38, -3179.23, -3349.07, -3961.52, -3210.99, 0.000, 0.000, 0.000, 12:53:47.969
39, -2725.79, -2827.96, -3561.09, -2771.34, 0.000, 0.000, 0.000, 12:53:47.984
40, -3510.47, -3611.67, -4251.24, -3474.56, 0.000, 0.000, 0.000, 12:53:47.984
41, -3717.30, -3802.96, -4439.81, -3711.25, 0.000, 0.000, 0.000, 12:53:47.984
42, -3178.11, -3333.57, -3963.87, -3210.95, 0.000, 0.000, 0.000, 12:53:47.984
43, -2717.10, -2849.26, -3554.27, -2774.47, 0.000, 0.000, 0.000, 12:53:48.000
44, -3502.13, -3642.69, -4249.49, -3478.91, 0.000, 0.000, 0.000, 12:53:48.000
45, -3710.53, -3765.51, -4441.07, -3708.10, 0.000, 0.000, 0.000, 12:53:48.013
46, -3182.77, -3196.54, -3965.02, -3220.76, 0.000, 0.000, 0.000, 12:53:48.013
47, -2729.73, -2728.45, -3554.11, -2773.54, 0.000, 0.000, 0.000, 12:53:48.014
48, -3500.16, -3572.07, -4240.73, -3471.43, 0.000, 0.000, 0.000, 12:53:48.014
49, -3714.32, -3889.03, -4431.88, -3704.15, 0.000, 0.000, 0.000, 12:53:48.028
50, -3186.10, -3364.68, -3970.08, -3219.78, 0.000, 0.000, 0.000, 12:53:48.029
51, -2734.72, -2794.57, -3559.29, -2782.92, 0.000, 0.000, 0.000, 12:53:48.043
52, -3500.32, -3570.26, -4240.11, -3470.84, 0.000, 0.000, 0.000, 12:53:48.043
53, -3719.57, -3925.96, -4437.63, -3706.32, 0.000, 0.000, 0.000, 12:53:48.044
54, -3203.77, -3297.20, -3970.14, -3228.84, 0.000, 0.000, 0.000, 12:53:48.044
55, -2748.29, -2706.17, -3561.95, -2783.11, 0.000, 0.000, 0.000, 12:53:48.059
56, -3488.21, -3649.79, -4234.59, -3476.44, 0.000, 0.000, 0.000, 12:53:48.059
57, -3725.67, -3858.55, -4444.42, -3718.95, 0.000, 0.000, 0.000, 12:53:48.073
58, -3181.76, -3296.06, -3971.04, -3214.56, 0.000, 0.000, 0.000, 12:53:48.073
59, -2725.32, -2857.76, -3574.52, -2764.92, 0.000, 0.000, 0.000, 12:53:48.073
60, -3448.79, -3636.27, -4219.62, -3433.32, 0.000, 0.000, 0.000, 12:53:48.074
61, -3675.41, -3853.19, -4429.87, -3667.38, 0.000, 0.000, 0.000, 12:53:48.088
62, -3186.55, -3231.59, -3993.90, -3216.94, 0.000, 0.000, 0.000, 12:53:48.088
63, -2729.87, -2805.49, -3594.92, -2786.14, 0.000, 0.000, 0.000, 12:53:48.103
64, -3439.65, -3653.53, -4221.90, -3430.73, 0.000, 0.000, 0.000, 12:53:48.103
65, -3667.94, -3868.34, -4430.27, -3678.07, 0.000, 0.000, 0.000, 12:53:48.104
66, -3203.29, -3355.15, -4004.05, -3239.04, 0.000, 0.000, 0.000, 12:53:48.104
67, -2776.26, -2910.15, -3629.01, -2830.43, 0.000, 0.000, 0.000, 12:53:48.118
68, -3431.91, -3610.25, -4199.23, -3422.59, 0.000, 0.000, 0.000, 12:53:48.118
69, -3649.62, -3736.94, -4394.37, -3646.71, 0.000, 0.000, 0.000, 12:53:48.133
70, -3202.12, -3293.36, -3998.08, -3238.17, 0.000, 0.000, 0.000, 12:53:48.134
71, -2805.60, -2933.85, -3645.03, -2851.14, 0.000, 0.000, 0.000, 12:53:48.134
72, -3441.66, -3508.20, -4198.98, -3422.24, 0.000, 0.000, 0.000, 12:53:48.134
73, -3641.96, -3671.56, -4392.39, -3646.52, 0.000, 0.000, 0.000, 12:53:48.149
74, -3210.51, -3363.52, -4015.13, -3246.60, 0.000, 0.000, 0.000, 12:53:48.149
75, -2817.58, -2936.06, -3655.47, -2855.84, 0.000, 0.000, 0.000, 12:53:48.164
76, -3430.99, -3624.22, -4197.99, -3409.75, 0.000, 0.000, 0.000, 12:53:48.164
77, -3642.25, -3832.79, -4387.71, -3636.93, 0.000, 0.000, 0.000, 12:53:48.164
78, -3223.87, -3277.01, -4020.10, -3255.60, 0.000, 0.000, 0.000, 12:53:48.164
79, -2821.80, -2851.26, -3661.64, -2870.03, 0.000, 0.000, 0.000, 12:53:48.178
80, -3421.97, -3544.01, -4186.10, -3411.47, 0.000, 0.000, 0.000, 12:53:48.178
81, -3649.21, -3758.49, -4388.67, -3648.30, 0.000, 0.000, 0.000, 12:53:48.193
82, -3244.22, -3376.63, -4021.90, -3266.73, 0.000, 0.000, 0.000, 12:53:48.193
83, -2850.09, -2895.10, -3670.78, -2886.79, 0.000, 0.000, 0.000, 12:53:48.194
84, -3440.15, -3537.54, -4186.84, -3418.14, 0.000, 0.000, 0.000, 12:53:48.194
85, -3658.53, -3813.88, -4386.30, -3645.37, 0.000, 0.000, 0.000, 12:53:48.223
86, -3250.69, -3395.66, -4027.93, -3263.45, 0.000, 0.000, 0.000, 12:53:48.223
87, -2842.52, -2927.82, -3665.21, -2889.35, 0.000, 0.000, 0.000, 12:53:48.223
88, -3433.51, -3570.25, -4185.01, -3411.93, 0.000, 0.000, 0.000, 12:53:48.223
89, -3650.15, -3788.35, -4386.24, -3642.84, 0.000, 0.000, 0.000, 12:53:48.224
90, -3242.29, -3337.06, -4032.76, -3274.43, 0.000, 0.000, 0.000, 12:53:48.224
91, -2850.48, -2901.17, -3680.14, -2886.94, 0.000, 0.000, 0.000, 12:53:48.239
92, -3428.94, -3535.56, -4182.33, -3413.98, 0.000, 0.000, 0.000, 12:53:48.239
93, -3648.78, -3804.52, -4384.54, -3633.72, 0.000, 0.000, 0.000, 12:53:48.269
94, -3249.03, -3312.59, -4034.51, -3270.02, 0.000, 0.000, 0.000, 12:53:48.269
95, -2846.88, -2830.10, -3677.02, -2891.68, 0.000, 0.000, 0.000, 12:53:48.269
96, -3424.08, -3533.33, -4169.04, -3393.66, 0.000, 0.000, 0.000, 12:53:48.269
97, -3656.77, -3804.31, -4375.90, -3632.47, 0.000, 0.000, 0.000, 12:53:48.269
98, -3251.41, -3345.97, -4026.39, -3271.39, 0.000, 0.000, 0.000, 12:53:48.270
99, -2851.81, -2874.18, -3664.58, -2890.44, 0.000, 0.000, 0.000, 12:53:48.283
100, -3408.95, -3534.41, -4161.58, -3395.13, 0.000, 0.000, 0.000, 12:53:48.284
101, -3636.42, -3774.30, -4360.42, -3625.37, 0.000, 0.000, 0.000, 12:53:48.284
102, -3239.22, -3371.40, -4021.55, -3265.73, 0.000, 0.000, 0.000, 12:53:48.284
103, -2836.74, -2854.21, -3660.06, -2883.81, 0.000, 0.000, 0.000, 12:53:48.299
104, -3412.14, -3542.12, -4165.44, -3395.44, 0.000, 0.000, 0.000, 12:53:48.299
105, -3653.18, -3802.86, -4383.21, -3636.91, 0.000, 0.000, 0.000, 12:53:48.313
106, -3256.33, -3297.18, -4037.20, -3271.84, 0.000, 0.000, 0.000, 12:53:48.313
107, -2849.55, -2924.55, -3675.23, -2875.62, 0.000, 0.000, 0.000, 12:53:48.314
108, -3389.92, -3562.47, -4153.41, -3364.62, 0.000, 0.000, 0.000, 12:53:48.314
109, -3631.97, -3742.05, -4369.41, -3617.31, 0.000, 0.000, 0.000, 12:53:48.343
110, -3249.86, -3357.84, -4034.00, -3271.94, 0.000, 0.000, 0.000, 12:53:48.343
111, -2840.61, -2898.39, -3660.73, -2874.05, 0.000, 0.000, 0.000, 12:53:48.344
112, -3388.87, -3507.78, -4137.61, -3375.05, 0.000, 0.000, 0.000, 12:53:48.344
113, -3636.74, -3775.40, -4368.98, -3625.84, 0.000, 0.000, 0.000, 12:53:48.344
114, -3250.43, -3353.11, -4028.04, -3276.79, 0.000, 0.000, 0.000, 12:53:48.345
115, -2837.96, -2876.64, -3667.50, -2883.38, 0.000, 0.000, 0.000, 12:53:48.359
116, -3388.13, -3490.01, -4144.11, -3380.81, 0.000, 0.000, 0.000, 12:53:48.359
117, -3632.34, -3752.36, -4373.07, -3624.37, 0.000, 0.000, 0.000, 12:53:48.374
118, -3252.92, -3252.69, -4032.61, -3272.49, 0.000, 0.000, 0.000, 12:53:48.374
119, -2845.06, -2861.37, -3672.12, -2880.08, 0.000, 0.000, 0.000, 12:53:48.374
120, -3393.72, -3441.70, -4146.70, -3371.30, 0.000, 0.000, 0.000, 12:53:48.375
121, -3639.06, -3773.06, -4379.80, -3630.47, 0.000, 0.000, 0.000, 12:53:48.389
122, -3261.24, -3312.46, -4044.50, -3280.60, 0.000, 0.000, 0.000, 12:53:48.389
123, -2845.49, -2949.59, -3677.42, -2888.07, 0.000, 0.000, 0.000, 12:53:48.418
124, -3386.51, -3474.89, -4150.71, -3376.85, 0.000, 0.000, 0.000, 12:53:48.418
125, -3648.75, -3869.86, -4379.48, -3633.33, 0.000, 0.000, 0.000, 12:53:48.419
126, -3263.95, -3449.23, -4035.39, -3283.47, 0.000, 0.000, 0.000, 12:53:48.419
127, -2844.79, -2936.42, -3670.97, -2884.88, 0.000, 0.000, 0.000, 12:53:48.420
128, -3391.05, -3492.91, -4146.46, -3376.00, 0.000, 0.000, 0.000, 12:53:48.420
129, -3650.62, -3802.95, -4372.32, -3633.87, 0.000, 0.000, 0.000, 12:53:48.433
130, -3258.16, -3350.15, -4038.43, -3285.15, 0.000, 0.000, 0.000, 12:53:48.433
131, -2828.32, -2912.43, -3658.75, -2889.11, 0.000, 0.000, 0.000, 12:53:48.434
132, -3385.83, -3573.25, -4147.21, -3377.60, 0.000, 0.000, 0.000, 12:53:48.434
133, -3644.92, -3742.49, -4370.45, -3638.56, 0.000, 0.000, 0.000, 12:53:48.449
134, -3262.95, -3363.36, -4041.12, -3287.33, 0.000, 0.000, 0.000, 12:53:48.449
135, -2844.95, -2899.29, -3662.17, -2885.33, 0.000, 0.000, 0.000, 12:53:48.464
136, -3391.00, -3548.26, -4142.17, -3368.01, 0.000, 0.000, 0.000, 12:53:48.464
137, -3651.97, -3786.53, -4391.87, -3643.80, 0.000, 0.000, 0.000, 12:53:48.464
138, -3255.01, -3354.16, -4047.61, -3285.93, 0.000, 0.000, 0.000, 12:53:48.465
139, -2827.82, -2816.12, -3668.74, -2882.57, 0.000, 0.000, 0.000, 12:53:48.494
140, -3376.50, -3524.29, -4133.55, -3367.69, 0.000, 0.000, 0.000, 12:53:48.494
141, -3647.52, -3791.38, -4373.93, -3645.79, 0.000, 0.000, 0.000, 12:53:48.494
142, -3259.78, -3395.25, -4038.67, -3286.48, 0.000, 0.000, 0.000, 12:53:48.494
143, -2831.25, -2913.91, -3658.02, -2878.22, 0.000, 0.000, 0.000, 12:53:48.495
144, -3373.51, -3491.25, -4127.76, -3364.44, 0.000, 0.000, 0.000, 12:53:48.495
145, -3649.15, -3787.01, -4371.54, -3637.59, 0.000, 0.000, 0.000, 12:53:48.508
146, -3256.01, -3255.21, -4032.85, -3279.90, 0.000, 0.000, 0.000, 12:53:48.508
147, -2831.10, -2852.38, -3657.87, -2884.63, 0.000, 0.000, 0.000, 12:53:48.523
148, -3364.51, -3460.36, -4123.68, -3357.07, 0.000, 0.000, 0.000, 12:53:48.523
149, -3636.84, -3846.18, -4375.06, -3632.30, 0.000, 0.000, 0.000, 12:53:48.523
150, -3266.65, -3362.08, -4042.04, -3290.79, 0.000, 0.000, 0.000, 12:53:48.523
151, -2857.33, -2917.20, -3686.70, -2892.38, 0.000, 0.000, 0.000, 12:53:48.538
152, -3391.68, -3507.71, -4143.61, -3379.83, 0.000, 0.000, 0.000, 12:53:48.538
153, -3637.66, -3840.56, -4358.15, -3637.71, 0.000, 0.000, 0.000, 12:53:48.554
154, -3254.31, -3313.45, -4018.03, -3284.12, 0.000, 0.000, 0.000, 12:53:48.554
155, -2836.97, -2890.17, -3644.70, -2892.74, 0.000, 0.000, 0.000, 12:53:48.554
156, -3363.60, -3401.35, -4105.23, -3372.54, 0.000, 0.000, 0.000, 12:53:48.555
157, -3643.06, -3804.86, -4347.59, -3653.03, 0.000, 0.000, 0.000, 12:53:48.569
158, -3251.18, -3319.76, -4011.08, -3308.01, 0.000, 0.000, 0.000, 12:53:48.569
159, -2824.34, -2878.59, -3626.70, -2893.64, 0.000, 0.000, 0.000, 12:53:48.584
160, -3366.39, -3423.59, -4103.14, -3375.95, 0.000, 0.000, 0.000, 12:53:48.584
161, -3640.95, -3854.31, -4355.78, -3652.12, 0.000, 0.000, 0.000, 12:53:48.584
162, -3258.77, -3315.34, -4029.77, -3303.14, 0.000, 0.000, 0.000, 12:53:48.584
163, -2838.43, -2866.86, -3651.59, -2891.76, 0.000, 0.000, 0.000, 12:53:48.599
164, -3376.31, -3537.70, -4112.96, -3371.61, 0.000, 0.000, 0.000, 12:53:48.599
165, -3655.84, -3816.05, -4371.81, -3656.40, 0.000, 0.000, 0.000, 12:53:48.613
166, -3271.74, -3381.95, -4036.44, -3302.03, 0.000, 0.000, 0.000, 12:53:48.613
167, -2841.96, -2870.98, -3658.93, -2889.88, 0.000, 0.000, 0.000, 12:53:48.614
168, -3373.96, -3513.07, -4122.79, -3361.01, 0.000, 0.000, 0.000, 12:53:48.614
169, -3666.15, -3833.22, -4382.20, -3649.01, 0.000, 0.000, 0.000, 12:53:48.628
170, -3287.15, -3343.19, -4050.14, -3309.63, 0.000, 0.000, 0.000, 12:53:48.628
171, -2848.51, -2898.26, -3669.41, -2893.51, 0.000, 0.000, 0.000, 12:53:48.643
172, -3370.90, -3546.64, -4115.54, -3352.23, 0.000, 0.000, 0.000, 12:53:48.643
173, -3651.97, -3753.07, -4381.45, -3644.94, 0.000, 0.000, 0.000, 12:53:48.651
174, -3283.47, -3366.98, -4046.31, -3303.46, 0.000, 0.000, 0.000, 12:53:48.651
175, -2844.20, -2897.47, -3661.52, -2890.21, 0.000, 0.000, 0.000, 12:53:48.658
176, -3360.19, -3461.69, -4112.66, -3350.28, 0.000, 0.000, 0.000, 12:53:48.658
177, -3652.01, -3861.19, -4371.73, -3639.07, 0.000, 0.000, 0.000, 12:53:48.673
178, -3277.42, -3365.90, -4039.21, -3298.91, 0.000, 0.000, 0.000, 12:53:48.673
179, -2851.69, -2900.44, -3661.18, -2884.10, 0.000, 0.000, 0.000, 12:53:48.673
180, -3373.16, -3460.10, -4122.83, -3358.98, 0.000, 0.000, 0.000, 12:53:48.674
181, -3655.91, -3872.34, -4377.97, -3646.90, 0.000, 0.000, 0.000, 12:53:48.691
182, -3289.15, -3368.28, -4059.47, -3313.37, 0.000, 0.000, 0.000, 12:53:48.691
183, -2848.58, -2815.67, -3673.14, -2885.94, 0.000, 0.000, 0.000, 12:53:48.706
184, -3356.90, -3481.50, -4120.57, -3344.39, 0.000, 0.000, 0.000, 12:53:48.706
185, -3653.85, -3674.57, -4378.77, -3639.21, 0.000, 0.000, 0.000, 12:53:48.707
186, -3280.85, -3306.14, -4059.80, -3304.76, 0.000, 0.000, 0.000, 12:53:48.707
187, -2855.19, -2971.82, -3674.78, -2880.77, 0.000, 0.000, 0.000, 12:53:48.719
188, -3361.37, -3559.70, -4122.55, -3348.51, 0.000, 0.000, 0.000, 12:53:48.719
189, -3669.94, -3886.97, -4391.18, -3651.84, 0.000, 0.000, 0.000, 12:53:48.733
190, -3279.72, -3385.49, -4058.05, -3312.48, 0.000, 0.000, 0.000, 12:53:48.734
191, -2844.27, -2921.53, -3671.60, -2889.04, 0.000, 0.000, 0.000, 12:53:48.734
192, -3353.32, -3539.80, -4112.87, -3349.46, 0.000, 0.000, 0.000, 12:53:48.734
193, -3659.64, -3873.99, -4389.55, -3653.87, 0.000, 0.000, 0.000, 12:53:48.749
194, -3296.81, -3419.42, -4074.46, -3316.07, 0.000, 0.000, 0.000, 12:53:48.749
195, -2862.08, -2897.43, -3689.21, -2901.06, 0.000, 0.000, 0.000, 12:53:48.778
196, -3371.72, -3486.03, -4137.11, -3366.97, 0.000, 0.000, 0.000, 12:53:48.778
197, -3681.92, -3764.75, -4399.73, -3662.73, 0.000, 0.000, 0.000, 12:53:48.779
198, -3291.43, -3375.41, -4061.99, -3310.34, 0.000, 0.000, 0.000, 12:53:48.779
199, -2858.98, -2900.52, -3674.54, -2891.08, 0.000, 0.000, 0.000, 12:53:48.779
200, -3375.07, -3382.15, -4115.60, -3344.20, 0.000, 0.000, 0.000, 12:53:48.780
0, -3672.82, -3699.71, -4380.09, -3644.10, 0.000, 0.000, 0.000, 12:53:48.780
1, -3323.40, -3418.59, -4068.71, -3313.35, 0.000, 0.000, 0.000, 12:53:48.793
2, -2864.89, -2929.77, -3669.36, -2885.06, 0.000, 0.000, 0.000, 12:53:48.793
3, -3368.41, -3406.99, -4105.07, -3337.22, 0.000, 0.000, 0.000, 12:53:48.823
4, -3673.39, -3795.53, -4380.64, -3648.24, 0.000, 0.000, 0.000, 12:53:48.823
5, -3306.30, -3318.22, -4057.50, -3307.92, 0.000, 0.000, 0.000, 12:53:48.824
6, -2860.21, -2916.35, -3662.99, -2887.65, 0.000, 0.000, 0.000, 12:53:48.824
7, -3357.28, -3466.14, -4100.97, -3334.58, 0.000, 0.000, 0.000, 12:53:48.825
8, -3671.01, -3825.34, -4383.95, -3655.34, 0.000, 0.000, 0.000, 12:53:48.825
9, -3304.34, -3470.00, -4066.88, -3311.19, 0.000, 0.000, 0.000, 12:53:48.839
10, -2841.57, -2939.70, -3659.23, -2883.49, 0.000, 0.000, 0.000, 12:53:48.839
11, -3342.88, -3498.24, -4091.06, -3331.78, 0.000, 0.000, 0.000, 12:53:48.839
12, -3661.89, -3783.62, -4379.34, -3647.95, 0.000, 0.000, 0.000, 12:53:48.839
13, -3299.97, -3328.15, -4060.51, -3319.55, 0.000, 0.000, 0.000, 12:53:48.854
14, -2847.67, -2884.91, -3666.69, -2885.57, 0.000, 0.000, 0.000, 12:53:48.854
15, -3351.85, -3466.39, -4094.96, -3325.79, 0.000, 0.000, 0.000, 12:53:48.869
16, -3672.76, -3872.95, -4382.56, -3653.27, 0.000, 0.000, 0.000, 12:53:48.869
17, -3306.60, -3457.05, -4067.61, -3311.44, 0.000, 0.000, 0.000, 12:53:48.869
18, -2836.92, -2908.29, -3662.19, -2878.14, 0.000, 0.000, 0.000, 12:53:48.869
19, -3323.98, -3401.12, -4085.82, -3314.42, 0.000, 0.000, 0.000, 12:53:48.898
20, -3662.65, -3712.62, -4385.75, -3646.10, 0.000, 0.000, 0.000, 12:53:48.899
21, -3294.69, -3389.15, -4067.28, -3315.67, 0.000, 0.000, 0.000, 12:53:48.899
22, -2840.38, -2883.56, -3664.14, -2875.52, 0.000, 0.000, 0.000, 12:53:48.899
23, -3332.72, -3381.51, -4084.60, -3318.43, 0.000, 0.000, 0.000, 12:53:48.900
24, -3653.85, -3781.44, -4381.95, -3650.69, 0.000, 0.000, 0.000, 12:53:48.900
25, -3288.34, -3404.28, -4060.55, -3318.39, 0.000, 0.000, 0.000, 12:53:48.913
26, -2838.68, -2892.43, -3656.37, -2875.21, 0.000, 0.000, 0.000, 12:53:48.913
27, -3322.26, -3420.50, -4078.61, -3312.92, 0.000, 0.000, 0.000, 12:53:48.929
28, -3657.18, -3767.12, -4382.06, -3643.98, 0.000, 0.000, 0.000, 12:53:48.929
29, -3301.38, -3296.59, -4065.95, -3322.70, 0.000, 0.000, 0.000, 12:53:48.929
30, -2839.49, -2858.15, -3666.18, -2885.39, 0.000, 0.000, 0.000, 12:53:48.929
31, -3320.88, -3452.41, -4081.85, -3313.41, 0.000, 0.000, 0.000, 12:53:48.943
32, -3663.96, -3760.92, -4384.15, -3644.64, 0.000, 0.000, 0.000, 12:53:48.943
33, -3304.49, -3481.76, -4069.16, -3315.42, 0.000, 0.000, 0.000, 12:53:48.959
34, -2840.93, -2830.78, -3666.62, -2882.10, 0.000, 0.000, 0.000, 12:53:48.959
35, -3314.49, -3466.97, -4081.75, -3309.34, 0.000, 0.000, 0.000, 12:53:48.959
36, -3660.19, -3696.46, -4387.01, -3648.19, 0.000, 0.000, 0.000, 12:53:48.959
37, -3300.32, -3452.62, -4067.50, -3319.71, 0.000, 0.000, 0.000, 12:53:48.974
38, -2844.78, -2943.68, -3675.55, -2891.87, 0.000, 0.000, 0.000, 12:53:48.974
39, -3318.66, -3431.71, -4085.63, -3310.15, 0.000, 0.000, 0.000, 12:53:48.988
40, -3660.11, -3826.14, -4384.72, -3650.22, 0.000, 0.000, 0.000, 12:53:48.988
41, -3306.01, -3429.90, -4080.40, -3326.62, 0.000, 0.000, 0.000, 12:53:48.988
42, -2822.89, -2887.76, -3654.23, -2876.54, 0.000, 0.000, 0.000, 12:53:48.989
43, -3298.78, -3434.14, -4069.95, -3300.56, 0.000, 0.000, 0.000, 12:53:49.004
44, -3648.52, -3894.00, -4388.72, -3652.11, 0.000, 0.000, 0.000, 12:53:49.004
45, -3301.20, -3420.96, -4074.66, -3325.28, 0.000, 0.000, 0.000, 12:53:49.018
46, -2837.64, -2859.09, -3662.32, -2886.72, 0.000, 0.000, 0.000, 12:53:49.018
47, -3311.40, -3404.50, -4083.52, -3303.77, 0.000, 0.000, 0.000, 12:53:49.019
48, -3664.50, -3858.81, -4387.92, -3654.28, 0.000, 0.000, 0.000, 12:53:49.019
49, -3314.47, -3369.36, -4078.54, -3330.90, 0.000, 0.000, 0.000, 12:53:49.034
50, -2842.29, -2825.78, -3664.26, -2882.82, 0.000, 0.000, 0.000, 12:53:49.034
51, -3316.66, -3389.97, -4081.31, -3305.78, 0.000, 0.000, 0.000, 12:53:49.049
52, -3673.04, -3883.85, -4398.64, -3661.71, 0.000, 0.000, 0.000, 12:53:49.049
53, -3319.96, -3345.54, -4087.34, -3335.15, 0.000, 0.000, 0.000, 12:53:49.049
54, -2843.54, -2959.93, -3667.66, -2887.99, 0.000, 0.000, 0.000, 12:53:49.049
55, -3320.47, -3428.95, -4072.41, -3304.50, 0.000, 0.000, 0.000, 12:53:49.063
56, -3674.19, -3825.72, -4399.18, -3656.78, 0.000, 0.000, 0.000, 12:53:49.064
57, -3320.38, -3462.35, -4085.28, -3338.77, 0.000, 0.000, 0.000, 12:53:49.078
58, -2827.95, -2834.73, -3669.37, -2890.20, 0.000, 0.000, 0.000, 12:53:49.079
59, -3305.76, -3413.46, -4071.67, -3301.51, 0.000, 0.000, 0.000, 12:53:49.079
60, -3681.14, -3827.00, -4398.72, -3658.21, 0.000, 0.000, 0.000, 12:53:49.079
61, -3326.92, -3421.74, -4097.43, -3342.72, 0.000, 0.000, 0.000, 12:53:49.093
62, -2851.04, -2857.61, -3676.43, -2896.87, 0.000, 0.000, 0.000, 12:53:49.094
63, -3319.62, -3500.50, -4081.26, -3304.26, 0.000, 0.000, 0.000, 12:53:49.109
64, -3688.34, -3825.24, -4408.10, -3672.26, 0.000, 0.000, 0.000, 12:53:49.109
65, -3328.69, -3479.83, -4098.85, -3346.53, 0.000, 0.000, 0.000, 12:53:49.116
66, -2853.96, -2852.16, -3675.24, -2895.60, 0.000, 0.000, 0.000, 12:53:49.116
67, -3320.60, -3419.38, -4075.76, -3300.81, 0.000, 0.000, 0.000, 12:53:49.123
68, -3680.74, -3854.39, -4400.62, -3669.59, 0.000, 0.000, 0.000, 12:53:49.123
69, -3333.04, -3437.93, -4105.61, -3347.85, 0.000, 0.000, 0.000, 12:53:49.138
70, -2852.99, -2891.83, -3674.51, -2892.84, 0.000, 0.000, 0.000, 12:53:49.138
71, -3305.42, -3415.09, -4070.16, -3301.24, 0.000, 0.000, 0.000, 12:53:49.139
72, -3663.21, -3801.17, -4397.18, -3663.25, 0.000, 0.000, 0.000, 12:53:49.139
73, -3325.83, -3418.60, -4098.26, -3345.56, 0.000, 0.000, 0.000, 12:53:49.153
74, -2841.97, -2958.89, -3668.66, -2891.37, 0.000, 0.000, 0.000, 12:53:49.153
75, -3294.70, -3336.66, -4063.49, -3288.77, 0.000, 0.000, 0.000, 12:53:49.168
76, -3675.03, -3751.57, -4397.79, -3663.49, 0.000, 0.000, 0.000, 12:53:49.169
77, -3323.05, -3460.70, -4092.88, -3347.99, 0.000, 0.000, 0.000, 12:53:49.169
78, -2844.07, -2902.47, -3666.62, -2879.07, 0.000, 0.000, 0.000, 12:53:49.169
79, -3290.21, -3292.02, -4059.29, -3289.63, 0.000, 0.000, 0.000, 12:53:49.183
80, -3673.80, -3737.02, -4394.64, -3664.90, 0.000, 0.000, 0.000, 12:53:49.183
81, -3322.19, -3509.76, -4090.64, -3352.20, 0.000, 0.000, 0.000, 12:53:49.198
82, -2841.22, -2944.20, -3670.99, -2887.94, 0.000, 0.000, 0.000, 12:53:49.198
83, -3278.26, -3421.01, -4046.10, -3281.23, 0.000, 0.000, 0.000, 12:53:49.199
84, -3673.84, -3815.09, -4395.12, -3657.75, 0.000, 0.000, 0.000, 12:53:49.199
85, -3324.49, -3349.80, -4097.76, -3335.73, 0.000, 0.000, 0.000, 12:53:49.213
86, -2846.24, -2938.61, -3668.68, -2888.89, 0.000, 0.000, 0.000, 12:53:49.213
87, -3277.18, -3369.57, -4038.68, -3275.84, 0.000, 0.000, 0.000, 12:53:49.229
88, -3661.81, -3850.08, -4394.85, -3664.13, 0.000, 0.000, 0.000, 12:53:49.229
89, -3315.83, -3389.96, -4095.33, -3346.04, 0.000, 0.000, 0.000, 12:53:49.229
90, -2807.40, -2878.44, -3652.05, -2902.93, 0.000, 0.000, 0.000, 12:53:49.229
91, -3234.55, -3445.14, -4036.93, -3288.39, 0.000, 0.000, 0.000, 12:53:49.259
92, -3597.33, -3863.62, -4382.07, -3659.19, 0.000, 0.000, 0.000, 12:53:49.259
93, -3249.40, -3459.81, -4093.01, -3347.72, 0.000, 0.000, 0.000, 12:53:49.259
94, -2739.48, -2934.21, -3650.76, -2889.56, 0.000, 0.000, 0.000, 12:53:49.259
95, -3175.80, -3423.14, -4043.67, -3283.27, 0.000, 0.000, 0.000, 12:53:49.260
96, -3571.43, -3759.39, -4386.75, -3659.95, 0.000, 0.000, 0.000, 12:53:49.260
97, -3230.11, -3473.63, -4093.49, -3349.23, 0.000, 0.000, 0.000, 12:53:49.273
98, -2745.13, -3010.44, -3668.74, -2892.53, 0.000, 0.000, 0.000, 12:53:49.273
99, -3192.36, -3424.42, -4048.35, -3276.95, 0.000, 0.000, 0.000, 12:53:49.289
100, -3587.55, -3876.26, -4405.20, -3664.96, 0.000, 0.000, 0.000, 12:53:49.289
101, -3260.20, -3565.18, -4102.69, -3357.40, 0.000, 0.000, 0.000, 12:53:49.289
102, -2787.48, -3024.88, -3678.56, -2897.63, 0.000, 0.000, 0.000, 12:53:49.289
103, -3217.15, -3381.41, -4047.17, -3279.80, 0.000, 0.000, 0.000, 12:53:49.304
104, -3622.39, -3810.73, -4392.42, -3672.75, 0.000, 0.000, 0.000, 12:53:49.304
105, -3296.72, -3521.35, -4111.46, -3369.94, 0.000, 0.000, 0.000, 12:53:49.335
106, -2813.88, -2891.79, -3668.56, -2895.32, 0.000, 0.000, 0.000, 12:53:49.335
107, -3252.89, -3467.22, -4039.30, -3281.05, 0.000, 0.000, 0.000, 12:53:49.335
108, -3660.05, -3902.45, -4389.86, -3674.87, 0.000, 0.000, 0.000, 12:53:49.335
109, -3332.93, -3381.31, -4103.27, -3364.25, 0.000, 0.000, 0.000, 12:53:49.335
110, -2851.30, -2822.26, -3672.94, -2911.18, 0.000, 0.000, 0.000, 12:53:49.335
111, -3285.74, -3310.25, -4041.16, -3271.16, 0.000, 0.000, 0.000, 12:53:49.348
112, -3699.46, -3891.60, -4405.30, -3674.58, 0.000, 0.000, 0.000, 12:53:49.348
113, -3354.10, -3424.31, -4098.78, -3369.34, 0.000, 0.000, 0.000, 12:53:49.349
114, -2868.77, -2950.83, -3675.26, -2901.62, 0.000, 0.000, 0.000, 12:53:49.349
115, -3288.48, -3438.87, -4028.06, -3259.63, 0.000, 0.000, 0.000, 12:53:49.378
116, -3717.62, -3779.38, -4410.48, -3669.63, 0.000, 0.000, 0.000, 12:53:49.378
117, -3374.64, -3471.92, -4114.14, -3359.22, 0.000, 0.000, 0.000, 12:53:49.379
118, -2868.70, -2899.07, -3664.52, -2884.94, 0.000, 0.000, 0.000, 12:53:49.379
119, -3297.95, -3433.50, -4045.19, -3262.73, 0.000, 0.000, 0.000, 12:53:49.380
120, -3699.55, -3870.71, -4398.54, -3667.50, 0.000, 0.000, 0.000, 12:53:49.380
121, -3372.58, -3510.06, -4117.62, -3366.65, 0.000, 0.000, 0.000, 12:53:49.393
122, -2881.37, -2942.40, -3679.47, -2890.60, 0.000, 0.000, 0.000, 12:53:49.393
123, -3285.85, -3389.57, -4035.51, -3261.92, 0.000, 0.000, 0.000, 12:53:49.408
124, -3702.79, -3804.39, -4401.38, -3671.28, 0.000, 0.000, 0.000, 12:53:49.408
125, -3367.44, -3344.14, -4103.80, -3367.55, 0.000, 0.000, 0.000, 12:53:49.416
126, -2873.37, -2925.54, -3676.92, -2900.04, 0.000, 0.000, 0.000, 12:53:49.416
127, -3282.91, -3337.43, -4026.39, -3257.09, 0.000, 0.000, 0.000, 12:53:49.424
128, -3708.83, -3860.95, -4405.88, -3664.93, 0.000, 0.000, 0.000, 12:53:49.424
129, -3374.42, -3459.47, -4114.47, -3361.36, 0.000, 0.000, 0.000, 12:53:49.454
130, -2874.97, -2917.86, -3676.25, -2897.04, 0.000, 0.000, 0.000, 12:53:49.454
131, -3278.18, -3353.31, -4022.84, -3252.72, 0.000, 0.000, 0.000, 12:53:49.455
132, -3698.68, -3744.78, -4405.61, -3663.14, 0.000, 0.000, 0.000, 12:53:49.455
133, -3362.71, -3393.57, -4115.70, -3372.99, 0.000, 0.000, 0.000, 12:53:49.456
134, -2871.17, -2929.95, -3672.74, -2903.56, 0.000, 0.000, 0.000, 12:53:49.456
135, -3267.06, -3399.58, -4029.16, -3250.12, 0.000, 0.000, 0.000, 12:53:49.468
136, -3703.58, -3868.19, -4407.59, -3669.07, 0.000, 0.000, 0.000, 12:53:49.468
137, -3362.64, -3349.33, -4119.63, -3365.30, 0.000, 0.000, 0.000, 12:53:49.469
138, -2864.80, -2827.60, -3676.68, -2890.86, 0.000, 0.000, 0.000, 12:53:49.469
139, -3269.51, -3402.24, -4026.72, -3254.29, 0.000, 0.000, 0.000, 12:53:49.483
140, -3696.35, -3859.61, -4403.29, -3677.45, 0.000, 0.000, 0.000, 12:53:49.483
141, -3364.08, -3500.08, -4113.36, -3375.13, 0.000, 0.000, 0.000, 12:53:49.499
142, -2858.55, -2895.40, -3672.50, -2894.33, 0.000, 0.000, 0.000, 12:53:49.499
143, -3246.46, -3276.47, -4006.56, -3233.38, 0.000, 0.000, 0.000, 12:53:49.499
144, -3689.20, -3840.51, -4391.38, -3656.33, 0.000, 0.000, 0.000, 12:53:49.500
145, -3357.65, -3495.13, -4116.97, -3373.53, 0.000, 0.000, 0.000, 12:53:49.529
146, -2863.75, -2863.27, -3676.09, -2896.86, 0.000, 0.000, 0.000, 12:53:49.529
147, -3250.46, -3347.00, -4013.75, -3242.25, 0.000, 0.000, 0.000, 12:53:49.529
148, -3690.94, -3740.61, -4409.06, -3661.59, 0.000, 0.000, 0.000, 12:53:49.529
149, -3361.26, -3406.00, -4125.41, -3360.29, 0.000, 0.000, 0.000, 12:53:49.530
150, -2848.61, -2940.78, -3675.63, -2889.17, 0.000, 0.000, 0.000, 12:53:49.530
151, -3246.58, -3385.35, -4012.28, -3230.23, 0.000, 0.000, 0.000, 12:53:49.543
152, -3683.49, -3835.68, -4390.74, -3655.04, 0.000, 0.000, 0.000, 12:53:49.543
153, -3351.17, -3515.00, -4111.39, -3368.52, 0.000, 0.000, 0.000, 12:53:49.559
154, -2852.07, -2867.28, -3670.38, -2887.29, 0.000, 0.000, 0.000, 12:53:49.559
155, -3239.75, -3344.14, -4003.26, -3227.11, 0.000, 0.000, 0.000, 12:53:49.559
156, -3690.57, -3809.74, -4410.17, -3669.68, 0.000, 0.000, 0.000, 12:53:49.559
157, -3368.02, -3435.00, -4122.35, -3373.41, 0.000, 0.000, 0.000, 12:53:49.574
158, -2855.97, -2801.61, -3676.42, -2897.37, 0.000, 0.000, 0.000, 12:53:49.574
159, -3233.62, -3359.79, -4003.84, -3232.69, 0.000, 0.000, 0.000, 12:53:49.604
160, -3679.87, -3805.97, -4401.56, -3669.63, 0.000, 0.000, 0.000, 12:53:49.604
161, -3366.25, -3462.37, -4127.91, -3375.51, 0.000, 0.000, 0.000, 12:53:49.604
162, -2856.87, -2933.65, -3676.50, -2894.35, 0.000, 0.000, 0.000, 12:53:49.604
163, -3238.01, -3389.65, -3998.06, -3224.36, 0.000, 0.000, 0.000, 12:53:49.606
164, -3683.13, -3813.13, -4394.67, -3658.65, 0.000, 0.000, 0.000, 12:53:49.606
165, -3366.55, -3525.09, -4119.94, -3374.63, 0.000, 0.000, 0.000, 12:53:49.619
166, -2861.79, -2958.25, -3675.29, -2892.16, 0.000, 0.000, 0.000, 12:53:49.619
167, -3235.02, -3376.38, -4000.32, -3221.70, 0.000, 0.000, 0.000, 12:53:49.620
168, -3679.61, -3732.96, -4400.91, -3668.68, 0.000, 0.000, 0.000, 12:53:49.620
169, -3364.01, -3462.26, -4125.24, -3376.14, 0.000, 0.000, 0.000, 12:53:49.633
170, -2859.59, -2915.73, -3680.40, -2893.19, 0.000, 0.000, 0.000, 12:53:49.633
171, -3236.92, -3356.29, -4001.34, -3219.72, 0.000, 0.000, 0.000, 12:53:49.649
172, -3685.38, -3861.21, -4404.64, -3663.24, 0.000, 0.000, 0.000, 12:53:49.649
173, -3369.73, -3440.89, -4123.97, -3381.44, 0.000, 0.000, 0.000, 12:53:49.650
174, -2861.03, -2888.89, -3674.89, -2894.90, 0.000, 0.000, 0.000, 12:53:49.650
175, -3219.52, -3320.41, -3990.71, -3224.80, 0.000, 0.000, 0.000, 12:53:49.664
176, -3680.66, -3770.98, -4401.74, -3673.82, 0.000, 0.000, 0.000, 12:53:49.664
177, -3368.86, -3460.25, -4124.62, -3378.42, 0.000, 0.000, 0.000, 12:53:49.678
178, -2855.07, -2871.62, -3675.61, -2898.90, 0.000, 0.000, 0.000, 12:53:49.678
179, -3226.03, -3367.42, -3995.05, -3216.46, 0.000, 0.000, 0.000, 12:53:49.679
180, -3693.77, -3807.53, -4405.54, -3668.41, 0.000, 0.000, 0.000, 12:53:49.679
181, -3365.42, -3438.45, -4127.93, -3375.88, 0.000, 0.000, 0.000, 12:53:49.693
182, -2858.35, -2885.15, -3676.72, -2897.14, 0.000, 0.000, 0.000, 12:53:49.693
183, -3216.83, -3273.88, -3991.46, -3209.33, 0.000, 0.000, 0.000, 12:53:49.708
184, -3678.78, -3810.77, -4409.54, -3666.78, 0.000, 0.000, 0.000, 12:53:49.708
185, -3363.34, -3504.51, -4126.38, -3384.09, 0.000, 0.000, 0.000, 12:53:49.709
186, -2853.90, -2939.70, -3675.47, -2903.33, 0.000, 0.000, 0.000, 12:53:49.709
187, -3211.94, -3325.14, -3987.94, -3206.27, 0.000, 0.000, 0.000, 12:53:49.738
188, -3686.71, -3843.39, -4409.27, -3667.10, 0.000, 0.000, 0.000, 12:53:49.738
189, -3360.52, -3435.43, -4131.70, -3382.64, 0.000, 0.000, 0.000, 12:53:49.738
190, -2861.14, -2879.09, -3680.77, -2906.48, 0.000, 0.000, 0.000, 12:53:49.738
191, -3209.55, -3212.27, -3982.92, -3213.89, 0.000, 0.000, 0.000, 12:53:49.739
192, -3684.99, -3818.49, -4411.53, -3671.53, 0.000, 0.000, 0.000, 12:53:49.739
193, -3372.04, -3521.10, -4139.43, -3400.90, 0.000, 0.000, 0.000, 12:53:49.754
194, -2865.31, -2910.48, -3696.41, -2916.81, 0.000, 0.000, 0.000, 12:53:49.754
195, -3213.42, -3327.37, -3987.34, -3217.98, 0.000, 0.000, 0.000, 12:53:49.768
196, -3691.68, -3823.18, -4408.22, -3670.83, 0.000, 0.000, 0.000, 12:53:49.769
197, -3384.87, -3516.90, -4135.27, -3393.98, 0.000, 0.000, 0.000, 12:53:49.769
198, -2856.01, -2922.77, -3680.84, -2906.55, 0.000, 0.000, 0.000, 12:53:49.769
199, -3208.87, -3295.73, -3984.81, -3202.85, 0.000, 0.000, 0.000, 12:53:49.785
200, -3690.70, -3866.92, -4406.83, -3658.66, 0.000, 0.000, 0.000, 12:53:49.785
0, -3381.82, -3456.97, -4138.37, -3389.50, 0.000, 0.000, 0.000, 12:53:49.786
1, -2860.42, -2940.28, -3678.75, -2908.94, 0.000, 0.000, 0.000, 12:53:49.813
2, -3202.40, -3298.52, -3978.57, -3206.84, 0.000, 0.000, 0.000, 12:53:49.813
3, -3688.96, -3884.76, -4399.53, -3667.00, 0.000, 0.000, 0.000, 12:53:49.814
4, -3380.93, -3548.62, -4133.03, -3387.88, 0.000, 0.000, 0.000, 12:53:49.814
5, -2866.75, -2849.70, -3685.31, -2912.49, 0.000, 0.000, 0.000, 12:53:49.815
6, -3205.41, -3285.03, -3981.01, -3194.92, 0.000, 0.000, 0.000, 12:53:49.815
7, -3689.07, -3892.95, -4402.58, -3666.81, 0.000, 0.000, 0.000, 12:53:49.828
8, -3379.30, -3406.82, -4132.78, -3390.91, 0.000, 0.000, 0.000, 12:53:49.828
9, -2868.30, -2866.18, -3680.99, -2902.80, 0.000, 0.000, 0.000, 12:53:49.843
10, -3198.62, -3300.19, -3969.67, -3202.28, 0.000, 0.000, 0.000, 12:53:49.843
11, -3699.77, -3871.79, -4405.96, -3667.22, 0.000, 0.000, 0.000, 12:53:49.843
12, -3374.07, -3532.17, -4137.75, -3393.37, 0.000, 0.000, 0.000, 12:53:49.843
13, -2857.05, -2957.47, -3678.61, -2907.56, 0.000, 0.000, 0.000, 12:53:49.859
14, -3196.85, -3344.14, -3971.37, -3196.91, 0.000, 0.000, 0.000, 12:53:49.859
15, -3687.31, -3895.81, -4407.09, -3670.06, 0.000, 0.000, 0.000, 12:53:49.888
16, -3388.56, -3482.50, -4143.54, -3411.76, 0.000, 0.000, 0.000, 12:53:49.888
17, -2863.42, -2905.20, -3679.19, -2906.65, 0.000, 0.000, 0.000, 12:53:49.889
18, -3192.47, -3266.19, -3964.05, -3211.68, 0.000, 0.000, 0.000, 12:53:49.889
19, -3688.45, -3841.37, -4403.54, -3673.15, 0.000, 0.000, 0.000, 12:53:49.904
20, -3392.15, -3481.15, -4154.83, -3409.37, 0.000, 0.000, 0.000, 12:53:49.904
21, -2872.53, -2845.55, -3691.40, -2931.78, 0.000, 0.000, 0.000, 12:53:49.905
22, -3188.30, -3318.53, -3971.04, -3190.72, 0.000, 0.000, 0.000, 12:53:49.905
23, -3692.95, -3886.53, -4416.21, -3638.38, 0.000, 0.000, 0.000, 12:53:49.911
24, -3385.54, -3468.98, -4148.58, -3402.95, 0.000, 0.000, 0.000, 12:53:49.911
25, -2848.09, -2953.17, -3683.03, -2975.87, 0.000, 0.000, 0.000, 12:53:49.933
26, -3175.91, -3279.35, -3957.43, -3144.90, 0.000, 0.000, 0.000, 12:53:49.933
27, -3667.93, -3829.04, -4402.29, -3595.50, 0.000, 0.000, 0.000, 12:53:49.934
28, -3368.14, -3389.34, -4135.10, -3414.81, 0.000, 0.000, 0.000, 12:53:49.934
29, -2839.02, -2925.72, -3671.51, -3044.21, 0.000, 0.000, 0.000, 12:53:49.934
30, -3141.85, -3226.74, -3938.56, -3242.70, 0.000, 0.000, 0.000, 12:53:49.934
31, -3674.97, -3854.20, -4419.48, -3704.59, 0.000, 0.000, 0.000, 12:53:49.949
32, -3361.34, -3477.72, -4150.33, -3439.40, 0.000, 0.000, 0.000, 12:53:49.949
33, -2865.77, -2923.40, -3692.61, -2995.90, 0.000, 0.000, 0.000, 12:53:49.964
34, -3131.05, -3298.06, -3946.04, -3142.93, 0.000, 0.000, 0.000, 12:53:49.964
35, -3656.17, -3734.96, -4402.84, -3700.44, 0.000, 0.000, 0.000, 12:53:49.964
36, -3330.68, -3516.19, -4137.77, -3341.28, 0.000, 0.000, 0.000, 12:53:49.964
37, -2806.46, -2918.25, -3678.18, -2982.00, 0.000, 0.000, 0.000, 12:53:49.978
38, -3130.25, -3261.69, -3936.86, -3127.98, 0.000, 0.000, 0.000, 12:53:49.978
39, -3634.60, -3761.95, -4381.03, -3541.98, 0.000, 0.000, 0.000, 12:53:50.009
40, -3335.57, -3534.74, -4147.97, -3372.76, 0.000, 0.000, 0.000, 12:53:50.009
41, -2842.33, -2960.89, -3702.91, -2877.44, 0.000, 0.000, 0.000, 12:53:50.009
42, -3131.94, -3347.58, -3948.07, -3056.93, 0.000, 0.000, 0.000, 12:53:50.009
43, -3645.33, -3854.93, -4401.88, -3576.97, 0.000, 0.000, 0.000, 12:53:50.010
44, -3345.84, -3485.30, -4142.07, -3289.74, 0.000, 0.000, 0.000, 12:53:50.010
45, -2855.39, -2972.31, -3693.38, -2844.28, 0.000, 0.000, 0.000, 12:53:50.023
46, -3151.64, -3373.27, -3949.83, -3062.99, 0.000, 0.000, 0.000, 12:53:50.023
47, -3650.90, -3797.70, -4401.02, -3536.93, 0.000, 0.000, 0.000, 12:53:50.024
48, -3375.99, -3600.83, -4156.48, -3261.05, 0.000, 0.000, 0.000, 12:53:50.024
49, -2883.27, -3056.52, -3698.54, -2852.25, 0.000, 0.000, 0.000, 12:53:50.038
50, -3171.83, -3203.99, -3944.21, -3101.85, 0.000, 0.000, 0.000, 12:53:50.038
51, -3648.80, -3846.74, -4395.04, -3550.93, 0.000, 0.000, 0.000, 12:53:50.054
52, -3392.96, -3506.43, -4158.19, -3359.58, 0.000, 0.000, 0.000, 12:53:50.054
53, -2894.14, -3014.79, -3712.67, -2892.64, 0.000, 0.000, 0.000, 12:53:50.055
54, -3170.64, -3368.00, -3947.38, -3133.62, 0.000, 0.000, 0.000, 12:53:50.056
55, -3684.83, -3927.58, -4399.38, -3634.31, 0.000, 0.000, 0.000, 12:53:50.069
56, -3399.59, -3581.55, -4149.70, -3384.70, 0.000, 0.000, 0.000, 12:53:50.069
57, -2882.14, -2883.26, -3699.98, -2936.35, 0.000, 0.000, 0.000, 12:53:50.084
58, -3161.05, -3314.13, -3940.59, -3197.39, 0.000, 0.000, 0.000, 12:53:50.084
59, -3694.55, -3799.16, -4408.14, -3655.47, 0.000, 0.000, 0.000, 12:53:50.085
60, -3435.52, -3583.75, -4179.22, -3424.50, 0.000, 0.000, 0.000, 12:53:50.085
61, -2895.79, -2981.88, -3702.76, -2927.88, 0.000, 0.000, 0.000, 12:53:50.099
62, -3175.94, -3305.48, -3947.71, -3149.06, 0.000, 0.000, 0.000, 12:53:50.099
63, -3701.25, -3888.61, -4394.96, -3705.78, 0.000, 0.000, 0.000, 12:53:50.114
64, -3448.92, -3549.97, -4169.93, -3457.95, 0.000, 0.000, 0.000, 12:53:50.114
65, -2867.41, -2910.18, -3699.60, -3031.00, 0.000, 0.000, 0.000, 12:53:50.114
66, -3158.20, -3284.76, -3940.50, -3146.78, 0.000, 0.000, 0.000, 12:53:50.115
67, -3709.60, -3749.84, -4409.32, -3662.25, 0.000, 0.000, 0.000, 12:53:50.129
68, -3444.29, -3564.32, -4176.31, -3450.51, 0.000, 0.000, 0.000, 12:53:50.129
69, -2894.88, -2985.27, -3708.35, -2944.26, 0.000, 0.000, 0.000, 12:53:50.158
70, -3160.79, -3181.81, -3944.26, -3177.30, 0.000, 0.000, 0.000, 12:53:50.159
71, -3709.48, -3898.92, -4412.55, -3678.17, 0.000, 0.000, 0.000, 12:53:50.159
72, -3411.45, -3437.90, -4162.50, -3422.76, 0.000, 0.000, 0.000, 12:53:50.159
73, -2879.38, -2858.82, -3690.32, -2900.71, 0.000, 0.000, 0.000, 12:53:50.160
74, -3161.94, -3293.61, -3934.74, -3214.25, 0.000, 0.000, 0.000, 12:53:50.160
75, -3716.08, -3871.24, -4416.35, -3769.27, 0.000, 0.000, 0.000, 12:53:50.173
76, -3425.46, -3489.16, -4175.34, -3397.80, 0.000, 0.000, 0.000, 12:53:50.173
77, -2876.72, -3012.89, -3698.68, -2926.29, 0.000, 0.000, 0.000, 12:53:50.180
78, -3159.43, -3170.44, -3932.78, -3155.51, 0.000, 0.000, 0.000, 12:53:50.181
79, -3695.87, -3852.82, -4403.54, -3660.10, 0.000, 0.000, 0.000, 12:53:50.188
80, -3418.81, -3564.08, -4164.11, -3413.68, 0.000, 0.000, 0.000, 12:53:50.188
81, -2891.17, -2870.00, -3705.55, -2937.52, 0.000, 0.000, 0.000, 12:53:50.203
82, -3138.28, -3276.80, -3920.56, -3171.70, 0.000, 0.000, 0.000, 12:53:50.203
83, -3705.24, -3850.54, -4408.21, -3675.87, 0.000, 0.000, 0.000, 12:53:50.205
84, -3437.70, -3515.11, -4172.36, -3441.23, 0.000, 0.000, 0.000, 12:53:50.205
85, -2889.40, -2955.24, -3705.54, -2949.42, 0.000, 0.000, 0.000, 12:53:50.219
86, -3133.56, -3270.84, -3930.63, -3140.58, 0.000, 0.000, 0.000, 12:53:50.219
87, -3682.87, -3872.77, -4402.01, -3701.35, 0.000, 0.000, 0.000, 12:53:50.234
88, -3420.60, -3519.46, -4169.90, -3439.51, 0.000, 0.000, 0.000, 12:53:50.234
89, -2873.46, -2969.97, -3704.95, -2959.22, 0.000, 0.000, 0.000, 12:53:50.249
90, -3144.24, -3250.84, -3938.68, -3141.24, 0.000, 0.000, 0.000, 12:53:50.249
91, -3704.62, -3886.52, -4415.10, -3679.97, 0.000, 0.000, 0.000, 12:53:50.250
92, -3427.15, -3524.40, -4177.86, -3434.13, 0.000, 0.000, 0.000, 12:53:50.250
93, -2905.19, -2875.64, -3724.77, -2992.45, 0.000, 0.000, 0.000, 12:53:50.263
94, -3132.77, -3221.53, -3929.42, -3145.93, 0.000, 0.000, 0.000, 12:53:50.263
95, -3679.52, -3825.13, -4401.47, -3669.87, 0.000, 0.000, 0.000, 12:53:50.264
96, -3397.32, -3479.23, -4167.17, -3420.50, 0.000, 0.000, 0.000, 12:53:50.264
97, -2888.08, -2900.41, -3709.26, -2954.38, 0.000, 0.000, 0.000, 12:53:50.278
98, -3138.52, -3305.63, -3920.74, -3145.21, 0.000, 0.000, 0.000, 12:53:50.278
99, -3679.35, -3880.45, -4402.53, -3654.10, 0.000, 0.000, 0.000, 12:53:50.293
100, -3417.09, -3547.68, -4172.62, -3430.77, 0.000, 0.000, 0.000, 12:53:50.293
101, -2887.11, -2928.48, -3716.84, -2934.78, 0.000, 0.000, 0.000, 12:53:50.294
102, -3118.44, -3167.51, -3926.68, -3126.46, 0.000, 0.000, 0.000, 12:53:50.294
103, -3681.04, -3823.72, -4408.05, -3681.33, 0.000, 0.000, 0.000, 12:53:50.324
104, -3428.24, -3553.61, -4185.30, -3457.83, 0.000, 0.000, 0.000, 12:53:50.324
105, -2898.35, -2967.82, -3720.26, -2936.13, 0.000, 0.000, 0.000, 12:53:50.324
106, -3128.98, -3286.44, -3917.53, -3138.32, 0.000, 0.000, 0.000, 12:53:50.324
107, -3684.34, -3798.30, -4398.09, -3677.11, 0.000, 0.000, 0.000, 12:53:50.325
108, -3408.03, -3556.55, -4170.11, -3422.10, 0.000, 0.000, 0.000, 12:53:50.325
109, -2891.17, -2992.55, -3720.33, -2950.65, 0.000, 0.000, 0.000, 12:53:50.339
110, -3122.34, -3224.31, -3925.46, -3120.54, 0.000, 0.000, 0.000, 12:53:50.339
111, -3673.12, -3867.34, -4397.98, -3652.31, 0.000, 0.000, 0.000, 12:53:50.368
112, -3421.25, -3518.60, -4178.84, -3462.99, 0.000, 0.000, 0.000, 12:53:50.368
113, -2920.25, -2898.86, -3733.25, -2978.47, 0.000, 0.000, 0.000, 12:53:50.368
114, -3135.50, -3268.62, -3918.76, -3114.55, 0.000, 0.000, 0.000, 12:53:50.369
115, -3675.01, -3894.15, -4400.06, -3656.88, 0.000, 0.000, 0.000, 12:53:50.370
116, -3416.88, -3546.63, -4176.99, -3428.78, 0.000, 0.000, 0.000, 12:53:50.370
117, -2901.90, -2958.47, -3721.49, -2943.72, 0.000, 0.000, 0.000, 12:53:50.383
118, -3113.88, -3227.29, -3904.97, -3114.01, 0.000, 0.000, 0.000, 12:53:50.384
119, -3670.61, -3875.29, -4401.34, -3657.84, 0.000, 0.000, 0.000, 12:53:50.384
120, -3407.88, -3547.06, -4182.14, -3470.10, 0.000, 0.000, 0.000, 12:53:50.384
121, -2897.05, -2932.35, -3724.17, -2979.14, 0.000, 0.000, 0.000, 12:53:50.399
122, -3108.67, -3207.69, -3908.49, -3107.70, 0.000, 0.000, 0.000, 12:53:50.399
123, -3701.61, -3880.03, -4413.52, -3661.92, 0.000, 0.000, 0.000, 12:53:50.413
124, -3427.23, -3505.09, -4197.43, -3439.56, 0.000, 0.000, 0.000, 12:53:50.413
125, -2890.28, -2888.06, -3719.78, -2939.57, 0.000, 0.000, 0.000, 12:53:50.415
126, -3115.29, -3194.96, -3903.10, -3126.62, 0.000, 0.000, 0.000, 12:53:50.415
127, -3674.63, -3799.52, -4403.15, -3653.81, 0.000, 0.000, 0.000, 12:53:50.443
128, -3418.23, -3506.59, -4181.33, -3453.28, 0.000, 0.000, 0.000, 12:53:50.443
129, -2889.74, -2947.59, -3711.59, -2954.57, 0.000, 0.000, 0.000, 12:53:50.444
130, -3097.16, -3246.48, -3889.43, -3106.37, 0.000, 0.000, 0.000, 12:53:50.444
131, -3668.21, -3882.21, -4395.54, -3669.88, 0.000, 0.000, 0.000, 12:53:50.445
132, -3414.97, -3557.97, -4178.36, -3442.87, 0.000, 0.000, 0.000, 12:53:50.445
133, -2871.55, -2961.70, -3713.69, -2948.30, 0.000, 0.000, 0.000, 12:53:50.458
134, -3093.66, -3165.12, -3896.41, -3129.97, 0.000, 0.000, 0.000, 12:53:50.459
135, -3684.51, -3818.89, -4409.13, -3710.21, 0.000, 0.000, 0.000, 12:53:50.474
136, -3438.81, -3542.58, -4192.36, -3422.80, 0.000, 0.000, 0.000, 12:53:50.474
137, -2888.49, -2980.83, -3718.17, -2977.46, 0.000, 0.000, 0.000, 12:53:50.488
138, -3091.78, -3244.22, -3895.78, -3071.19, 0.000, 0.000, 0.000, 12:53:50.488
139, -3675.39, -3766.18, -4401.55, -3663.07, 0.000, 0.000, 0.000, 12:53:50.489
140, -3428.98, -3487.85, -4188.49, -3444.49, 0.000, 0.000, 0.000, 12:53:50.489
141, -2900.83, -2970.79, -3726.45, -2955.81, 0.000, 0.000, 0.000, 12:53:50.503
142, -3109.45, -3238.48, -3900.00, -3125.93, 0.000, 0.000, 0.000, 12:53:50.503
143, -3683.23, -3850.11, -4406.95, -3661.58, 0.000, 0.000, 0.000, 12:53:50.505
144, -3436.13, -3530.04, -4190.72, -3432.42, 0.000, 0.000, 0.000, 12:53:50.505
145, -2890.85, -2991.78, -3724.79, -2920.24, 0.000, 0.000, 0.000, 12:53:50.519
146, -3091.95, -3133.68, -3887.69, -3094.83, 0.000, 0.000, 0.000, 12:53:50.519
147, -3682.78, -3840.30, -4399.31, -3683.65, 0.000, 0.000, 0.000, 12:53:50.533
148, -3438.04, -3571.21, -4197.60, -3458.63, 0.000, 0.000, 0.000, 12:53:50.534
149, -2894.76, -2981.53, -3722.69, -2994.60, 0.000, 0.000, 0.000, 12:53:50.534
150, -3088.18, -3183.78, -3883.50, -3080.97, 0.000, 0.000, 0.000, 12:53:50.534
151, -3672.46, -3723.80, -4398.94, -3638.46, 0.000, 0.000, 0.000, 12:53:50.564
152, -3441.88, -3629.44, -4193.62, -3448.23, 0.000, 0.000, 0.000, 12:53:50.564
153, -2908.10, -2986.33, -3730.47, -2969.95, 0.000, 0.000, 0.000, 12:53:50.565
154, -3084.78, -3163.88, -3887.76, -3093.77, 0.000, 0.000, 0.000, 12:53:50.565
155, -3670.03, -3793.59, -4392.95, -3660.53, 0.000, 0.000, 0.000, 12:53:50.565
156, -3433.22, -3629.82, -4201.97, -3446.23, 0.000, 0.000, 0.000, 12:53:50.565
157, -2901.78, -3018.22, -3731.79, -2961.82, 0.000, 0.000, 0.000, 12:53:50.579
158, -3086.33, -3155.94, -3874.03, -3085.88, 0.000, 0.000, 0.000, 12:53:50.579
159, -3689.32, -3822.45, -4396.52, -3666.58, 0.000, 0.000, 0.000, 12:53:50.594
160, -3443.94, -3512.49, -4193.85, -3445.79, 0.000, 0.000, 0.000, 12:53:50.594
161, -2910.09, -3019.61, -3724.14, -2942.23, 0.000, 0.000, 0.000, 12:53:50.608
162, -3083.45, -3122.54, -3871.28, -3082.90, 0.000, 0.000, 0.000, 12:53:50.608
163, -3682.28, -3817.19, -4399.66, -3646.60, 0.000, 0.000, 0.000, 12:53:50.610
164, -3432.47, -3508.79, -4193.67, -3446.31, 0.000, 0.000, 0.000, 12:53:50.610
165, -2908.02, -3032.03, -3733.23, -2952.96, 0.000, 0.000, 0.000, 12:53:50.638
166, -3069.99, -3186.27, -3873.89, -3081.24, 0.000, 0.000, 0.000, 12:53:50.638
167, -3669.07, -3721.84, -4400.41, -3661.63, 0.000, 0.000, 0.000, 12:53:50.639
168, -3431.40, -3570.74, -4188.96, -3446.50, 0.000, 0.000, 0.000, 12:53:50.639
169, -2921.02, -3005.54, -3733.19, -2953.50, 0.000, 0.000, 0.000, 12:53:50.639
170, -3079.70, -3182.37, -3880.46, -3122.79, 0.000, 0.000, 0.000, 12:53:50.639
171, -3673.37, -3803.41, -4398.77, -3648.09, 0.000, 0.000, 0.000, 12:53:50.655
172, -3449.16, -3594.64, -4195.46, -3455.76, 0.000, 0.000, 0.000, 12:53:50.655
173, -2914.85, -3004.66, -3721.85, -2936.39, 0.000, 0.000, 0.000, 12:53:50.655
174, -3068.89, -3053.90, -3860.51, -3094.73, 0.000, 0.000, 0.000, 12:53:50.655
175, -3699.73, -3856.00, -4401.54, -3675.17, 0.000, 0.000, 0.000, 12:53:50.669
176, -3460.99, -3559.75, -4205.18, -3469.58, 0.000, 0.000, 0.000, 12:53:50.669
177, -2908.01, -2949.15, -3735.10, -2962.90, 0.000, 0.000, 0.000, 12:53:50.684
178, -3083.09, -3180.44, -3873.57, -3094.93, 0.000, 0.000, 0.000, 12:53:50.684
179, -3683.92, -3888.01, -4402.52, -3666.24, 0.000, 0.000, 0.000, 12:53:50.685
180, -3451.47, -3485.71, -4209.90, -3458.68, 0.000, 0.000, 0.000, 12:53:50.685
181, -2915.95, -3029.79, -3739.80, -2956.89, 0.000, 0.000, 0.000, 12:53:50.714
182, -3066.16, -3210.71, -3870.39, -3077.78, 0.000, 0.000, 0.000, 12:53:50.714
183, -3680.02, -3831.10, -4403.52, -3665.66, 0.000, 0.000, 0.000, 12:53:50.715
184, -3453.03, -3518.14, -4201.62, -3468.77, 0.000, 0.000, 0.000, 12:53:50.715
185, -2917.70, -3024.18, -3745.70, -2963.23, 0.000, 0.000, 0.000, 12:53:50.728
186, -3086.25, -3216.64, -3868.45, -3110.28, 0.000, 0.000, 0.000, 12:53:50.728
187, -3688.86, -3823.26, -4399.52, -3644.63, 0.000, 0.000, 0.000, 12:53:50.729
188, -3449.46, -3467.09, -4201.51, -3457.08, 0.000, 0.000, 0.000, 12:53:50.729
189, -2920.57, -2922.05, -3743.93, -2949.61, 0.000, 0.000, 0.000, 12:53:50.743
190, -3065.61, -3167.43, -3856.83, -3085.42, 0.000, 0.000, 0.000, 12:53:50.743
191, -3685.25, -3914.60, -4398.40, -3685.22, 0.000, 0.000, 0.000, 12:53:50.744
192, -3463.68, -3588.81, -4204.69, -3460.09, 0.000, 0.000, 0.000, 12:53:50.744
193, -2921.33, -2984.35, -3741.59, -2972.55, 0.000, 0.000, 0.000, 12:53:50.759
194, -3071.50, -3185.79, -3860.31, -3085.55, 0.000, 0.000, 0.000, 12:53:50.759
195, -3681.37, -3883.47, -4396.92, -3666.96, 0.000, 0.000, 0.000, 12:53:50.774
196, -3458.13, -3594.02, -4212.17, -3461.43, 0.000, 0.000, 0.000, 12:53:50.774
197, -2930.23, -2948.99, -3752.28, -2965.10, 0.000, 0.000, 0.000, 12:53:50.774
198, -3065.05, -3217.47, -3867.81, -3085.11, 0.000, 0.000, 0.000, 12:53:50.774
199, -3695.34, -3887.46, -4413.87, -3667.31, 0.000, 0.000, 0.000, 12:53:50.789
200, -3471.72, -3533.34, -4221.81, -3483.90, 0.000, 0.000, 0.000, 12:53:50.789
0, -2941.82, -3024.17, -3757.27, -2990.85, 0.000, 0.000, 0.000, 12:53:50.789
1, -3077.82, -3140.47, -3872.36, -3093.56, 0.000, 0.000, 0.000, 12:53:50.804
2, -3683.24, -3818.91, -4403.01, -3657.84, 0.000, 0.000, 0.000, 12:53:50.804
3, -3464.39, -3633.56, -4221.82, -3488.75, 0.000, 0.000, 0.000, 12:53:50.819
4, -2931.70, -2995.77, -3753.81, -2967.01, 0.000, 0.000, 0.000, 12:53:50.819
5, -3068.24, -3210.22, -3871.83, -3092.27, 0.000, 0.000, 0.000, 12:53:50.819
6, -3675.70, -3880.63, -4402.65, -3676.85, 0.000, 0.000, 0.000, 12:53:50.819
7, -3469.65, -3568.08, -4220.66, -3475.20, 0.000, 0.000, 0.000, 12:53:50.833
8, -2932.83, -2925.68, -3748.55, -2985.44, 0.000, 0.000, 0.000, 12:53:50.834
9, -3064.38, -3118.93, -3863.98, -3075.83, 0.000, 0.000, 0.000, 12:53:50.848
10, -3680.07, -3890.41, -4406.92, -3651.71, 0.000, 0.000, 0.000, 12:53:50.848
11, -3462.39, -3538.58, -4219.04, -3471.67, 0.000, 0.000, 0.000, 12:53:50.850
12, -2927.87, -3002.23, -3748.09, -2963.90, 0.000, 0.000, 0.000, 12:53:50.850
13, -3054.24, -3090.73, -3856.07, -3087.04, 0.000, 0.000, 0.000, 12:53:50.864
14, -3687.32, -3800.22, -4397.83, -3688.99, 0.000, 0.000, 0.000, 12:53:50.864
15, -3459.33, -3541.88, -4215.72, -3455.19, 0.000, 0.000, 0.000, 12:53:50.878
16, -2925.53, -2930.39, -3747.91, -2985.35, 0.000, 0.000, 0.000, 12:53:50.878
17, -3038.71, -3119.53, -3849.38, -3074.03, 0.000, 0.000, 0.000, 12:53:50.879
18, -3673.31, -3819.89, -4395.45, -3658.73, 0.000, 0.000, 0.000, 12:53:50.879
19, -3481.64, -3582.75, -4231.79, -3491.18, 0.000, 0.000, 0.000, 12:53:50.893
20, -2930.05, -2955.56, -3747.57, -2999.25, 0.000, 0.000, 0.000, 12:53:50.893
21, -3046.70, -3157.42, -3849.81, -3038.12, 0.000, 0.000, 0.000, 12:53:50.908
22, -3681.00, -3843.55, -4391.84, -3658.68, 0.000, 0.000, 0.000, 12:53:50.908
23, -3467.10, -3592.53, -4218.27, -3478.75, 0.000, 0.000, 0.000, 12:53:50.909
24, -2938.04, -3062.58, -3751.83, -2978.71, 0.000, 0.000, 0.000, 12:53:50.909
25, -3037.48, -3126.81, -3846.50, -3061.42, 0.000, 0.000, 0.000, 12:53:50.924
26, -3678.05, -3803.60, -4391.44, -3664.95, 0.000, 0.000, 0.000, 12:53:50.924
27, -3460.13, -3612.39, -4211.32, -3493.30, 0.000, 0.000, 0.000, 12:53:50.938
28, -2927.50, -3023.76, -3743.64, -2970.51, 0.000, 0.000, 0.000, 12:53:50.938
29, -3032.01, -3145.86, -3839.27, -3040.48, 0.000, 0.000, 0.000, 12:53:50.939
30, -3680.46, -3793.29, -4391.81, -3652.97, 0.000, 0.000, 0.000, 12:53:50.939
31, -3475.44, -3653.10, -4217.88, -3482.26, 0.000, 0.000, 0.000, 12:53:50.954
32, -2938.01, -2938.57, -3752.96, -2993.23, 0.000, 0.000, 0.000, 12:53:50.955
33, -3041.17, -3022.66, -3836.59, -3055.08, 0.000, 0.000, 0.000, 12:53:50.969
34, -3673.58, -3753.87, -4390.17, -3687.70, 0.000, 0.000, 0.000, 12:53:50.969
35, -3468.41, -3590.48, -4215.78, -3482.67, 0.000, 0.000, 0.000, 12:53:50.969
36, -2928.21, -3050.84, -3756.47, -2963.67, 0.000, 0.000, 0.000, 12:53:50.969
37, -3049.24, -3188.08, -3845.06, -3115.63, 0.000, 0.000, 0.000, 12:53:50.999
38, -3683.03, -3889.14, -4396.51, -3641.15, 0.000, 0.000, 0.000, 12:53:50.999
39, -3475.15, -3534.46, -4222.84, -3452.49, 0.000, 0.000, 0.000, 12:53:50.999
40, -2934.65, -2913.22, -3754.41, -2982.85, 0.000, 0.000, 0.000, 12:53:51.000
41, -3034.26, -3084.92, -3832.51, -3063.77, 0.000, 0.000, 0.000, 12:53:51.000
42, -3677.44, -3782.84, -4389.87, -3647.68, 0.000, 0.000, 0.000, 12:53:51.000
43, -3464.60, -3629.48, -4221.00, -3485.05, 0.000, 0.000, 0.000, 12:53:51.013
44, -2937.49, -3025.03, -3764.80, -2988.74, 0.000, 0.000, 0.000, 12:53:51.013
45, -3030.94, -3198.55, -3839.13, -3062.55, 0.000, 0.000, 0.000, 12:53:51.043
46, -3665.61, -3896.37, -4387.97, -3647.65, 0.000, 0.000, 0.000, 12:53:51.043
47, -3474.94, -3675.03, -4222.82, -3492.30, 0.000, 0.000, 0.000, 12:53:51.044
48, -2936.53, -3034.29, -3750.68, -2970.88, 0.000, 0.000, 0.000, 12:53:51.044
49, -3034.35, -3128.05, -3829.65, -3092.32, 0.000, 0.000, 0.000, 12:53:51.044
50, -3673.21, -3821.02, -4386.98, -3661.90, 0.000, 0.000, 0.000, 12:53:51.045
51, -3470.20, -3559.50, -4220.49, -3487.28, 0.000, 0.000, 0.000, 12:53:51.059
52, -2940.32, -2981.84, -3762.02, -2984.60, 0.000, 0.000, 0.000, 12:53:51.059
53, -3017.39, -3068.29, -3824.37, -3054.87, 0.000, 0.000, 0.000, 12:53:51.060
54, -3660.30, -3785.54, -4380.87, -3632.24, 0.000, 0.000, 0.000, 12:53:51.060
55, -3473.61, -3557.18, -4229.09, -3509.01, 0.000, 0.000, 0.000, 12:53:51.074
56, -2936.38, -2973.31, -3753.64, -2981.32, 0.000, 0.000, 0.000, 12:53:51.074
57, -3044.75, -3109.40, -3835.52, -3054.38, 0.000, 0.000, 0.000, 12:53:51.089
58, -3671.99, -3904.54, -4396.88, -3658.47, 0.000, 0.000, 0.000, 12:53:51.089
59, -3481.09, -3621.69, -4230.23, -3489.73, 0.000, 0.000, 0.000, 12:53:51.089
60, -2941.54, -2967.44, -3764.06, -2983.82, 0.000, 0.000, 0.000, 12:53:51.089
61, -3014.67, -3070.82, -3819.44, -3034.58, 0.000, 0.000, 0.000, 12:53:51.119
62, -3662.61, -3798.37, -4394.13, -3652.92, 0.000, 0.000, 0.000, 12:53:51.119
63, -3476.70, -3596.22, -4234.13, -3485.66, 0.000, 0.000, 0.000, 12:53:51.120
64, -2956.07, -3052.27, -3764.82, -2992.20, 0.000, 0.000, 0.000, 12:53:51.120
65, -3005.60, -3132.53, -3821.93, -3034.48, 0.000, 0.000, 0.000, 12:53:51.121
66, -3663.24, -3803.39, -4380.02, -3642.49, 0.000, 0.000, 0.000, 12:53:51.121
67, -3472.86, -3573.03, -4222.50, -3499.45, 0.000, 0.000, 0.000, 12:53:51.134
68, -2956.83, -3024.90, -3772.07, -2993.85, 0.000, 0.000, 0.000, 12:53:51.134
69, -3019.07, -3120.27, -3820.14, -3025.03, 0.000, 0.000, 0.000, 12:53:51.148
70, -3663.18, -3794.58, -4386.26, -3651.27, 0.000, 0.000, 0.000, 12:53:51.148
71, -3483.02, -3602.33, -4238.20, -3474.92, 0.000, 0.000, 0.000, 12:53:51.149
72, -2957.34, -3020.22, -3764.94, -3016.05, 0.000, 0.000, 0.000, 12:53:51.149
73, -2998.72, -3112.13, -3808.86, -3050.19, 0.000, 0.000, 0.000, 12:53:51.164
74, -3670.46, -3778.76, -4395.53, -3643.84, 0.000, 0.000, 0.000, 12:53:51.164
75, -3495.74, -3633.17, -4239.66, -3499.42, 0.000, 0.000, 0.000, 12:53:51.178
76, -2968.05, -3052.81, -3777.53, -3014.65, 0.000, 0.000, 0.000, 12:53:51.178
77, -3020.33, -3122.17, -3817.89, -3040.99, 0.000, 0.000, 0.000, 12:53:51.193
78, -3659.00, -3782.28, -4383.10, -3637.36, 0.000, 0.000, 0.000, 12:53:51.193
79, -3495.53, -3626.36, -4241.52, -3488.20, 0.000, 0.000, 0.000, 12:53:51.194
80, -2960.78, -3004.69, -3776.92, -2986.23, 0.000, 0.000, 0.000, 12:53:51.194
81, -3009.01, -3090.91, -3810.04, -3058.12, 0.000, 0.000, 0.000, 12:53:51.208
82, -3675.96, -3760.89, -4389.00, -3647.95, 0.000, 0.000, 0.000, 12:53:51.208
83, -3502.84, -3652.14, -4249.09, -3500.68, 0.000, 0.000, 0.000, 12:53:51.209
84, -2953.25, -3037.40, -3769.25, -3005.19, 0.000, 0.000, 0.000, 12:53:51.209
85, -3020.07, -3107.75, -3820.72, -3029.74, 0.000, 0.000, 0.000, 12:53:51.223
86, -3656.14, -3847.66, -4389.61, -3634.58, 0.000, 0.000, 0.000, 12:53:51.223
87, -3484.30, -3588.14, -4237.48, -3494.23, 0.000, 0.000, 0.000, 12:53:51.239
88, -2948.65, -3034.78, -3773.77, -3005.60, 0.000, 0.000, 0.000, 12:53:51.239
89, -2991.97, -3088.48, -3802.56, -3038.13, 0.000, 0.000, 0.000, 12:53:51.246
90, -3653.16, -3821.40, -4388.76, -3635.28, 0.000, 0.000, 0.000, 12:53:51.246
91, -3493.24, -3579.69, -4240.00, -3523.81, 0.000, 0.000, 0.000, 12:53:51.268
92, -2970.08, -2994.68, -3780.69, -3011.33, 0.000, 0.000, 0.000, 12:53:51.268
93, -3012.56, -3069.84, -3813.95, -3017.94, 0.000, 0.000, 0.000, 12:53:51.268
94, -3664.78, -3832.32, -4387.41, -3634.17, 0.000, 0.000, 0.000, 12:53:51.268
95, -3501.97, -3603.35, -4244.32, -3499.40, 0.000, 0.000, 0.000, 12:53:51.271
96, -2958.49, -3006.00, -3776.32, -3002.33, 0.000, 0.000, 0.000, 12:53:51.271
97, -3001.11, -3046.11, -3810.81, -3024.60, 0.000, 0.000, 0.000, 12:53:51.284
98, -3656.54, -3811.70, -4389.28, -3634.78, 0.000, 0.000, 0.000, 12:53:51.284
99, -3499.83, -3702.42, -4241.64, -3504.03, 0.000, 0.000, 0.000, 12:53:51.299
100, -2964.70, -2974.87, -3777.61, -3012.01, 0.000, 0.000, 0.000, 12:53:51.299
101, -3006.45, -3088.62, -3804.15, -3021.95, 0.000, 0.000, 0.000, 12:53:51.299
102, -3656.87, -3807.45, -4377.86, -3625.37, 0.000, 0.000, 0.000, 12:53:51.299
103, -3515.83, -3663.12, -4247.58, -3505.92, 0.000, 0.000, 0.000, 12:53:51.314
104, -2961.42, -3075.56, -3774.74, -3005.92, 0.000, 0.000, 0.000, 12:53:51.314
105, -2989.08, -3063.77, -3803.24, -3023.56, 0.000, 0.000, 0.000, 12:53:51.329
106, -3654.90, -3756.74, -4377.73, -3641.99, 0.000, 0.000, 0.000, 12:53:51.329
107, -3498.20, -3623.93, -4255.79, -3513.97, 0.000, 0.000, 0.000, 12:53:51.329
108, -2965.12, -3070.87, -3782.84, -2995.88, 0.000, 0.000, 0.000, 12:53:51.329
109, -3001.30, -3079.74, -3809.96, -3025.80, 0.000, 0.000, 0.000, 12:53:51.344
110, -3660.52, -3804.39, -4387.93, -3662.84, 0.000, 0.000, 0.000, 12:53:51.344
111, -3500.08, -3627.17, -4249.88, -3498.91, 0.000, 0.000, 0.000, 12:53:51.359
112, -2976.31, -3046.17, -3787.35, -3004.49, 0.000, 0.000, 0.000, 12:53:51.359
113, -2989.47, -3075.29, -3800.74, -3015.44, 0.000, 0.000, 0.000, 12:53:51.359
114, -3648.67, -3779.50, -4381.73, -3641.87, 0.000, 0.000, 0.000, 12:53:51.359
115, -3510.84, -3581.72, -4250.64, -3509.51, 0.000, 0.000, 0.000, 12:53:51.374
116, -2988.69, -3051.22, -3793.24, -3024.84, 0.000, 0.000, 0.000, 12:53:51.374
117, -2994.42, -3078.98, -3806.20, -3009.50, 0.000, 0.000, 0.000, 12:53:51.389
118, -3653.19, -3782.01, -4387.71, -3626.81, 0.000, 0.000, 0.000, 12:53:51.389
119, -3503.26, -3665.33, -4254.01, -3528.87, 0.000, 0.000, 0.000, 12:53:51.389
120, -2995.54, -3079.54, -3800.38, -3013.68, 0.000, 0.000, 0.000, 12:53:51.389
121, -2985.06, -3073.60, -3797.52, -3004.87, 0.000, 0.000, 0.000, 12:53:51.405
122, -3655.22, -3879.52, -4378.87, -3637.46, 0.000, 0.000, 0.000, 12:53:51.405
123, -3517.94, -3657.45, -4262.18, -3524.63, 0.000, 0.000, 0.000, 12:53:51.419
124, -2974.11, -3021.41, -3785.88, -3013.70, 0.000, 0.000, 0.000, 12:53:51.419
125, -2983.69, -3052.24, -3780.35, -3021.68, 0.000, 0.000, 0.000, 12:53:51.419
126, -3663.64, -3732.14, -4372.66, -3617.10, 0.000, 0.000, 0.000, 12:53:51.420
127, -3510.31, -3651.29, -4249.39, -3505.79, 0.000, 0.000, 0.000, 12:53:51.434
128, -2980.12, -3119.90, -3793.38, -3019.02, 0.000, 0.000, 0.000, 12:53:51.434
129, -2984.93, -2996.70, -3788.44, -3008.43, 0.000, 0.000, 0.000, 12:53:51.449
130, -3654.01, -3722.69, -4367.99, -3619.14, 0.000, 0.000, 0.000, 12:53:51.449
131, -3488.41, -3568.17, -4244.45, -3526.19, 0.000, 0.000, 0.000, 12:53:51.449
132, -2968.67, -3078.42, -3783.72, -3023.61, 0.000, 0.000, 0.000, 12:53:51.449
133, -2993.03, -3111.86, -3799.87, -3002.18, 0.000, 0.000, 0.000, 12:53:51.478
134, -3655.66, -3870.44, -4372.63, -3620.41, 0.000, 0.000, 0.000, 12:53:51.479
135, -3515.32, -3601.18, -4261.66, -3506.73, 0.000, 0.000, 0.000, 12:53:51.479
136, -2989.47, -3067.44, -3792.22, -3024.94, 0.000, 0.000, 0.000, 12:53:51.479
137, -2980.04, -3049.71, -3780.64, -2995.19, 0.000, 0.000, 0.000, 12:53:51.480
138, -3646.03, -3793.07, -4374.77, -3631.74, 0.000, 0.000, 0.000, 12:53:51.480
139, -3509.01, -3594.68, -4256.13, -3514.81, 0.000, 0.000, 0.000, 12:53:51.493
140, -2982.69, -3029.29, -3790.55, -3015.53, 0.000, 0.000, 0.000, 12:53:51.494
141, -2974.77, -3077.05, -3781.07, -3008.76, 0.000, 0.000, 0.000, 12:53:51.523
142, -3653.78, -3801.27, -4375.77, -3629.55, 0.000, 0.000, 0.000, 12:53:51.523
143, -3520.77, -3554.91, -4260.33, -3519.04, 0.000, 0.000, 0.000, 12:53:51.524
144, -2993.07, -3130.05, -3811.60, -3034.47, 0.000, 0.000, 0.000, 12:53:51.524
145, -2973.59, -3054.34, -3785.92, -3007.18, 0.000, 0.000, 0.000, 12:53:51.525
146, -3651.05, -3777.83, -4376.38, -3629.89, 0.000, 0.000, 0.000, 12:53:51.525
147, -3517.27, -3620.52, -4266.60, -3521.95, 0.000, 0.000, 0.000, 12:53:51.526
148, -2988.06, -3085.57, -3804.17, -3027.20, 0.000, 0.000, 0.000, 12:53:51.526
149, -2968.65, -3069.14, -3780.88, -2991.13, 0.000, 0.000, 0.000, 12:53:51.554
150, -3659.19, -3811.33, -4376.60, -3651.10, 0.000, 0.000, 0.000, 12:53:51.555
151, -3525.21, -3645.15, -4272.28, -3521.29, 0.000, 0.000, 0.000, 12:53:51.555
152, -2990.95, -3086.51, -3811.43, -3030.24, 0.000, 0.000, 0.000, 12:53:51.555
153, -2978.33, -3032.53, -3787.48, -3004.30, 0.000, 0.000, 0.000, 12:53:51.569
154, -3649.50, -3791.44, -4379.23, -3642.70, 0.000, 0.000, 0.000, 12:53:51.569
155, -3523.90, -3653.42, -4273.77, -3525.18, 0.000, 0.000, 0.000, 12:53:51.569
156, -2995.61, -3070.97, -3804.43, -3036.91, 0.000, 0.000, 0.000, 12:53:51.570
157, -2965.33, -3057.13, -3775.56, -2991.30, 0.000, 0.000, 0.000, 12:53:51.584
158, -3646.49, -3786.06, -4376.24, -3639.33, 0.000, 0.000, 0.000, 12:53:51.584
159, -3518.53, -3641.72, -4262.81, -3515.97, 0.000, 0.000, 0.000, 12:53:51.613
160, -2983.90, -3060.67, -3805.18, -3034.17, 0.000, 0.000, 0.000, 12:53:51.613
161, -2962.19, -3036.45, -3772.10, -2988.87, 0.000, 0.000, 0.000, 12:53:51.615
162, -3661.12, -3721.94, -4387.18, -3648.21, 0.000, 0.000, 0.000, 12:53:51.615
163, -3525.09, -3666.82, -4269.24, -3529.85, 0.000, 0.000, 0.000, 12:53:51.615
164, -2997.26, -3066.97, -3811.60, -3042.58, 0.000, 0.000, 0.000, 12:53:51.615
165, -2964.35, -3101.86, -3782.25, -2995.60, 0.000, 0.000, 0.000, 12:53:51.629
166, -3651.01, -3740.59, -4373.80, -3625.11, 0.000, 0.000, 0.000, 12:53:51.629
167, -3533.27, -3632.69, -4274.97, -3543.43, 0.000, 0.000, 0.000, 12:53:51.629
168, -2994.61, -3055.84, -3808.56, -3042.89, 0.000, 0.000, 0.000, 12:53:51.629
169, -2960.26, -3037.97, -3776.12, -2995.89, 0.000, 0.000, 0.000, 12:53:51.651
170, -3640.02, -3824.73, -4372.36, -3631.01, 0.000, 0.000, 0.000, 12:53:51.651
171, -3528.06, -3667.34, -4272.38, -3532.91, 0.000, 0.000, 0.000, 12:53:51.674
172, -3008.00, -3068.87, -3817.42, -3045.65, 0.000, 0.000, 0.000, 12:53:51.674
173, -2960.30, -3016.45, -3774.25, -2978.04, 0.000, 0.000, 0.000, 12:53:51.675
174, -3642.13, -3798.20, -4372.99, -3631.74, 0.000, 0.000, 0.000, 12:53:51.675
175, -3518.60, -3631.07, -4259.24, -3530.36, 0.000, 0.000, 0.000, 12:53:51.675
176, -2994.12, -3079.62, -3809.33, -3051.30, 0.000, 0.000, 0.000, 12:53:51.675
181, -1435.15, -3532.16, -2193.02, -6352.38, 0.000, 0.000, 0.000, 12:53:55.364
182, -1702.42, -3783.46, -2438.31, -6617.65, 0.000, 0.000, 0.000, 12:53:55.364
183, -1305.83, -3406.78, -2091.94, -6257.24, 0.000, 0.000, 0.000, 12:53:55.365
184, -883.43, -2866.20, -1714.92, -5844.07, 0.000, 0.000, 0.000, 12:53:55.365
185, -1444.39, -3475.62, -2200.18, -6347.21, 0.000, 0.000, 0.000, 12:53:55.366
186, -1724.62, -3741.08, -2451.10, -6623.34, 0.000, 0.000, 0.000, 12:53:55.366
187, -1329.66, -3358.25, -2107.41, -6259.95, 0.000, 0.000, 0.000, 12:53:55.378
188, -891.66, -2863.05, -1721.70, -5841.94, 0.000, 0.000, 0.000, 12:53:55.378
189, -1439.68, -3541.34, -2206.61, -6337.68, 0.000, 0.000, 0.000, 12:53:55.394
190, -1714.59, -3869.88, -2458.17, -6616.31, 0.000, 0.000, 0.000, 12:53:55.394
191, -1328.84, -3402.01, -2109.68, -6256.21, 0.000, 0.000, 0.000, 12:53:55.394
192, -880.91, -2940.67, -1723.36, -5839.83, 0.000, 0.000, 0.000, 12:53:55.394
193, -1428.82, -3532.61, -2202.56, -6342.37, 0.000, 0.000, 0.000, 12:53:55.408
194, -1710.89, -3763.99, -2458.15, -6622.54, 0.000, 0.000, 0.000, 12:53:55.408
195, -1322.20, -3370.81, -2108.46, -6257.83, 0.000, 0.000, 0.000, 12:53:55.424
196, -886.98, -2917.13, -1719.12, -5834.39, 0.000, 0.000, 0.000, 12:53:55.424
197, -1423.64, -3590.51, -2201.54, -6328.76, 0.000, 0.000, 0.000, 12:53:55.424
198, -1718.90, -3761.33, -2465.10, -6622.08, 0.000, 0.000, 0.000, 12:53:55.424
199, -1325.33, -3317.32, -2114.73, -6261.17, 0.000, 0.000, 0.000, 12:53:55.438
200, -887.79, -2934.79, -1720.30, -5838.52, 0.000, 0.000, 0.000, 12:53:55.438
0, -3381.56, -3519.02, -4147.01, -3375.18, 0.000, 0.000, 0.000, 12:53:55.438
1, -3658.78, -3771.90, -4416.81, -3671.56, 0.000, 0.000, 0.000, 12:53:55.454
2, -3276.32, -3359.82, -4072.47, -3318.21, 0.000, 0.000, 0.000, 12:53:55.454
3, -2822.65, -2928.65, -3677.46, -2882.11, 0.000, 0.000, 0.000, 12:53:55.469
4, -3358.06, -3536.77, -4138.67, -3361.88, 0.000, 0.000, 0.000, 12:53:55.469
5, -3663.09, -3863.61, -4417.77, -3670.04, 0.000, 0.000, 0.000, 12:53:55.469
6, -3256.36, -3424.72, -4076.66, -3320.98, 0.000, 0.000, 0.000, 12:53:55.470
7, -2809.29, -2918.91, -3669.32, -2904.55, 0.000, 0.000, 0.000, 12:53:55.483
8, -3328.91, -3566.11, -4127.09, -3374.99, 0.000, 0.000, 0.000, 12:53:55.483
9, -3610.57, -3886.91, -4384.64, -3661.51, 0.000, 0.000, 0.000, 12:53:55.498
10, -3232.28, -3381.48, -4069.34, -3322.06, 0.000, 0.000, 0.000, 12:53:55.499
11, -2763.39, -2952.52, -3667.67, -2891.81, 0.000, 0.000, 0.000, 12:53:55.506
12, -3274.86, -3554.51, -4124.85, -3366.33, 0.000, 0.000, 0.000, 12:53:55.506
13, -3581.72, -3825.31, -4399.46, -3672.56, 0.000, 0.000, 0.000, 12:53:55.514
14, -3206.91, -3413.16, -4062.08, -3332.34, 0.000, 0.000, 0.000, 12:53:55.514
15, -2756.70, -2914.22, -3659.85, -2897.91, 0.000, 0.000, 0.000, 12:53:55.528
16, -3280.89, -3536.43, -4124.83, -3370.02, 0.000, 0.000, 0.000, 12:53:55.528
17, -3599.30, -3841.71, -4389.76, -3670.04, 0.000, 0.000, 0.000, 12:53:55.529
18, -3230.49, -3413.20, -4075.75, -3331.26, 0.000, 0.000, 0.000, 12:53:55.529
19, -2779.00, -2905.38, -3671.26, -2899.69, 0.000, 0.000, 0.000, 12:53:55.559
20, -3320.25, -3522.76, -4134.23, -3379.12, 0.000, 0.000, 0.000, 12:53:55.559
21, -3619.15, -3823.84, -4395.52, -3673.45, 0.000, 0.000, 0.000, 12:53:55.559
22, -3244.99, -3375.05, -4063.32, -3328.42, 0.000, 0.000, 0.000, 12:53:55.559
23, -2797.97, -2906.37, -3666.98, -2897.75, 0.000, 0.000, 0.000, 12:53:55.560
24, -3339.48, -3491.00, -4134.16, -3368.42, 0.000, 0.000, 0.000, 12:53:55.560
25, -3652.98, -3781.06, -4397.90, -3681.00, 0.000, 0.000, 0.000, 12:53:55.573
26, -3272.50, -3364.93, -4079.86, -3323.71, 0.000, 0.000, 0.000, 12:53:55.574
27, -2831.18, -2924.71, -3680.09, -2891.12, 0.000, 0.000, 0.000, 12:53:55.589
28, -3360.99, -3444.19, -4137.48, -3355.64, 0.000, 0.000, 0.000, 12:53:55.589
29, -3680.07, -3826.73, -4423.96, -3674.47, 0.000, 0.000, 0.000, 12:53:55.603
30, -3294.89, -3389.67, -4095.53, -3327.95, 0.000, 0.000, 0.000, 12:53:55.604
31, -2842.09, -2907.27, -3687.39, -2895.45, 0.000, 0.000, 0.000, 12:53:55.604
32, -3366.23, -3444.60, -4136.58, -3363.24, 0.000, 0.000, 0.000, 12:53:55.604
33, -3680.07, -3846.08, -4418.02, -3675.28, 0.000, 0.000, 0.000, 12:53:55.633
34, -3310.65, -3386.82, -4086.25, -3327.42, 0.000, 0.000, 0.000, 12:53:55.633
35, -2845.01, -2883.48, -3682.35, -2885.74, 0.000, 0.000, 0.000, 12:53:55.634
36, -3367.02, -3431.10, -4134.32, -3352.99, 0.000, 0.000, 0.000, 12:53:55.634
37, -3696.64, -3816.43, -4421.14, -3675.66, 0.000, 0.000, 0.000, 12:53:55.635
38, -3323.29, -3395.42, -4101.66, -3332.75, 0.000, 0.000, 0.000, 12:53:55.635
39, -2864.73, -2869.41, -3687.86, -2891.41, 0.000, 0.000, 0.000, 12:53:55.649
40, -3370.05, -3437.94, -4137.55, -3353.96, 0.000, 0.000, 0.000, 12:53:55.649
41, -3699.77, -3862.49, -4425.56, -3682.05, 0.000, 0.000, 0.000, 12:53:55.650
42, -3327.44, -3382.06, -4097.28, -3341.27, 0.000, 0.000, 0.000, 12:53:55.650
43, -2875.36, -2878.27, -3690.81, -2893.86, 0.000, 0.000, 0.000, 12:53:55.664
44, -3381.25, -3494.56, -4132.15, -3348.47, 0.000, 0.000, 0.000, 12:53:55.664
45, -3712.95, -3853.32, -4428.92, -3669.15, 0.000, 0.000, 0.000, 12:53:55.678
46, -3332.68, -3406.60, -4100.26, -3331.50, 0.000, 0.000, 0.000, 12:53:55.678
47, -2862.45, -2926.40, -3686.36, -2885.16, 0.000, 0.000, 0.000, 12:53:55.679
48, -3372.72, -3454.94, -4127.86, -3341.22, 0.000, 0.000, 0.000, 12:53:55.679
49, -3706.17, -3840.16, -4427.82, -3675.70, 0.000, 0.000, 0.000, 12:53:55.708
50, -3340.94, -3393.95, -4097.73, -3335.28, 0.000, 0.000, 0.000, 12:53:55.708
51, -2870.68, -2914.29, -3681.34, -2884.79, 0.000, 0.000, 0.000, 12:53:55.709
52, -3364.55, -3435.36, -4114.10, -3328.95, 0.000, 0.000, 0.000, 12:53:55.709
53, -3691.78, -3823.71, -4411.39, -3664.35, 0.000, 0.000, 0.000, 12:53:55.709
54, -3332.15, -3378.62, -4096.09, -3329.44, 0.000, 0.000, 0.000, 12:53:55.709
55, -2857.76, -2890.43, -3677.79, -2884.96, 0.000, 0.000, 0.000, 12:53:55.724
56, -3359.13, -3437.64, -4110.48, -3330.03, 0.000, 0.000, 0.000, 12:53:55.724
57, -3702.03, -3852.67, -4420.40, -3663.61, 0.000, 0.000, 0.000, 12:53:55.739
58, -3329.89, -3430.13, -4093.37, -3330.10, 0.000, 0.000, 0.000, 12:53:55.739
59, -2860.12, -2922.46, -3683.08, -2882.96, 0.000, 0.000, 0.000, 12:53:55.739
60, -3358.46, -3422.94, -4110.47, -3325.90, 0.000, 0.000, 0.000, 12:53:55.739
61, -3696.92, -3845.68, -4414.66, -3665.28, 0.000, 0.000, 0.000, 12:53:55.769
62, -3321.68, -3407.58, -4095.80, -3327.39, 0.000, 0.000, 0.000, 12:53:55.769
63, -2844.37, -2893.24, -3667.19, -2879.32, 0.000, 0.000, 0.000, 12:53:55.770
64, -3340.99, -3435.66, -4098.39, -3317.58, 0.000, 0.000, 0.000, 12:53:55.770
65, -3688.37, -3814.39, -4412.81, -3667.64, 0.000, 0.000, 0.000, 12:53:55.771
66, -3319.17, -3411.96, -4089.88, -3333.85, 0.000, 0.000, 0.000, 12:53:55.771
67, -2848.10, -2930.30, -3673.15, -2886.27, 0.000, 0.000, 0.000, 12:53:55.784
68, -3339.07, -3418.98, -4096.86, -3315.16, 0.000, 0.000, 0.000, 12:53:55.784
69, -3700.22, -3848.28, -4418.57, -3672.69, 0.000, 0.000, 0.000, 12:53:55.798
70, -3327.54, -3394.57, -4097.03, -3339.59, 0.000, 0.000, 0.000, 12:53:55.798
71, -2847.38, -2910.10, -3676.10, -2886.24, 0.000, 0.000, 0.000, 12:53:55.799
72, -3331.99, -3399.30, -4095.90, -3323.56, 0.000, 0.000, 0.000, 12:53:55.799
73, -3685.41, -3830.43, -4406.91, -3671.25, 0.000, 0.000, 0.000, 12:53:55.813
74, -3326.45, -3399.77, -4094.32, -3345.05, 0.000, 0.000, 0.000, 12:53:55.813
75, -2850.40, -2923.90, -3675.74, -2887.22, 0.000, 0.000, 0.000, 12:53:55.828
76, -3329.27, -3435.83, -4100.37, -3313.11, 0.000, 0.000, 0.000, 12:53:55.828
77, -3699.36, -3807.81, -4418.88, -3668.23, 0.000, 0.000, 0.000, 12:53:55.828
78, -3339.19, -3436.51, -4107.28, -3344.15, 0.000, 0.000, 0.000, 12:53:55.829
79, -2854.63, -2912.45, -3682.61, -2885.34, 0.000, 0.000, 0.000, 12:53:55.844
80, -3336.94, -3444.52, -4099.00, -3316.21, 0.000, 0.000, 0.000, 12:53:55.844
81, -3692.99, -3842.17, -4414.96, -3679.37, 0.000, 0.000, 0.000, 12:53:55.859
82, -3331.11, -3433.03, -4105.33, -3339.95, 0.000, 0.000, 0.000, 12:53:55.859
83, -2840.35, -2923.35, -3675.37, -2889.11, 0.000, 0.000, 0.000, 12:53:55.859
84, -3321.66, -3428.18, -4094.67, -3310.24, 0.000, 0.000, 0.000, 12:53:55.859
85, -3686.83, -3813.44, -4410.58, -3667.04, 0.000, 0.000, 0.000, 12:53:55.880
86, -3321.38, -3387.80, -4098.80, -3345.08, 0.000, 0.000, 0.000, 12:53:55.880
87, -2851.68, -2950.26, -3675.38, -2886.77, 0.000, 0.000, 0.000, 12:53:55.888
88, -3314.52, -3352.73, -4082.47, -3307.19, 0.000, 0.000, 0.000, 12:53:55.888
89, -3691.89, -3877.71, -4414.11, -3669.68, 0.000, 0.000, 0.000, 12:53:55.889
90, -3324.93, -3420.67, -4099.48, -3350.99, 0.000, 0.000, 0.000, 12:53:55.889
91, -2850.66, -2906.35, -3676.59, -2885.84, 0.000, 0.000, 0.000, 12:53:55.918
92, -3320.88, -3471.20, -4084.29, -3308.07, 0.000, 0.000, 0.000, 12:53:55.918
93, -3694.30, -3825.42, -4417.17, -3673.87, 0.000, 0.000, 0.000, 12:53:55.919
94, -3328.39, -3434.20, -4107.80, -3347.13, 0.000, 0.000, 0.000, 12:53:55.919
95, -2846.07, -2929.88, -3684.68, -2891.35, 0.000, 0.000, 0.000, 12:53:55.921
96, -3315.99, -3480.17, -4082.70, -3304.18, 0.000, 0.000, 0.000, 12:53:55.921
97, -3696.20, -3862.75, -4410.56, -3673.84, 0.000, 0.000, 0.000, 12:53:55.934
98, -3347.17, -3442.02, -4101.04, -3355.66, 0.000, 0.000, 0.000, 12:53:55.934
99, -2855.71, -2863.45, -3679.39, -2897.43, 0.000, 0.000, 0.000, 12:53:55.948
100, -3306.24, -3405.33, -4083.70, -3301.68, 0.000, 0.000, 0.000, 12:53:55.949
101, -3689.99, -3853.47, -4414.53, -3684.38, 0.000, 0.000, 0.000, 12:53:55.964
102, -3332.31, -3423.56, -4114.43, -3361.78, 0.000, 0.000, 0.000, 12:53:55.964
103, -2839.01, -2896.57, -3674.26, -2889.39, 0.000, 0.000, 0.000, 12:53:55.964
104, -3312.72, -3414.92, -4086.58, -3303.84, 0.000, 0.000, 0.000, 12:53:55.965
105, -3687.68, -3833.55, -4416.90, -3675.68, 0.000, 0.000, 0.000, 12:53:55.994
106, -3328.28, -3425.09, -4098.68, -3355.97, 0.000, 0.000, 0.000, 12:53:55.994
107, -2839.94, -2906.78, -3673.90, -2893.27, 0.000, 0.000, 0.000, 12:53:55.994
108, -3302.88, -3341.15, -4073.83, -3300.35, 0.000, 0.000, 0.000, 12:53:55.994
109, -3686.17, -3784.04, -4409.90, -3671.99, 0.000, 0.000, 0.000, 12:53:55.995
110, -3331.96, -3458.47, -4105.55, -3358.59, 0.000, 0.000, 0.000, 12:53:55.995
111, -2841.23, -2860.33, -3674.85, -2890.89, 0.000, 0.000, 0.000, 12:53:56.008
112, -3295.67, -3475.73, -4065.95, -3297.76, 0.000, 0.000, 0.000, 12:53:56.009
113, -3683.95, -3828.63, -4415.48, -3674.33, 0.000, 0.000, 0.000, 12:53:56.009
114, -3334.02, -3477.80, -4105.73, -3360.40, 0.000, 0.000, 0.000, 12:53:56.009
115, -2842.89, -2866.56, -3678.47, -2891.98, 0.000, 0.000, 0.000, 12:53:56.039
116, -3300.85, -3439.36, -4066.15, -3288.88, 0.000, 0.000, 0.000, 12:53:56.039
117, -3684.62, -3818.25, -4411.82, -3673.85, 0.000, 0.000, 0.000, 12:53:56.039
118, -3339.00, -3492.56, -4113.96, -3365.29, 0.000, 0.000, 0.000, 12:53:56.039
119, -2850.58, -2905.86, -3676.15, -2892.65, 0.000, 0.000, 0.000, 12:53:56.040
120, -3296.84, -3413.57, -4063.91, -3288.71, 0.000, 0.000, 0.000, 12:53:56.040
121, -3682.44, -3884.35, -4418.41, -3669.27, 0.000, 0.000, 0.000, 12:53:56.054
122, -3346.54, -3461.02, -4118.33, -3359.52, 0.000, 0.000, 0.000, 12:53:56.054
123, -2858.51, -2916.08, -3685.43, -2895.39, 0.000, 0.000, 0.000, 12:53:56.068
124, -3289.16, -3379.80, -4051.51, -3282.69, 0.000, 0.000, 0.000, 12:53:56.069
125, -3683.64, -3842.02, -4409.05, -3664.64, 0.000, 0.000, 0.000, 12:53:56.070
126, -3344.13, -3463.67, -4106.66, -3361.91, 0.000, 0.000, 0.000, 12:53:56.070
127, -2854.45, -2911.29, -3674.20, -2900.76, 0.000, 0.000, 0.000, 12:53:56.083
128, -3289.04, -3396.52, -4059.56, -3288.48, 0.000, 0.000, 0.000, 12:53:56.083
129, -3692.91, -3845.43, -4411.57, -3670.91, 0.000, 0.000, 0.000, 12:53:56.114
130, -3349.57, -3465.97, -4117.42, -3366.42, 0.000, 0.000, 0.000, 12:53:56.114
131, -2849.21, -2936.73, -3677.33, -2899.43, 0.000, 0.000, 0.000, 12:53:56.114
132, -3292.45, -3385.23, -4061.82, -3285.20, 0.000, 0.000, 0.000, 12:53:56.114
133, -3704.91, -3820.31, -4421.11, -3675.70, 0.000, 0.000, 0.000, 12:53:56.115
134, -3356.28, -3473.18, -4117.30, -3369.36, 0.000, 0.000, 0.000, 12:53:56.115
135, -2850.96, -2919.01, -3677.90, -2898.61, 0.000, 0.000, 0.000, 12:53:56.128
136, -3287.22, -3400.47, -4053.32, -3276.64, 0.000, 0.000, 0.000, 12:53:56.128
137, -3685.79, -3824.51, -4413.59, -3660.85, 0.000, 0.000, 0.000, 12:53:56.129
138, -3353.07, -3486.29, -4124.05, -3371.96, 0.000, 0.000, 0.000, 12:53:56.129
139, -2855.72, -2886.73, -3681.10, -2897.76, 0.000, 0.000, 0.000, 12:53:56.159
140, -3285.65, -3341.33, -4050.65, -3276.90, 0.000, 0.000, 0.000, 12:53:56.159
141, -3696.60, -3840.86, -4414.18, -3666.96, 0.000, 0.000, 0.000, 12:53:56.159
142, -3356.98, -3478.78, -4120.56, -3370.22, 0.000, 0.000, 0.000, 12:53:56.159
143, -2863.24, -2874.74, -3691.10, -2899.22, 0.000, 0.000, 0.000, 12:53:56.160
144, -3275.94, -3362.94, -4048.40, -3268.46, 0.000, 0.000, 0.000, 12:53:56.160
145, -3692.99, -3797.47, -4418.80, -3682.74, 0.000, 0.000, 0.000, 12:53:56.188
146, -3348.04, -3449.92, -4116.31, -3371.29, 0.000, 0.000, 0.000, 12:53:56.188
147, -2848.39, -2939.30, -3683.57, -2895.06, 0.000, 0.000, 0.000, 12:53:56.189
148, -3268.22, -3353.71, -4040.59, -3263.68, 0.000, 0.000, 0.000, 12:53:56.189
149, -3682.70, -3842.23, -4414.43, -3670.30, 0.000, 0.000, 0.000, 12:53:56.189
150, -3361.50, -3465.38, -4123.06, -3365.15, 0.000, 0.000, 0.000, 12:53:56.189
151, -2843.76, -2923.31, -3680.22, -2890.35, 0.000, 0.000, 0.000, 12:53:56.204
152, -3259.55, -3390.97, -4032.42, -3256.76, 0.000, 0.000, 0.000, 12:53:56.204
153, -3686.51, -3842.11, -4419.67, -3677.99, 0.000, 0.000, 0.000, 12:53:56.219
154, -3352.37, -3444.04, -4126.44, -3372.77, 0.000, 0.000, 0.000, 12:53:56.219
155, -2860.90, -2878.46, -3683.81, -2901.85, 0.000, 0.000, 0.000, 12:53:56.220
156, -3263.67, -3434.18, -4042.57, -3262.30, 0.000, 0.000, 0.000, 12:53:56.220
157, -3684.18, -3898.64, -4416.12, -3671.27, 0.000, 0.000, 0.000, 12:53:56.234
158, -3345.71, -3470.34, -4119.28, -3372.13, 0.000, 0.000, 0.000, 12:53:56.234
159, -2846.48, -2934.83, -3676.78, -2893.19, 0.000, 0.000, 0.000, 12:53:56.263
160, -3257.87, -3348.96, -4033.31, -3249.81, 0.000, 0.000, 0.000, 12:53:56.264
161, -3681.92, -3834.75, -4414.47, -3677.01, 0.000, 0.000, 0.000, 12:53:56.264
162, -3355.88, -3462.64, -4122.13, -3370.19, 0.000, 0.000, 0.000, 12:53:56.264
163, -2849.40, -2873.51, -3683.67, -2901.79, 0.000, 0.000, 0.000, 12:53:56.265
164, -3257.10, -3383.19, -4026.89, -3251.73, 0.000, 0.000, 0.000, 12:53:56.265
165, -3687.56, -3834.05, -4409.47, -3673.64, 0.000, 0.000, 0.000, 12:53:56.278
166, -3348.05, -3436.70, -4122.53, -3371.13, 0.000, 0.000, 0.000, 12:53:56.278
167, -2849.73, -2921.44, -3690.85, -2898.67, 0.000, 0.000, 0.000, 12:53:56.279
168, -3246.70, -3353.56, -4031.93, -3246.87, 0.000, 0.000, 0.000, 12:53:56.279
169, -3687.20, -3871.75, -4414.82, -3675.05, 0.000, 0.000, 0.000, 12:53:56.293
170, -3355.41, -3455.41, -4131.52, -3382.81, 0.000, 0.000, 0.000, 12:53:56.293
171, -2852.27, -2920.80, -3691.63, -2904.65, 0.000, 0.000, 0.000, 12:53:56.308
172, -3246.25, -3419.78, -4028.67, -3254.29, 0.000, 0.000, 0.000, 12:53:56.308
173, -3687.71, -3767.53, -4412.19, -3683.47, 0.000, 0.000, 0.000, 12:53:56.308
174, -3364.50, -3498.14, -4130.23, -3385.48, 0.000, 0.000, 0.000, 12:53:56.310
175, -2864.70, -2952.83, -3688.47, -2911.21, 0.000, 0.000, 0.000, 12:53:56.324
176, -3249.61, -3313.35, -4025.21, -3243.91, 0.000, 0.000, 0.000, 12:53:56.324
177, -3687.52, -3843.39, -4407.83, -3681.91, 0.000, 0.000, 0.000, 12:53:56.338
178, -3360.29, -3484.06, -4127.24, -3384.96, 0.000, 0.000, 0.000, 12:53:56.338
179, -2861.04, -2927.71, -3688.65, -2903.91, 0.000, 0.000, 0.000, 12:53:56.339
180, -3250.29, -3336.65, -4021.81, -3234.98, 0.000, 0.000, 0.000, 12:53:56.339
181, -3690.69, -3857.06, -4419.94, -3679.31, 0.000, 0.000, 0.000, 12:53:56.353
182, -3365.85, -3456.95, -4143.75, -3387.86, 0.000, 0.000, 0.000, 12:53:56.353
183, -2853.77, -2909.94, -3690.71, -2902.65, 0.000, 0.000, 0.000, 12:53:56.369
184, -3237.52, -3344.16, -4017.70, -3234.44, 0.000, 0.000, 0.000, 12:53:56.369
185, -3682.21, -3839.55, -4413.87, -3675.30, 0.000, 0.000, 0.000, 12:53:56.369
186, -3367.52, -3464.87, -4142.94, -3388.10, 0.000, 0.000, 0.000, 12:53:56.369
187, -2853.62, -2892.88, -3680.00, -2912.18, 0.000, 0.000, 0.000, 12:53:56.384
188, -3237.84, -3345.88, -4009.22, -3237.38, 0.000, 0.000, 0.000, 12:53:56.384
189, -3688.91, -3883.78, -4414.04, -3674.57, 0.000, 0.000, 0.000, 12:53:56.399
190, -3365.14, -3476.02, -4132.02, -3384.96, 0.000, 0.000, 0.000, 12:53:56.399
191, -2862.30, -2927.70, -3689.79, -2903.50, 0.000, 0.000, 0.000, 12:53:56.399
192, -3222.90, -3336.65, -4010.40, -3230.08, 0.000, 0.000, 0.000, 12:53:56.399
193, -3695.23, -3848.70, -4418.44, -3676.11, 0.000, 0.000, 0.000, 12:53:56.414
194, -3370.45, -3468.27, -4141.56, -3391.32, 0.000, 0.000, 0.000, 12:53:56.414
195, -2863.88, -2937.50, -3693.46, -2911.68, 0.000, 0.000, 0.000, 12:53:56.428
196, -3222.88, -3322.21, -4006.32, -3235.48, 0.000, 0.000, 0.000, 12:53:56.429
197, -3691.54, -3816.04, -4417.35, -3675.08, 0.000, 0.000, 0.000, 12:53:56.429
198, -3371.74, -3447.28, -4137.50, -3392.04, 0.000, 0.000, 0.000, 12:53:56.429
199, -2864.05, -2882.58, -3693.77, -2914.36, 0.000, 0.000, 0.000, 12:53:56.443
200, -3236.22, -3338.61, -4003.14, -3232.72, 0.000, 0.000, 0.000, 12:53:56.443
0, -3695.50, -3832.28, -4415.22, -3676.74, 0.000, 0.000, 0.000, 12:53:56.444
1, -3372.23, -3490.52, -4143.32, -3400.43, 0.000, 0.000, 0.000, 12:53:56.474
2, -2864.76, -2940.42, -3694.04, -2909.18, 0.000, 0.000, 0.000, 12:53:56.474
3, -3220.49, -3337.63, -4005.60, -3232.31, 0.000, 0.000, 0.000, 12:53:56.475
4, -3698.02, -3818.12, -4418.27, -3675.16, 0.000, 0.000, 0.000, 12:53:56.475
5, -3385.52, -3487.06, -4147.09, -3397.41, 0.000, 0.000, 0.000, 12:53:56.475
6, -2868.62, -2922.99, -3696.36, -2905.42, 0.000, 0.000, 0.000, 12:53:56.475
7, -3222.06, -3383.51, -3996.09, -3218.48, 0.000, 0.000, 0.000, 12:53:56.488
8, -3693.37, -3900.58, -4415.54, -3674.58, 0.000, 0.000, 0.000, 12:53:56.488
9, -3382.21, -3498.69, -4141.84, -3403.80, 0.000, 0.000, 0.000, 12:53:56.503
10, -2869.28, -2920.02, -3698.54, -2924.55, 0.000, 0.000, 0.000, 12:53:56.504
11, -3221.26, -3356.17, -3995.82, -3222.76, 0.000, 0.000, 0.000, 12:53:56.504
12, -3686.04, -3875.04, -4407.63, -3663.15, 0.000, 0.000, 0.000, 12:53:56.504
13, -3372.71, -3404.27, -4130.02, -3404.87, 0.000, 0.000, 0.000, 12:53:56.518
14, -2856.13, -2935.99, -3688.14, -2906.73, 0.000, 0.000, 0.000, 12:53:56.518
15, -3190.92, -3375.89, -3983.83, -3217.49, 0.000, 0.000, 0.000, 12:53:56.548
16, -3644.25, -3866.15, -4392.17, -3671.55, 0.000, 0.000, 0.000, 12:53:56.549
17, -3323.75, -3499.38, -4124.37, -3400.47, 0.000, 0.000, 0.000, 12:53:56.549
18, -2807.12, -2934.77, -3679.26, -2917.68, 0.000, 0.000, 0.000, 12:53:56.549
19, -3128.24, -3403.26, -3966.98, -3224.25, 0.000, 0.000, 0.000, 12:53:56.550
20, -3595.00, -3817.95, -4390.71, -3666.95, 0.000, 0.000, 0.000, 12:53:56.550
21, -3286.67, -3505.44, -4129.34, -3395.76, 0.000, 0.000, 0.000, 12:53:56.564
22, -2777.79, -3000.45, -3679.08, -2916.37, 0.000, 0.000, 0.000, 12:53:56.564
23, -3088.30, -3385.84, -3979.37, -3209.22, 0.000, 0.000, 0.000, 12:53:56.565
24, -3590.31, -3904.75, -4401.14, -3660.70, 0.000, 0.000, 0.000, 12:53:56.565
25, -3281.91, -3453.95, -4143.96, -3400.49, 0.000, 0.000, 0.000, 12:53:56.579
26, -2775.01, -2945.65, -3692.27, -2912.40, 0.000, 0.000, 0.000, 12:53:56.579
27, -3111.08, -3325.21, -3975.98, -3200.18, 0.000, 0.000, 0.000, 12:53:56.593
28, -3641.85, -3844.98, -4411.29, -3675.85, 0.000, 0.000, 0.000, 12:53:56.594
29, -3350.12, -3540.01, -4149.63, -3402.49, 0.000, 0.000, 0.000, 12:53:56.594
30, -2806.48, -2944.76, -3693.34, -2909.14, 0.000, 0.000, 0.000, 12:53:56.594
31, -3149.06, -3360.76, -3978.35, -3203.98, 0.000, 0.000, 0.000, 12:53:56.608
32, -3651.01, -3824.85, -4393.61, -3672.39, 0.000, 0.000, 0.000, 12:53:56.608
33, -3382.49, -3456.05, -4143.33, -3408.42, 0.000, 0.000, 0.000, 12:53:56.623
34, -2885.68, -2947.03, -3689.24, -2926.27, 0.000, 0.000, 0.000, 12:53:56.623
35, -3185.85, -3309.34, -3974.57, -3210.93, 0.000, 0.000, 0.000, 12:53:56.624
36, -3698.47, -3813.35, -4409.80, -3688.57, 0.000, 0.000, 0.000, 12:53:56.624
37, -3407.68, -3499.72, -4153.60, -3411.12, 0.000, 0.000, 0.000, 12:53:56.638
38, -2909.27, -2970.36, -3711.50, -2929.03, 0.000, 0.000, 0.000, 12:53:56.638
39, -3222.45, -3309.43, -3983.61, -3203.53, 0.000, 0.000, 0.000, 12:53:56.668
40, -3738.09, -3819.53, -4418.04, -3683.70, 0.000, 0.000, 0.000, 12:53:56.668
41, -3421.38, -3529.50, -4162.19, -3414.83, 0.000, 0.000, 0.000, 12:53:56.670
42, -2919.56, -2923.72, -3714.23, -2928.45, 0.000, 0.000, 0.000, 12:53:56.670
43, -3239.06, -3236.66, -3983.93, -3207.79, 0.000, 0.000, 0.000, 12:53:56.670
44, -3728.78, -3849.12, -4422.37, -3675.06, 0.000, 0.000, 0.000, 12:53:56.670
45, -3436.03, -3523.71, -4173.16, -3418.97, 0.000, 0.000, 0.000, 12:53:56.684
46, -2909.80, -2877.68, -3710.16, -2922.66, 0.000, 0.000, 0.000, 12:53:56.684
47, -3221.45, -3278.04, -3982.44, -3187.39, 0.000, 0.000, 0.000, 12:53:56.684
48, -3713.86, -3832.71, -4421.39, -3672.00, 0.000, 0.000, 0.000, 12:53:56.684
49, -3425.62, -3535.94, -4164.06, -3413.25, 0.000, 0.000, 0.000, 12:53:56.714
50, -2911.96, -2930.49, -3711.92, -2923.70, 0.000, 0.000, 0.000, 12:53:56.714
51, -3211.10, -3262.57, -3976.79, -3189.67, 0.000, 0.000, 0.000, 12:53:56.714
52, -3722.07, -3765.14, -4423.02, -3683.29, 0.000, 0.000, 0.000, 12:53:56.714
53, -3431.63, -3542.99, -4169.96, -3412.29, 0.000, 0.000, 0.000, 12:53:56.715
54, -2918.71, -2956.10, -3711.15, -2921.44, 0.000, 0.000, 0.000, 12:53:56.715
55, -3222.17, -3253.80, -3973.87, -3185.05, 0.000, 0.000, 0.000, 12:53:56.728
56, -3726.19, -3816.92, -4423.66, -3677.29, 0.000, 0.000, 0.000, 12:53:56.728
57, -3427.11, -3505.36, -4166.39, -3411.09, 0.000, 0.000, 0.000, 12:53:56.744
58, -2911.11, -2929.18, -3705.05, -2921.80, 0.000, 0.000, 0.000, 12:53:56.744
59, -3218.91, -3280.88, -3971.30, -3189.78, 0.000, 0.000, 0.000, 12:53:56.744
60, -3721.88, -3840.46, -4418.38, -3671.45, 0.000, 0.000, 0.000, 12:53:56.744
61, -3416.86, -3543.15, -4174.94, -3413.51, 0.000, 0.000, 0.000, 12:53:56.758
62, -2896.81, -2933.70, -3707.22, -2928.60, 0.000, 0.000, 0.000, 12:53:56.759
63, -3200.96, -3273.84, -3972.70, -3191.78, 0.000, 0.000, 0.000, 12:53:56.773
64, -3713.63, -3813.19, -4423.79, -3672.13, 0.000, 0.000, 0.000, 12:53:56.773
65, -3415.43, -3464.59, -4173.79, -3413.67, 0.000, 0.000, 0.000, 12:53:56.774
66, -2903.45, -2917.81, -3707.23, -2929.07, 0.000, 0.000, 0.000, 12:53:56.774
67, -3193.41, -3255.04, -3957.64, -3172.05, 0.000, 0.000, 0.000, 12:53:56.788
68, -3699.27, -3832.22, -4409.16, -3680.32, 0.000, 0.000, 0.000, 12:53:56.789
69, -3406.57, -3524.95, -4160.47, -3417.03, 0.000, 0.000, 0.000, 12:53:56.819
70, -2899.21, -2938.72, -3701.97, -2924.04, 0.000, 0.000, 0.000, 12:53:56.819
71, -3189.71, -3242.99, -3952.34, -3171.73, 0.000, 0.000, 0.000, 12:53:56.820
72, -3705.66, -3878.43, -4414.34, -3673.00, 0.000, 0.000, 0.000, 12:53:56.820
73, -3420.22, -3531.26, -4163.32, -3419.90, 0.000, 0.000, 0.000, 12:53:56.821
74, -2902.45, -2951.90, -3706.54, -2927.61, 0.000, 0.000, 0.000, 12:53:56.821
75, -3185.34, -3288.09, -3952.29, -3175.35, 0.000, 0.000, 0.000, 12:53:56.833
76, -3700.16, -3786.57, -4414.99, -3682.84, 0.000, 0.000, 0.000, 12:53:56.834
77, -3413.77, -3501.26, -4167.48, -3420.55, 0.000, 0.000, 0.000, 12:53:56.834
78, -2890.32, -2970.16, -3703.40, -2924.60, 0.000, 0.000, 0.000, 12:53:56.834
79, -3178.00, -3236.77, -3940.55, -3167.40, 0.000, 0.000, 0.000, 12:53:56.849
80, -3699.37, -3855.07, -4410.02, -3666.75, 0.000, 0.000, 0.000, 12:53:56.849
81, -3414.15, -3490.50, -4168.47, -3426.00, 0.000, 0.000, 0.000, 12:53:56.863
82, -2900.96, -3010.93, -3705.24, -2932.25, 0.000, 0.000, 0.000, 12:53:56.864
83, -3172.81, -3216.66, -3947.20, -3164.21, 0.000, 0.000, 0.000, 12:53:56.864
84, -3697.55, -3853.81, -4410.74, -3673.66, 0.000, 0.000, 0.000, 12:53:56.864
85, -3411.67, -3506.83, -4170.72, -3425.83, 0.000, 0.000, 0.000, 12:53:56.879
86, -2892.74, -2945.38, -3710.23, -2935.74, 0.000, 0.000, 0.000, 12:53:56.879
87, -3170.95, -3242.42, -3946.86, -3165.34, 0.000, 0.000, 0.000, 12:53:56.893
88, -3700.08, -3830.91, -4407.80, -3668.58, 0.000, 0.000, 0.000, 12:53:56.893
89, -3402.92, -3513.86, -4161.75, -3417.72, 0.000, 0.000, 0.000, 12:53:56.894
90, -2879.39, -2986.16, -3696.42, -2925.31, 0.000, 0.000, 0.000, 12:53:56.894
91, -3148.21, -3182.86, -3930.68, -3152.75, 0.000, 0.000, 0.000, 12:53:56.908
92, -3685.85, -3873.36, -4403.94, -3665.18, 0.000, 0.000, 0.000, 12:53:56.908
93, -3408.83, -3450.27, -4165.45, -3422.23, 0.000, 0.000, 0.000, 12:53:56.923
94, -2885.90, -3009.73, -3704.08, -2933.64, 0.000, 0.000, 0.000, 12:53:56.923
95, -3155.14, -3237.91, -3938.71, -3154.42, 0.000, 0.000, 0.000, 12:53:56.924
96, -3694.55, -3897.04, -4416.46, -3674.36, 0.000, 0.000, 0.000, 12:53:56.924
97, -3421.60, -3506.60, -4181.46, -3422.79, 0.000, 0.000, 0.000, 12:53:56.938
98, -2897.32, -2988.15, -3707.20, -2930.68, 0.000, 0.000, 0.000, 12:53:56.938
99, -3163.89, -3168.44, -3928.49, -3155.49, 0.000, 0.000, 0.000, 12:53:56.954
100, -3691.56, -3881.94, -4409.30, -3664.49, 0.000, 0.000, 0.000, 12:53:56.954
101, -3420.70, -3525.64, -4174.96, -3434.52, 0.000, 0.000, 0.000, 12:53:56.954
102, -2890.99, -2921.10, -3713.11, -2929.66, 0.000, 0.000, 0.000, 12:53:56.954
103, -3156.42, -3297.59, -3935.25, -3150.91, 0.000, 0.000, 0.000, 12:53:56.969
104, -3684.15, -3827.38, -4411.91, -3675.43, 0.000, 0.000, 0.000, 12:53:56.970
105, -3409.10, -3587.29, -4173.35, -3424.71, 0.000, 0.000, 0.000, 12:53:56.984
106, -2886.23, -2909.01, -3709.06, -2935.83, 0.000, 0.000, 0.000, 12:53:56.984
107, -3140.81, -3241.98, -3924.84, -3153.17, 0.000, 0.000, 0.000, 12:53:56.984
108, -3685.81, -3825.38, -4406.94, -3669.24, 0.000, 0.000, 0.000, 12:53:56.984
109, -3411.52, -3449.93, -4177.54, -3431.30, 0.000, 0.000, 0.000, 12:53:56.998
110, -2891.81, -2932.86, -3710.51, -2945.79, 0.000, 0.000, 0.000, 12:53:56.999
111, -3147.60, -3241.94, -3928.44, -3151.36, 0.000, 0.000, 0.000, 12:53:57.029
112, -3692.89, -3878.22, -4420.96, -3674.56, 0.000, 0.000, 0.000, 12:53:57.029
113, -3417.27, -3472.61, -4181.37, -3439.57, 0.000, 0.000, 0.000, 12:53:57.030
114, -2895.85, -2941.38, -3721.08, -2942.72, 0.000, 0.000, 0.000, 12:53:57.030
115, -3139.20, -3267.98, -3924.55, -3145.05, 0.000, 0.000, 0.000, 12:53:57.030
116, -3696.95, -3792.35, -4421.92, -3672.94, 0.000, 0.000, 0.000, 12:53:57.030
117, -3423.42, -3524.06, -4188.57, -3431.86, 0.000, 0.000, 0.000, 12:53:57.044
118, -2901.99, -2995.97, -3717.88, -2936.69, 0.000, 0.000, 0.000, 12:53:57.044
119, -3141.39, -3257.08, -3921.51, -3146.19, 0.000, 0.000, 0.000, 12:53:57.044
120, -3683.71, -3853.09, -4414.73, -3669.03, 0.000, 0.000, 0.000, 12:53:57.044
121, -3420.23, -3526.56, -4180.71, -3442.80, 0.000, 0.000, 0.000, 12:53:57.059
122, -2895.88, -2964.82, -3716.22, -2938.87, 0.000, 0.000, 0.000, 12:53:57.059
123, -3123.01, -3173.06, -3915.97, -3136.38, 0.000, 0.000, 0.000, 12:53:57.073
124, -3693.87, -3864.26, -4413.36, -3671.36, 0.000, 0.000, 0.000, 12:53:57.074
125, -3427.52, -3548.85, -4185.45, -3444.02, 0.000, 0.000, 0.000, 12:53:57.074
126, -2895.12, -2933.41, -3724.07, -2939.21, 0.000, 0.000, 0.000, 12:53:57.074
127, -3121.17, -3209.10, -3916.26, -3137.38, 0.000, 0.000, 0.000, 12:53:57.104
128, -3688.14, -3837.76, -4418.07, -3672.44, 0.000, 0.000, 0.000, 12:53:57.104
129, -3425.96, -3521.53, -4181.68, -3440.11, 0.000, 0.000, 0.000, 12:53:57.104
130, -2907.92, -2961.29, -3715.26, -2940.24, 0.000, 0.000, 0.000, 12:53:57.104
131, -3124.69, -3204.85, -3910.49, -3128.42, 0.000, 0.000, 0.000, 12:53:57.105
132, -3696.13, -3828.34, -4411.97, -3673.68, 0.000, 0.000, 0.000, 12:53:57.105
133, -3425.93, -3561.86, -4187.95, -3442.08, 0.000, 0.000, 0.000, 12:53:57.119
134, -2903.27, -2959.93, -3730.38, -2944.70, 0.000, 0.000, 0.000, 12:53:57.119
135, -3124.94, -3198.58, -3912.10, -3125.06, 0.000, 0.000, 0.000, 12:53:57.150
136, -3689.74, -3813.50, -4407.00, -3672.60, 0.000, 0.000, 0.000, 12:53:57.150
137, -3428.84, -3569.63, -4182.82, -3446.55, 0.000, 0.000, 0.000, 12:53:57.150
138, -2900.95, -2891.91, -3719.16, -2951.20, 0.000, 0.000, 0.000, 12:53:57.150
139, -3125.57, -3216.96, -3907.41, -3126.05, 0.000, 0.000, 0.000, 12:53:57.150
140, -3695.99, -3889.22, -4409.87, -3673.89, 0.000, 0.000, 0.000, 12:53:57.150
141, -3434.35, -3535.78, -4186.17, -3448.37, 0.000, 0.000, 0.000, 12:53:57.164
142, -2914.37, -3043.34, -3728.23, -2954.14, 0.000, 0.000, 0.000, 12:53:57.164
143, -3109.55, -3176.79, -3904.45, -3122.73, 0.000, 0.000, 0.000, 12:53:57.164
144, -3687.00, -3879.65, -4409.72, -3675.97, 0.000, 0.000, 0.000, 12:53:57.165
145, -3441.92, -3592.97, -4196.57, -3448.69, 0.000, 0.000, 0.000, 12:53:57.186
146, -2901.53, -3032.62, -3721.65, -2952.46, 0.000, 0.000, 0.000, 12:53:57.186
147, -3121.29, -3240.79, -3902.78, -3131.94, 0.000, 0.000, 0.000, 12:53:57.193
148, -3695.14, -3909.96, -4411.88, -3675.33, 0.000, 0.000, 0.000, 12:53:57.194
149, -3434.68, -3604.20, -4195.02, -3447.14, 0.000, 0.000, 0.000, 12:53:57.194
150, -2898.64, -2898.51, -3728.36, -2949.05, 0.000, 0.000, 0.000, 12:53:57.194
151, -3107.51, -3190.37, -3904.57, -3118.24, 0.000, 0.000, 0.000, 12:53:57.223
152, -3690.84, -3768.49, -4410.80, -3667.18, 0.000, 0.000, 0.000, 12:53:57.223
153, -3449.87, -3563.02, -4200.23, -3451.82, 0.000, 0.000, 0.000, 12:53:57.224
154, -2916.64, -2990.49, -3727.97, -2952.54, 0.000, 0.000, 0.000, 12:53:57.224
155, -3121.24, -3197.72, -3906.28, -3117.87, 0.000, 0.000, 0.000, 12:53:57.225
156, -3704.58, -3834.99, -4415.39, -3673.70, 0.000, 0.000, 0.000, 12:53:57.225
157, -3444.60, -3544.22, -4198.38, -3459.05, 0.000, 0.000, 0.000, 12:53:57.238
158, -2909.84, -2994.08, -3731.03, -2964.13, 0.000, 0.000, 0.000, 12:53:57.238
159, -3109.01, -3213.05, -3892.52, -3118.20, 0.000, 0.000, 0.000, 12:53:57.254
160, -3699.02, -3813.70, -4415.09, -3681.80, 0.000, 0.000, 0.000, 12:53:57.254
161, -3440.10, -3578.33, -4198.19, -3467.06, 0.000, 0.000, 0.000, 12:53:57.254
162, -2912.45, -2960.46, -3728.50, -2958.59, 0.000, 0.000, 0.000, 12:53:57.254
163, -3104.29, -3181.02, -3888.20, -3123.61, 0.000, 0.000, 0.000, 12:53:57.270
164, -3688.15, -3887.09, -4412.75, -3674.40, 0.000, 0.000, 0.000, 12:53:57.270
165, -3436.74, -3570.09, -4201.68, -3465.86, 0.000, 0.000, 0.000, 12:53:57.299
166, -2898.28, -2980.99, -3729.69, -2965.95, 0.000, 0.000, 0.000, 12:53:57.299
167, -3098.78, -3202.47, -3891.38, -3111.01, 0.000, 0.000, 0.000, 12:53:57.299
168, -3691.29, -3839.75, -4412.93, -3666.79, 0.000, 0.000, 0.000, 12:53:57.299
169, -3442.55, -3547.96, -4196.19, -3462.11, 0.000, 0.000, 0.000, 12:53:57.299
170, -2916.00, -3015.05, -3729.10, -2954.32, 0.000, 0.000, 0.000, 12:53:57.299
171, -3099.40, -3198.35, -3889.00, -3105.30, 0.000, 0.000, 0.000, 12:53:57.313
172, -3694.85, -3806.13, -4401.94, -3671.81, 0.000, 0.000, 0.000, 12:53:57.313
173, -3449.93, -3564.33, -4207.92, -3461.82, 0.000, 0.000, 0.000, 12:53:57.313
174, -2922.44, -2943.05, -3750.53, -2959.09, 0.000, 0.000, 0.000, 12:53:57.314
175, -3090.19, -3189.32, -3883.54, -3101.17, 0.000, 0.000, 0.000, 12:53:57.329
176, -3684.54, -3822.50, -4397.62, -3666.15, 0.000, 0.000, 0.000, 12:53:57.329
177, -3440.41, -3546.90, -4198.13, -3464.04, 0.000, 0.000, 0.000, 12:53:57.343
178, -2915.02, -2971.92, -3739.47, -2960.23, 0.000, 0.000, 0.000, 12:53:57.343
179, -3095.51, -3163.67, -3890.50, -3103.13, 0.000, 0.000, 0.000, 12:53:57.344
180, -3688.38, -3860.21, -4402.69, -3671.68, 0.000, 0.000, 0.000, 12:53:57.344
181, -3450.77, -3452.71, -4202.98, -3472.76, 0.000, 0.000, 0.000, 12:53:57.359
182, -2923.48, -2953.10, -3734.62, -2963.54, 0.000, 0.000, 0.000, 12:53:57.359
183, -3094.09, -3205.04, -3878.92, -3093.16, 0.000, 0.000, 0.000, 12:53:57.373
184, -3691.55, -3852.03, -4405.64, -3672.71, 0.000, 0.000, 0.000, 12:53:57.373
185, -3451.84, -3611.76, -4202.88, -3463.07, 0.000, 0.000, 0.000, 12:53:57.374
186, -2928.16, -2980.57, -3743.26, -2961.67, 0.000, 0.000, 0.000, 12:53:57.374
187, -3096.80, -3182.06, -3873.88, -3093.07, 0.000, 0.000, 0.000, 12:53:57.388
188, -3687.72, -3852.41, -4407.45, -3679.21, 0.000, 0.000, 0.000, 12:53:57.388
189, -3462.32, -3584.31, -4221.23, -3464.78, 0.000, 0.000, 0.000, 12:53:57.404
190, -2926.24, -2996.30, -3737.30, -2956.27, 0.000, 0.000, 0.000, 12:53:57.404
191, -3086.18, -3193.97, -3873.82, -3103.87, 0.000, 0.000, 0.000, 12:53:57.419
192, -3672.93, -3829.25, -4397.88, -3665.66, 0.000, 0.000, 0.000, 12:53:57.420
193, -3450.51, -3535.48, -4201.71, -3472.79, 0.000, 0.000, 0.000, 12:53:57.420
194, -2914.86, -2956.66, -3724.71, -2988.92, 0.000, 0.000, 0.000, 12:53:57.420
195, -3084.01, -3177.39, -3871.49, -3096.01, 0.000, 0.000, 0.000, 12:53:57.433
196, -3675.45, -3850.84, -4407.35, -3659.05, 0.000, 0.000, 0.000, 12:53:57.433
197, -3456.07, -3582.07, -4220.54, -3461.55, 0.000, 0.000, 0.000, 12:53:57.434
198, -2929.09, -2976.60, -3745.88, -2969.90, 0.000, 0.000, 0.000, 12:53:57.434
199, -3079.56, -3133.06, -3871.93, -3093.32, 0.000, 0.000, 0.000, 12:53:57.449
200, -3676.25, -3814.81, -4407.33, -3654.80, 0.000, 0.000, 0.000, 12:53:57.449
0, -3461.12, -3562.34, -4212.95, -3466.16, 0.000, 0.000, 0.000, 12:53:57.449
1, -2923.63, -2981.85, -3736.57, -2976.81, 0.000, 0.000, 0.000, 12:53:57.464
2, -3061.51, -3155.84, -3862.42, -3084.64, 0.000, 0.000, 0.000, 12:53:57.464
3, -3679.31, -3809.29, -4406.10, -3669.91, 0.000, 0.000, 0.000, 12:53:57.479
4, -3454.93, -3540.14, -4210.11, -3469.02, 0.000, 0.000, 0.000, 12:53:57.479
5, -2922.12, -2990.65, -3747.01, -2969.48, 0.000, 0.000, 0.000, 12:53:57.479
6, -3066.73, -3150.28, -3870.39, -3089.59, 0.000, 0.000, 0.000, 12:53:57.479
7, -3676.40, -3799.49, -4392.78, -3668.06, 0.000, 0.000, 0.000, 12:53:57.493
8, -3456.70, -3617.77, -4211.16, -3476.57, 0.000, 0.000, 0.000, 12:53:57.493
9, -2917.82, -2990.04, -3737.51, -2970.11, 0.000, 0.000, 0.000, 12:53:57.509
10, -3064.20, -3183.24, -3855.97, -3078.93, 0.000, 0.000, 0.000, 12:53:57.509
11, -3688.07, -3853.63, -4409.20, -3664.50, 0.000, 0.000, 0.000, 12:53:57.509
12, -3466.88, -3579.55, -4210.98, -3484.58, 0.000, 0.000, 0.000, 12:53:57.509
13, -2934.25, -3021.40, -3745.55, -2983.68, 0.000, 0.000, 0.000, 12:53:57.524
14, -3062.52, -3132.70, -3860.87, -3071.04, 0.000, 0.000, 0.000, 12:53:57.524
15, -3682.83, -3901.90, -4410.17, -3666.28, 0.000, 0.000, 0.000, 12:53:57.539
16, -3463.53, -3565.03, -4211.71, -3476.49, 0.000, 0.000, 0.000, 12:53:57.539
17, -2930.38, -2960.23, -3746.36, -2978.83, 0.000, 0.000, 0.000, 12:53:57.539
18, -3064.67, -3060.50, -3857.47, -3077.03, 0.000, 0.000, 0.000, 12:53:57.539
19, -3684.84, -3841.66, -4406.72, -3657.59, 0.000, 0.000, 0.000, 12:53:57.560
20, -3464.51, -3549.96, -4221.38, -3478.72, 0.000, 0.000, 0.000, 12:53:57.560
21, -2931.57, -2982.76, -3749.38, -2979.18, 0.000, 0.000, 0.000, 12:53:57.570
22, -3060.59, -3165.31, -3855.12, -3069.29, 0.000, 0.000, 0.000, 12:53:57.570
23, -3684.69, -3868.95, -4404.39, -3660.20, 0.000, 0.000, 0.000, 12:53:57.586
24, -3467.24, -3611.22, -4221.61, -3471.06, 0.000, 0.000, 0.000, 12:53:57.586
25, -2930.03, -3039.38, -3747.86, -2975.04, 0.000, 0.000, 0.000, 12:53:57.586
26, -3061.43, -3191.87, -3852.91, -3072.71, 0.000, 0.000, 0.000, 12:53:57.586
27, -3683.43, -3788.87, -4394.85, -3666.88, 0.000, 0.000, 0.000, 12:53:57.599
28, -3475.92, -3641.50, -4229.40, -3480.78, 0.000, 0.000, 0.000, 12:53:57.600
29, -2941.53, -3025.86, -3751.76, -2974.97, 0.000, 0.000, 0.000, 12:53:57.600
30, -3063.29, -3124.09, -3858.01, -3072.99, 0.000, 0.000, 0.000, 12:53:57.600
31, -3688.40, -3793.49, -4397.26, -3664.21, 0.000, 0.000, 0.000, 12:53:57.614
32, -3481.97, -3590.63, -4228.63, -3486.82, 0.000, 0.000, 0.000, 12:53:57.614
33, -2949.71, -3010.85, -3761.67, -2987.98, 0.000, 0.000, 0.000, 12:53:57.629
34, -3061.05, -3122.16, -3854.37, -3069.38, 0.000, 0.000, 0.000, 12:53:57.629
35, -3686.94, -3787.16, -4402.10, -3671.24, 0.000, 0.000, 0.000, 12:53:57.629
36, -3477.69, -3620.11, -4227.47, -3486.00, 0.000, 0.000, 0.000, 12:53:57.629
37, -2941.95, -2989.88, -3751.22, -2981.97, 0.000, 0.000, 0.000, 12:53:57.659
38, -3042.76, -3160.33, -3841.17, -3058.76, 0.000, 0.000, 0.000, 12:53:57.659
39, -3676.75, -3836.99, -4400.37, -3656.38, 0.000, 0.000, 0.000, 12:53:57.659
40, -3471.15, -3553.12, -4226.45, -3483.22, 0.000, 0.000, 0.000, 12:53:57.659
41, -2933.16, -3004.03, -3754.98, -2990.19, 0.000, 0.000, 0.000, 12:53:57.660
42, -3041.00, -3123.07, -3843.30, -3060.15, 0.000, 0.000, 0.000, 12:53:57.660
43, -3670.64, -3788.11, -4402.10, -3655.07, 0.000, 0.000, 0.000, 12:53:57.674
44, -3475.69, -3522.78, -4230.46, -3486.16, 0.000, 0.000, 0.000, 12:53:57.674
45, -2944.79, -3010.97, -3761.69, -2984.04, 0.000, 0.000, 0.000, 12:53:57.688
46, -3046.39, -3139.70, -3841.68, -3052.79, 0.000, 0.000, 0.000, 12:53:57.688
47, -3676.50, -3866.12, -4401.86, -3656.19, 0.000, 0.000, 0.000, 12:53:57.703
48, -3477.35, -3592.44, -4236.87, -3484.78, 0.000, 0.000, 0.000, 12:53:57.703
49, -2946.52, -2977.45, -3763.25, -2988.81, 0.000, 0.000, 0.000, 12:53:57.704
50, -3038.23, -3191.91, -3842.81, -3051.86, 0.000, 0.000, 0.000, 12:53:57.704
51, -3673.46, -3881.77, -4401.56, -3657.24, 0.000, 0.000, 0.000, 12:53:57.719
52, -3480.10, -3532.91, -4226.06, -3493.15, 0.000, 0.000, 0.000, 12:53:57.719
53, -2943.45, -3059.25, -3758.04, -2988.20, 0.000, 0.000, 0.000, 12:53:57.720
54, -3027.00, -3160.11, -3831.36, -3054.53, 0.000, 0.000, 0.000, 12:53:57.720
55, -3661.90, -3726.86, -4393.52, -3656.29, 0.000, 0.000, 0.000, 12:53:57.733
56, -3480.52, -3647.31, -4232.25, -3487.77, 0.000, 0.000, 0.000, 12:53:57.733
57, -2940.19, -3083.12, -3759.61, -2985.44, 0.000, 0.000, 0.000, 12:53:57.749
58, -3039.21, -3128.41, -3829.56, -3042.89, 0.000, 0.000, 0.000, 12:53:57.749
59, -3680.25, -3777.42, -4395.97, -3652.00, 0.000, 0.000, 0.000, 12:53:57.749
60, -3479.03, -3678.43, -4223.76, -3477.31, 0.000, 0.000, 0.000, 12:53:57.749
61, -2941.70, -2927.61, -3753.57, -2993.23, 0.000, 0.000, 0.000, 12:53:57.764
62, -3031.19, -3116.69, -3826.28, -3049.49, 0.000, 0.000, 0.000, 12:53:57.764
63, -3670.51, -3839.41, -4397.30, -3652.67, 0.000, 0.000, 0.000, 12:53:57.778
64, -3473.52, -3643.14, -4230.36, -3492.22, 0.000, 0.000, 0.000, 12:53:57.779
65, -2938.80, -2943.23, -3761.34, -2988.96, 0.000, 0.000, 0.000, 12:53:57.779
66, -3028.29, -3106.15, -3829.21, -3039.15, 0.000, 0.000, 0.000, 12:53:57.780
67, -3687.92, -3851.19, -4400.62, -3651.98, 0.000, 0.000, 0.000, 12:53:57.794
68, -3489.35, -3582.49, -4238.31, -3496.69, 0.000, 0.000, 0.000, 12:53:57.794
69, -2953.15, -3032.93, -3770.15, -3002.10, 0.000, 0.000, 0.000, 12:53:57.808
70, -3028.63, -3071.59, -3831.75, -3041.59, 0.000, 0.000, 0.000, 12:53:57.809
71, -3679.44, -3823.07, -4401.57, -3657.71, 0.000, 0.000, 0.000, 12:53:57.809
72, -3487.84, -3604.87, -4239.76, -3500.73, 0.000, 0.000, 0.000, 12:53:57.809
73, -2945.42, -3019.47, -3756.99, -2988.98, 0.000, 0.000, 0.000, 12:53:57.823
74, -3016.26, -3145.14, -3815.56, -3039.70, 0.000, 0.000, 0.000, 12:53:57.823
75, -3665.05, -3889.37, -4394.09, -3647.87, 0.000, 0.000, 0.000, 12:53:57.839
76, -3484.02, -3676.92, -4236.01, -3496.86, 0.000, 0.000, 0.000, 12:53:57.839
77, -2949.46, -3003.98, -3764.28, -2996.34, 0.000, 0.000, 0.000, 12:53:57.839
78, -3025.81, -3019.35, -3822.01, -3039.57, 0.000, 0.000, 0.000, 12:53:57.840
79, -3671.80, -3852.96, -4393.05, -3654.09, 0.000, 0.000, 0.000, 12:53:57.854
80, -3484.70, -3599.46, -4236.12, -3495.60, 0.000, 0.000, 0.000, 12:53:57.854
81, -2948.97, -3036.85, -3760.74, -2999.08, 0.000, 0.000, 0.000, 12:53:57.868
82, -3012.21, -3048.64, -3808.20, -3041.95, 0.000, 0.000, 0.000, 12:53:57.869
83, -3671.42, -3803.27, -4390.08, -3648.03, 0.000, 0.000, 0.000, 12:53:57.870
84, -3491.82, -3575.46, -4237.27, -3485.49, 0.000, 0.000, 0.000, 12:53:57.870
85, -2953.66, -3021.84, -3769.96, -2991.19, 0.000, 0.000, 0.000, 12:53:57.884
86, -3010.68, -3083.70, -3810.93, -3024.30, 0.000, 0.000, 0.000, 12:53:57.885
87, -3669.81, -3817.50, -4389.52, -3645.13, 0.000, 0.000, 0.000, 12:53:57.899
88, -3476.23, -3588.14, -4235.95, -3490.63, 0.000, 0.000, 0.000, 12:53:57.900
89, -2944.32, -3000.17, -3764.47, -2996.24, 0.000, 0.000, 0.000, 12:53:57.900
90, -2995.66, -3068.13, -3803.49, -3024.96, 0.000, 0.000, 0.000, 12:53:57.900
91, -3655.84, -3862.27, -4372.70, -3636.30, 0.000, 0.000, 0.000, 12:53:57.928
92, -3488.72, -3608.02, -4233.98, -3504.05, 0.000, 0.000, 0.000, 12:53:57.928
93, -2959.03, -3051.36, -3763.86, -3001.74, 0.000, 0.000, 0.000, 12:53:57.929
94, -3007.24, -3114.46, -3804.84, -3034.74, 0.000, 0.000, 0.000, 12:53:57.929
95, -3665.20, -3882.69, -4390.48, -3656.21, 0.000, 0.000, 0.000, 12:53:57.929
96, -3493.46, -3627.19, -4238.51, -3509.93, 0.000, 0.000, 0.000, 12:53:57.929
97, -2956.44, -3013.29, -3768.90, -3004.77, 0.000, 0.000, 0.000, 12:53:57.944
98, -3008.97, -3134.45, -3810.82, -3037.94, 0.000, 0.000, 0.000, 12:53:57.944
99, -3664.58, -3784.65, -4380.07, -3648.69, 0.000, 0.000, 0.000, 12:53:57.959
100, -3489.96, -3526.75, -4232.03, -3505.97, 0.000, 0.000, 0.000, 12:53:57.959
101, -2971.97, -3082.31, -3779.05, -3008.73, 0.000, 0.000, 0.000, 12:53:57.959
102, -3008.60, -3025.44, -3810.71, -3029.31, 0.000, 0.000, 0.000, 12:53:57.959
103, -3661.88, -3720.47, -4392.36, -3640.43, 0.000, 0.000, 0.000, 12:53:57.973
104, -3496.03, -3588.60, -4246.11, -3506.00, 0.000, 0.000, 0.000, 12:53:57.973
105, -2964.06, -3101.37, -3784.53, -3007.69, 0.000, 0.000, 0.000, 12:53:57.989
106, -2997.46, -3043.08, -3799.43, -3016.28, 0.000, 0.000, 0.000, 12:53:57.989
107, -3654.80, -3838.74, -4385.39, -3639.59, 0.000, 0.000, 0.000, 12:53:57.989
