%OpenBCI Raw EEG Data
%
%Sample Rate = 200.0 Hz
%First Column = SampleIndex
%Last Column = Timestamp 
%Other Columns = EEG data in microvolts followed by Accel Data (in G) interleaved with Aux Data
0, -1049.70, -965.56, -1560.26, -837.91, 0.000, 0.000, 0.000, 12:33:56.906
1, -1785.97, -1751.47, -2286.84, -1546.27, 0.000, 0.000, 0.000, 12:33:56.908
2, -2585.18, -2630.54, -3019.01, -2356.57, 0.000, 0.000, 0.000, 12:33:56.908
3, -1973.59, -1972.03, -2416.44, -1750.82, 0.000, 0.000, 0.000, 12:33:56.918
4, -1053.70, -1948.76, -1569.37, -825.63, 0.000, 0.000, 0.000, 12:33:56.919
5, -1781.37, -2706.74, -2273.47, -1533.68, 0.000, 0.000, 0.000, 12:33:56.933
6, -2593.37, -3597.74, -3022.41, -2351.33, 0.000, 0.000, 0.000, 12:33:56.934
7, -1980.05, -2958.00, -2424.96, -1763.68, 0.000, 0.000, 0.000, 12:33:56.935
8, -1051.31, -2931.86, -1559.55, -829.94, 0.000, 0.000, 0.000, 12:33:56.936
9, -1760.57, -3678.92, -2263.77, -1521.99, 0.000, 0.000, 0.000, 12:33:56.950
10, -2586.13, -4581.98, -3013.95, -2340.18, 0.000, 0.000, 0.000, 12:33:56.951
11, -1976.31, -3933.05, -2427.87, -1755.97, 0.000, 0.000, 0.000, 12:33:56.963
12, -1040.67, -3905.75, -1556.77, -841.29, 0.000, 0.000, 0.000, 12:33:56.964
13, -1755.66, -4645.71, -2253.39, -1511.65, 0.000, 0.000, 0.000, 12:33:56.964
14, -2588.55, -5555.45, -3014.24, -2334.60, 0.000, 0.000, 0.000, 12:33:56.964
15, -1993.68, -4931.83, -2438.64, -1759.27, 0.000, 0.000, 0.000, 12:33:56.993
16, -1060.15, -4902.63, -1563.49, -839.60, 0.000, 0.000, 0.000, 12:33:56.993
17, -1751.60, -5632.07, -2249.56, -1503.91, 0.000, 0.000, 0.000, 12:33:56.994
18, -2584.94, -6546.19, -3017.46, -2338.97, 0.000, 0.000, 0.000, 12:33:56.995
19, -1992.13, -5910.74, -2441.63, -1770.14, 0.000, 0.000, 0.000, 12:33:56.995
20, -1054.72, -5868.42, -1558.41, -841.19, 0.000, 0.000, 0.000, 12:33:56.996
21, -1730.47, -6588.32, -2221.69, -1505.40, 0.000, 0.000, 0.000, 12:33:56.998
22, -2590.22, -7523.26, -3015.35, -2334.23, 0.000, 0.000, 0.000, 12:33:57.000
23, -1998.57, -6900.40, -2443.90, -1778.16, 0.000, 0.000, 0.000, 12:33:57.025
24, -1051.22, -6845.55, -1558.06, -840.33, 0.000, 0.000, 0.000, 12:33:57.027
25, -1714.76, -7547.54, -2212.15, -1468.83, 0.000, 0.000, 0.000, 12:33:57.027
26, -2592.84, -8499.44, -3019.99, -2354.60, 0.000, 0.000, 0.000, 12:33:57.028
27, -2000.36, -7878.03, -2443.91, -1775.72, 0.000, 0.000, 0.000, 12:33:57.038
28, -1055.68, -7831.31, -1556.95, -839.59, 0.000, 0.000, 0.000, 12:33:57.039
29, -1711.46, -8520.63, -2201.91, -1465.86, 0.000, 0.000, 0.000, 12:33:57.039
30, -2595.95, -9494.44, -3019.12, -2343.66, 0.000, 0.000, 0.000, 12:33:57.039
31, -2015.54, -8860.00, -2458.91, -1783.94, 0.000, 0.000, 0.000, 12:33:57.053
32, -1064.18, -8818.44, -1572.03, -847.86, 0.000, 0.000, 0.000, 12:33:57.054
33, -1699.06, -9478.17, -2187.65, -1446.38, 0.000, 0.000, 0.000, 12:33:57.075
34, -2587.69, -9480.22, -3009.18, -2338.98, 0.000, 0.000, 0.000, 12:33:57.075
35, -2016.03, -8872.52, -2456.84, -1794.67, 0.000, 0.000, 0.000, 12:33:57.085
36, -1069.99, -8832.02, -1569.72, -850.91, 0.000, 0.000, 0.000, 12:33:57.085
37, -1684.13, -9472.78, -2178.43, -1447.49, 0.000, 0.000, 0.000, 12:33:57.086
38, -2587.86, -9484.20, -3013.70, -2352.21, 0.000, 0.000, 0.000, 12:33:57.087
39, -2013.72, -8860.00, -2458.35, -1781.81, 0.000, 0.000, 0.000, 12:33:57.099
40, -1073.78, -8823.34, -1575.62, -842.69, 0.000, 0.000, 0.000, 12:33:57.099
41, -1676.61, -9460.98, -2174.77, -1432.58, 0.000, 0.000, 0.000, 12:33:57.099
42, -2587.94, -9468.99, -3013.54, -2335.74, 0.000, 0.000, 0.000, 12:33:57.100
43, -2020.13, -8871.42, -2467.92, -1792.43, 0.000, 0.000, 0.000, 12:33:57.120
44, -1071.06, -8828.58, -1582.61, -863.52, 0.000, 0.000, 0.000, 12:33:57.120
45, -1653.60, -9454.07, -2163.47, -1423.37, 0.000, 0.000, 0.000, 12:33:57.144
46, -2582.11, -9474.00, -3011.96, -2333.91, 0.000, 0.000, 0.000, 12:33:57.144
47, -2027.21, -8872.72, -2461.81, -1799.51, 0.000, 0.000, 0.000, 12:33:57.144
48, -1071.13, -8820.30, -1568.70, -863.91, 0.000, 0.000, 0.000, 12:33:57.145
49, -1657.02, -9443.00, -2147.92, -1413.80, 0.000, 0.000, 0.000, 12:33:57.145
50, -2587.06, -9482.36, -3015.40, -2339.66, 0.000, 0.000, 0.000, 12:33:57.145
51, -2036.50, -8892.40, -2476.16, -1806.17, 0.000, 0.000, 0.000, 12:33:57.146
52, -1079.38, -8826.48, -1577.78, -858.30, 0.000, 0.000, 0.000, 12:33:57.146
53, -1635.72, -9424.04, -2141.43, -1406.22, 0.000, 0.000, 0.000, 12:33:57.158
54, -2594.37, -9490.41, -3022.96, -2348.14, 0.000, 0.000, 0.000, 12:33:57.159
55, -2041.02, -8891.70, -2475.92, -1812.22, 0.000, 0.000, 0.000, 12:33:57.173
56, -1080.40, -8837.64, -1579.17, -860.61, 0.000, 0.000, 0.000, 12:33:57.173
57, -1628.80, -9400.31, -2118.40, -1388.11, 0.000, 0.000, 0.000, 12:33:57.189
58, -2588.69, -9477.36, -3014.53, -2337.46, 0.000, 0.000, 0.000, 12:33:57.190
59, -2049.90, -8899.52, -2492.52, -1813.17, 0.000, 0.000, 0.000, 12:33:57.190
60, -1077.38, -8832.88, -1576.27, -865.37, 0.000, 0.000, 0.000, 12:33:57.190
61, -1605.48, -9400.14, -2114.64, -1381.55, 0.000, 0.000, 0.000, 12:33:57.219
62, -1608.99, -9481.62, -3007.08, -2341.71, 0.000, 0.000, 0.000, 12:33:57.219
63, -1062.39, -8899.56, -2492.30, -1827.01, 0.000, 0.000, 0.000, 12:33:57.220
64, -103.42, -8849.35, -1592.67, -880.19, 0.000, 0.000, 0.000, 12:33:57.220
65, -632.30, -9392.20, -2115.70, -1370.09, 0.000, 0.000, 0.000, 12:33:57.221
66, -1610.00, -9475.57, -3016.47, -2346.36, 0.000, 0.000, 0.000, 12:33:57.221
67, -1084.87, -8924.51, -2497.38, -1840.78, 0.000, 0.000, 0.000, 12:33:57.234
68, -117.26, -8864.14, -1602.02, -876.42, 0.000, 0.000, 0.000, 12:33:57.234
69, -628.85, -9396.02, -2106.20, -1368.07, 0.000, 0.000, 0.000, 12:33:57.263
70, -641.67, -9482.27, -3022.97, -2342.24, 0.000, 0.000, 0.000, 12:33:57.263
71, -104.22, -8923.51, -2505.20, -1841.03, 0.000, 0.000, 0.000, 12:33:57.264
72, 871.98, -8851.61, -1603.01, -882.81, 0.000, 0.000, 0.000, 12:33:57.264
73, 379.15, -9363.15, -2090.60, -1348.19, 0.000, 0.000, 0.000, 12:33:57.265
74, 373.00, -9460.72, -2997.46, -2324.80, 0.000, 0.000, 0.000, 12:33:57.266
75, 867.71, -8935.51, -2517.96, -1845.64, 0.000, 0.000, 0.000, 12:33:57.267
76, 1842.95, -8863.39, -1605.54, -872.49, 0.000, 0.000, 0.000, 12:33:57.267
77, 1366.91, -9356.75, -2085.48, -1343.60, 0.000, 0.000, 0.000, 12:33:57.278
78, 1335.21, -9481.65, -3026.26, -1364.08, 0.000, 0.000, 0.000, 12:33:57.278
79, 1827.85, -8960.88, -2548.01, -881.88, 0.000, 0.000, 0.000, 12:33:57.293
80, 1828.33, -8867.79, -1602.80, 76.38, 0.000, 0.000, 0.000, 12:33:57.293
81, 1384.03, -9320.06, -2044.58, -354.25, 0.000, 0.000, 0.000, 12:33:57.308
82, 1317.05, -9467.56, -2990.73, -398.65, 0.000, 0.000, 0.000, 12:33:57.309
83, 1812.45, -8928.01, -2506.83, 84.58, 0.000, 0.000, 0.000, 12:33:57.309
84, 2785.55, -8853.40, -1573.02, 1035.02, 0.000, 0.000, 0.000, 12:33:57.309
85, 2344.57, -9312.16, -2010.75, 596.43, 0.000, 0.000, 0.000, 12:33:57.339
86, 2292.33, -9468.70, -2966.62, 565.75, 0.000, 0.000, 0.000, 12:33:57.340
87, 2802.54, -8916.74, -2479.29, 1049.36, 0.000, 0.000, 0.000, 12:33:57.341
88, 3757.31, -8855.83, -1568.26, 2008.69, 0.000, 0.000, 0.000, 12:33:57.342
89, 3319.51, -9302.63, -2013.58, 1589.01, 0.000, 0.000, 0.000, 12:33:57.343
90, 3257.91, -9469.54, -2983.72, 1538.40, 0.000, 0.000, 0.000, 12:33:57.343
91, 3754.04, -8951.88, -2508.27, 2014.78, 0.000, 0.000, 0.000, 12:33:57.368
92, 3761.27, -8872.63, -1596.11, 2988.24, 0.000, 0.000, 0.000, 12:33:57.369
93, 3341.71, -9302.51, -2022.46, 2581.13, 0.000, 0.000, 0.000, 12:33:57.369
94, 3270.96, -9477.35, -2025.92, 2533.84, 0.000, 0.000, 0.000, 12:33:57.369
95, 3772.63, -8957.41, -1540.56, 3014.32, 0.000, 0.000, 0.000, 12:33:57.370
96, 4749.71, -8877.60, -622.61, 3981.18, 0.000, 0.000, 0.000, 12:33:57.370
97, 4347.61, -9302.58, -1032.85, 3602.96, 0.000, 0.000, 0.000, 12:33:57.383
98, 4268.85, -9462.82, -2013.21, 3528.36, 0.000, 0.000, 0.000, 12:33:57.384
99, 4743.73, -8968.85, -1560.46, 3993.44, 0.000, 0.000, 0.000, 12:33:57.398
100, 4748.84, -8882.05, -632.31, 4955.03, 0.000, 0.000, 0.000, 12:33:57.399
101, 4351.75, -9301.65, -1041.82, 4603.42, 0.000, 0.000, 0.000, 12:33:57.429
102, 4266.98, -9476.95, -1061.07, 4519.98, 0.000, 0.000, 0.000, 12:33:57.429
103, 4739.22, -8966.91, -573.97, 4963.40, 0.000, 0.000, 0.000, 12:33:57.443
104, 4745.14, -8883.07, 340.15, 4965.96, 0.000, 0.000, 0.000, 12:33:57.443
105, 4361.88, -9282.20, -39.10, 4605.96, 0.000, 0.000, 0.000, 12:33:57.444
106, 4268.30, -9464.42, -70.28, 4507.84, 0.000, 0.000, 0.000, 12:33:57.445
107, 4731.95, -8982.01, 383.54, 4963.77, 0.000, 0.000, 0.000, 12:33:57.445
108, 4735.28, -8913.22, 1295.82, 5937.72, 0.000, 0.000, 0.000, 12:33:57.445
109, 4378.62, -9273.53, 941.50, 5595.38, 0.000, 0.000, 0.000, 12:33:57.458
110, 4273.22, -9470.80, 910.29, 5503.35, 0.000, 0.000, 0.000, 12:33:57.458
111, 4742.35, -8989.54, 1346.01, 5954.66, 0.000, 0.000, 0.000, 12:33:57.458
112, 5719.21, -8894.05, 2285.33, 6921.67, 0.000, 0.000, 0.000, 12:33:57.458
113, 5381.83, -9249.59, 1940.17, 6599.10, 0.000, 0.000, 0.000, 12:33:57.466
114, 5261.93, -9464.31, 1894.63, 6480.54, 0.000, 0.000, 0.000, 12:33:57.467
115, 5733.17, -8967.57, 2343.94, 6922.89, 0.000, 0.000, 0.000, 12:33:57.473
116, 6710.31, -8912.62, 3270.54, 6929.23, 0.000, 0.000, 0.000, 12:33:57.473
117, 6379.99, -9250.54, 2919.49, 6607.61, 0.000, 0.000, 0.000, 12:33:57.489
118, 6254.02, -9463.67, 2873.49, 6497.78, 0.000, 0.000, 0.000, 12:33:57.489
119, 6710.76, -8976.98, 3330.12, 6932.29, 0.000, 0.000, 0.000, 12:33:57.490
120, 7681.90, -8909.25, 4239.34, 7891.61, 0.000, 0.000, 0.000, 12:33:57.490
121, 7373.84, -9227.15, 3922.73, 7598.49, 0.000, 0.000, 0.000, 12:33:57.504
122, 7234.94, -9463.21, 3849.97, 7476.17, 0.000, 0.000, 0.000, 12:33:57.506
123, 7670.89, -8991.01, 4299.69, 7900.19, 0.000, 0.000, 0.000, 12:33:57.534
124, 7672.97, -8922.51, 5211.21, 8858.25, 0.000, 0.000, 0.000, 12:33:57.535
125, 7377.65, -9218.31, 4899.58, 8586.87, 0.000, 0.000, 0.000, 12:33:57.552
126, 7231.47, -9471.20, 4833.09, 8448.76, 0.000, 0.000, 0.000, 12:33:57.552
127, 7663.26, -9009.62, 5262.51, 8876.03, 0.000, 0.000, 0.000, 12:33:57.552
128, 7668.31, -8923.01, 6187.57, 9841.54, 0.000, 0.000, 0.000, 12:33:57.552
129, 7389.20, -9201.19, 5897.53, 9571.14, 0.000, 0.000, 0.000, 12:33:57.552
130, 7228.32, -9473.00, 5818.55, 9444.26, 0.000, 0.000, 0.000, 12:33:57.552
131, 7661.39, -9019.22, 6240.58, 9865.00, 0.000, 0.000, 0.000, 12:33:57.553
132, 7669.46, -8912.23, 7171.51, 10819.97, 0.000, 0.000, 0.000, 12:33:57.553
133, 7387.93, -9198.14, 6876.79, 10576.13, 0.000, 0.000, 0.000, 12:33:57.578
134, 7230.92, -9464.76, 6795.45, 10418.31, 0.000, 0.000, 0.000, 12:33:57.579
135, 7650.75, -9027.13, 7204.58, 10811.11, 0.000, 0.000, 0.000, 12:33:57.579
136, 8629.48, -8941.73, 8136.55, 11783.73, 0.000, 0.000, 0.000, 12:33:57.580
137, 8372.91, -9201.33, 7867.42, 11547.30, 0.000, 0.000, 0.000, 12:33:57.580
138, 8199.70, -9484.56, 7768.02, 11385.56, 0.000, 0.000, 0.000, 12:33:57.580
139, 8613.25, -9051.69, 8180.53, 11785.86, 0.000, 0.000, 0.000, 12:33:57.623
140, 8626.90, -8935.78, 9116.08, 12751.62, 0.000, 0.000, 0.000, 12:33:57.623
141, 8389.36, -9188.17, 8861.42, 12542.83, 0.000, 0.000, 0.000, 12:33:57.623
142, 8215.44, -9462.51, 8750.42, 12377.62, 0.000, 0.000, 0.000, 12:33:57.623
143, 8613.26, -9041.74, 9155.07, 12756.17, 0.000, 0.000, 0.000, 12:33:57.625
144, 9584.49, -8979.75, 10073.36, 13716.23, 0.000, 0.000, 0.000, 12:33:57.625
145, 9387.42, -9183.23, 9852.79, 13533.89, 0.000, 0.000, 0.000, 12:33:57.625
146, 9194.31, -9477.21, 9726.14, 13352.92, 0.000, 0.000, 0.000, 12:33:57.626
147, 9609.82, -9071.98, 10109.80, 13741.12, 0.000, 0.000, 0.000, 12:33:57.638
148, 9619.88, -8975.13, 11054.53, 13748.92, 0.000, 0.000, 0.000, 12:33:57.639
149, 9416.23, -9182.88, 10832.44, 13538.98, 0.000, 0.000, 0.000, 12:33:57.639
150, 9218.63, -9471.54, 10712.89, 13362.98, 0.000, 0.000, 0.000, 12:33:57.639
151, 9600.73, -9067.61, 11099.67, 13741.35, 0.000, 0.000, 0.000, 12:33:57.669
152, 10580.46, -8984.24, 12019.65, 14705.01, 0.000, 0.000, 0.000, 12:33:57.669
153, 10379.75, -9182.37, 11811.29, 14519.83, 0.000, 0.000, 0.000, 12:33:57.669
154, 10162.30, -9477.12, 11677.82, 14317.55, 0.000, 0.000, 0.000, 12:33:57.669
155, 10558.36, -9079.07, 12074.94, 14716.04, 0.000, 0.000, 0.000, 12:33:57.670
156, 10569.99, -8988.26, 12998.42, 15667.95, 0.000, 0.000, 0.000, 12:33:57.670
157, 10376.68, -9178.81, 12789.90, 15512.99, 0.000, 0.000, 0.000, 12:33:57.698
158, 10176.77, -9478.51, 12667.24, 15318.90, 0.000, 0.000, 0.000, 12:33:57.699
159, 10550.73, -9081.16, 13039.69, 15682.76, 0.000, 0.000, 0.000, 12:33:57.700
160, 10559.10, -8984.38, 13972.01, 16658.88, 0.000, 0.000, 0.000, 12:33:57.700
161, 10388.86, -9149.32, 13796.41, 16498.88, 0.000, 0.000, 0.000, 12:33:57.700
162, 10179.98, -9462.94, 13649.64, 16303.75, 0.000, 0.000, 0.000, 12:33:57.700
163, 10538.87, -9087.37, 14014.36, 16651.59, 0.000, 0.000, 0.000, 12:33:57.714
164, 10546.80, -9002.75, 14940.84, 17617.05, 0.000, 0.000, 0.000, 12:33:57.714
165, 10391.79, -9153.44, 14764.74, 17481.53, 0.000, 0.000, 0.000, 12:33:57.729
166, 10165.06, -9469.16, 14629.13, 17282.22, 0.000, 0.000, 0.000, 12:33:57.729
167, 10521.08, -9097.90, 14984.11, 17629.32, 0.000, 0.000, 0.000, 12:33:57.729
168, 10533.32, -9015.93, 15922.98, 18590.62, 0.000, 0.000, 0.000, 12:33:57.730
169, 10387.51, -9155.30, 15756.16, 18457.18, 0.000, 0.000, 0.000, 12:33:57.744
170, 10173.77, -9471.49, 15617.25, 18251.83, 0.000, 0.000, 0.000, 12:33:57.744
171, 10530.75, -9094.99, 15958.87, 18602.16, 0.000, 0.000, 0.000, 12:33:57.774
172, 10539.33, -9017.92, 16900.25, 19564.79, 0.000, 0.000, 0.000, 12:33:57.774
173, 10420.75, -9117.39, 16770.36, 19458.60, 0.000, 0.000, 0.000, 12:33:57.783
174, 10178.21, -9474.29, 16598.53, 19244.81, 0.000, 0.000, 0.000, 12:33:57.784
175, 10522.63, -9101.97, 16944.08, 19579.57, 0.000, 0.000, 0.000, 12:33:57.784
176, 10527.88, -9017.17, 17877.99, 20540.81, 0.000, 0.000, 0.000, 12:33:57.784
177, 10422.39, -9117.41, 17749.58, 20449.56, 0.000, 0.000, 0.000, 12:33:57.784
178, 10171.06, -9471.40, 17575.77, 20225.45, 0.000, 0.000, 0.000, 12:33:57.785
179, 10513.10, -9114.36, 17911.24, 20560.68, 0.000, 0.000, 0.000, 12:33:57.789
180, 10520.64, -9015.65, 18857.86, 21522.03, 0.000, 0.000, 0.000, 12:33:57.790
181, 10416.91, -9113.90, 18726.39, 21439.34, 0.000, 0.000, 0.000, 12:33:57.804
182, 10180.97, -9455.58, 18563.02, 21204.57, 0.000, 0.000, 0.000, 12:33:57.804
183, 10513.37, -9111.96, 18906.23, 21526.36, 0.000, 0.000, 0.000, 12:33:57.818
184, 10513.68, -9022.18, 19822.52, 22493.94, 0.000, 0.000, 0.000, 12:33:57.819
185, 10424.57, -9094.57, 19718.60, 22438.30, 0.000, 0.000, 0.000, 12:33:57.821
186, 10182.26, -9451.75, 19548.66, 22201.63, 0.000, 0.000, 0.000, 12:33:57.821
187, 10509.54, -9098.17, 19882.76, 22507.18, 0.000, 0.000, 0.000, 12:33:57.834
188, 11488.70, -9037.36, 20798.64, 23470.42, 0.000, 0.000, 0.000, 12:33:57.834
189, 11428.62, -9079.71, 20718.61, 23434.15, 0.000, 0.000, 0.000, 12:33:57.848
190, 11183.41, -9437.25, 20547.13, 23179.05, 0.000, 0.000, 0.000, 12:33:57.849
191, 11494.86, -9099.66, 20869.01, 23489.49, 0.000, 0.000, 0.000, 12:33:57.867
192, 11495.37, -9027.42, 21784.12, 24455.89, 0.000, 0.000, 0.000, 12:33:57.867
193, 11439.28, -9072.84, 21708.32, 24405.26, 0.000, 0.000, 0.000, 12:33:57.868
194, 11181.00, -9439.81, 21525.59, 24178.15, 0.000, 0.000, 0.000, 12:33:57.869
195, 11479.25, -9123.72, 21829.38, 24458.70, 0.000, 0.000, 0.000, 12:33:57.878
196, 11479.27, -9037.03, 22759.82, 25424.81, 0.000, 0.000, 0.000, 12:33:57.878
197, 11448.53, -9062.30, 22697.14, 25393.21, 0.000, 0.000, 0.000, 12:33:57.879
198, 11182.73, -9436.44, 22506.35, 25151.84, 0.000, 0.000, 0.000, 12:33:57.879
199, 11469.19, -9128.87, 22809.04, 25431.98, 0.000, 0.000, 0.000, 12:33:57.894
200, 12448.37, -9048.70, 23725.02, 26399.52, 0.000, 0.000, 0.000, 12:33:57.894
0, -1298.62, -1208.84, -1803.57, -1064.61, 0.000, 0.000, 0.000, 12:33:57.901
1, -1568.23, -1583.09, -2005.17, -1327.37, 0.000, 0.000, 0.000, 12:33:57.908
2, -1281.30, -1293.40, -1711.76, -1044.52, 0.000, 0.000, 0.000, 12:33:57.909
3, -1278.32, -1214.38, -784.57, -72.05, 0.000, 0.000, 0.000, 12:33:57.923
4, -1294.97, -1208.80, -826.04, -78.57, 0.000, 0.000, 0.000, 12:33:57.923
5, -1562.34, -1584.23, -1013.33, -326.91, 0.000, 0.000, 0.000, 12:33:57.924
6, -1280.75, -1287.21, -729.87, -72.57, 0.000, 0.000, 0.000, 12:33:57.924
7, -304.13, -1227.73, 186.47, 893.61, 0.000, 0.000, 0.000, 12:33:57.938
8, -299.54, -1204.83, 163.90, 916.48, 0.000, 0.000, 0.000, 12:33:57.939
9, -577.57, -1571.31, -38.82, 646.94, 0.000, 0.000, 0.000, 12:33:57.969
10, -302.69, -1296.50, 239.18, 898.48, 0.000, 0.000, 0.000, 12:33:57.969
11, 672.88, -1226.11, 1163.11, 1867.13, 0.000, 0.000, 0.000, 12:33:57.969
12, 687.99, -1185.86, 1150.91, 1899.66, 0.000, 0.000, 0.000, 12:33:57.969
13, 399.84, -1584.47, 938.15, 1635.77, 0.000, 0.000, 0.000, 12:33:57.970
14, 666.60, -1314.82, 1210.96, 1869.28, 0.000, 0.000, 0.000, 12:33:57.970
15, 1636.60, -1231.06, 2138.96, 2830.17, 0.000, 0.000, 0.000, 12:33:57.970
16, 1674.65, -1176.41, 2133.85, 2878.07, 0.000, 0.000, 0.000, 12:33:57.971
17, 1388.65, -1569.39, 1924.61, 2615.48, 0.000, 0.000, 0.000, 12:33:57.999
18, 1634.53, -1310.26, 2177.50, 2852.19, 0.000, 0.000, 0.000, 12:33:58.000
19, 2613.23, -1244.38, 3105.10, 3816.70, 0.000, 0.000, 0.000, 12:33:58.001
20, 2666.87, -1164.57, 3139.59, 3866.41, 0.000, 0.000, 0.000, 12:33:58.001
21, 2370.32, -1575.45, 2913.82, 3597.36, 0.000, 0.000, 0.000, 12:33:58.014
22, 2612.97, -1323.28, 3159.99, 3829.59, 0.000, 0.000, 0.000, 12:33:58.014
23, 3585.18, -1242.64, 4079.38, 4776.75, 0.000, 0.000, 0.000, 12:33:58.028
24, 3645.87, -1157.80, 4121.94, 4858.61, 0.000, 0.000, 0.000, 12:33:58.029
25, 3350.95, -1558.38, 3893.81, 4582.75, 0.000, 0.000, 0.000, 12:33:58.029
26, 3587.14, -1318.55, 4147.72, 4798.87, 0.000, 0.000, 0.000, 12:33:58.029
27, 4552.54, -1271.80, 5050.73, 5761.04, 0.000, 0.000, 0.000, 12:33:58.043
28, 4629.64, -1160.84, 5096.56, 5852.50, 0.000, 0.000, 0.000, 12:33:58.044
29, 4333.40, -1554.52, 4878.17, 5560.76, 0.000, 0.000, 0.000, 12:33:58.044
30, 4571.18, -1322.86, 5125.05, 5782.16, 0.000, 0.000, 0.000, 12:33:58.044
31, 5530.33, -1265.02, 6030.07, 6724.62, 0.000, 0.000, 0.000, 12:33:58.058
32, 5625.17, -1150.40, 6097.63, 6844.70, 0.000, 0.000, 0.000, 12:33:58.058
33, 5311.16, -1559.48, 5860.39, 6559.44, 0.000, 0.000, 0.000, 12:33:58.073
34, 5542.47, -1340.81, 6090.87, 6753.35, 0.000, 0.000, 0.000, 12:33:58.073
35, 6510.17, -1275.25, 7002.94, 7703.87, 0.000, 0.000, 0.000, 12:33:58.073
36, 6611.64, -1144.76, 7074.57, 7818.83, 0.000, 0.000, 0.000, 12:33:58.074
37, 6309.01, -1557.26, 6849.77, 7533.50, 0.000, 0.000, 0.000, 12:33:58.088
38, 6514.22, -1346.74, 7066.34, 7725.56, 0.000, 0.000, 0.000, 12:33:58.089
39, 7485.34, -1277.46, 7988.93, 8688.24, 0.000, 0.000, 0.000, 12:33:58.104
40, 7602.84, -1134.09, 8062.26, 8804.18, 0.000, 0.000, 0.000, 12:33:58.104
41, 7299.15, -1537.21, 7836.09, 8534.84, 0.000, 0.000, 0.000, 12:33:58.104
42, 7495.01, -1338.13, 8046.19, 8711.43, 0.000, 0.000, 0.000, 12:33:58.105
43, 8469.15, -1272.30, 8968.19, 9659.83, 0.000, 0.000, 0.000, 12:33:58.118
44, 8595.80, -1118.66, 9069.49, 9793.57, 0.000, 0.000, 0.000, 12:33:58.118
45, 8289.99, -1526.28, 8826.05, 9514.57, 0.000, 0.000, 0.000, 12:33:58.133
46, 8469.92, -1351.32, 9016.00, 9696.28, 0.000, 0.000, 0.000, 12:33:58.133
47, 9436.92, -1274.91, 9924.23, 10634.45, 0.000, 0.000, 0.000, 12:33:58.134
48, 9586.71, -1108.67, 10044.33, 10800.88, 0.000, 0.000, 0.000, 12:33:58.134
49, 9254.58, -1551.32, 9790.39, 10487.48, 0.000, 0.000, 0.000, 12:33:58.149
50, 9441.86, -1355.60, 9993.24, 10657.00, 0.000, 0.000, 0.000, 12:33:58.149
51, 10409.48, -1297.04, 10907.25, 11600.81, 0.000, 0.000, 0.000, 12:33:58.163
52, 10568.08, -1112.36, 11024.71, 11762.48, 0.000, 0.000, 0.000, 12:33:58.165
53, 10255.96, -1535.26, 10772.08, 11471.43, 0.000, 0.000, 0.000, 12:33:58.178
54, 10419.23, -1364.58, 10967.54, 11638.94, 0.000, 0.000, 0.000, 12:33:58.179
55, 11375.15, -1316.83, 11874.79, 12572.48, 0.000, 0.000, 0.000, 12:33:58.193
56, 11545.21, -1103.34, 12011.65, 12757.37, 0.000, 0.000, 0.000, 12:33:58.193
57, 11234.07, -1523.56, 11767.28, 12469.23, 0.000, 0.000, 0.000, 12:33:58.194
58, 11403.53, -1361.97, 11950.12, 12599.84, 0.000, 0.000, 0.000, 12:33:58.194
59, 12365.28, -1307.24, 12855.11, 13544.71, 0.000, 0.000, 0.000, 12:33:58.196
60, 12555.16, -1087.77, 13005.99, 13756.00, 0.000, 0.000, 0.000, 12:33:58.196
61, 12229.28, -1522.45, 12755.37, 13446.94, 0.000, 0.000, 0.000, 12:33:58.223
62, 12384.92, -1375.19, 12929.51, 13598.36, 0.000, 0.000, 0.000, 12:33:58.223
63, 13338.67, -1323.21, 13824.48, 14529.11, 0.000, 0.000, 0.000, 12:33:58.223
64, 13536.48, -1078.34, 13990.16, 14736.40, 0.000, 0.000, 0.000, 12:33:58.223
65, 13201.97, -1518.88, 13732.96, 14429.78, 0.000, 0.000, 0.000, 12:33:58.224
66, 13346.15, -1403.45, 13888.07, 14554.89, 0.000, 0.000, 0.000, 12:33:58.224
67, 14302.09, -1357.20, 14800.43, 15495.07, 0.000, 0.000, 0.000, 12:33:58.253
68, 14512.33, -1081.78, 14977.98, 15706.33, 0.000, 0.000, 0.000, 12:33:58.253
69, 14209.45, -1530.27, 14718.40, 15423.23, 0.000, 0.000, 0.000, 12:33:58.254
70, 14322.87, -1383.87, 14855.97, 15515.39, 0.000, 0.000, 0.000, 12:33:58.254
71, 15291.54, -1381.75, 15787.42, 16468.96, 0.000, 0.000, 0.000, 12:33:58.255
72, 15533.55, -1114.63, 15977.25, 16712.40, 0.000, 0.000, 0.000, 12:33:58.255
73, 15218.21, -1510.50, 15718.80, 16399.41, 0.000, 0.000, 0.000, 12:33:58.268
74, 15356.39, -1397.32, 15855.71, 16502.55, 0.000, 0.000, 0.000, 12:33:58.269
75, 16325.63, -1361.10, 16761.50, 17449.04, 0.000, 0.000, 0.000, 12:33:58.284
76, 16585.88, -1110.14, 16965.12, 17694.54, 0.000, 0.000, 0.000, 12:33:58.285
77, 16265.66, -1523.44, 16702.87, 17383.13, 0.000, 0.000, 0.000, 12:33:58.286
78, 16400.97, -1431.67, 16842.06, 17493.51, 0.000, 0.000, 0.000, 12:33:58.286
79, 17334.02, -1390.87, 17733.20, 18413.32, 0.000, 0.000, 0.000, 12:33:58.298
80, 17591.98, -1089.54, 17946.58, 18680.55, 0.000, 0.000, 0.000, 12:33:58.299
81, 17274.96, -1514.93, 17701.07, 18388.26, 0.000, 0.000, 0.000, 12:33:58.329
82, 17361.20, -1427.28, 17811.04, 18472.04, 0.000, 0.000, 0.000, 12:33:58.330
83, 18287.84, -1400.49, 18694.86, 19385.98, 0.000, 0.000, 0.000, 12:33:58.330
84, 18542.20, -1093.11, 18922.80, 19658.54, 0.000, 0.000, 0.000, 12:33:58.330
85, 18211.40, -1504.34, 18680.30, 19372.15, 0.000, 0.000, 0.000, 12:33:58.331
86, 18289.56, -1423.13, 18785.75, 19453.80, 0.000, 0.000, 0.000, 12:33:58.331
87, 19226.27, -1378.87, 19677.91, 20357.53, 0.000, 0.000, 0.000, 12:33:58.331
88, 19501.60, -1060.53, 19922.58, 20650.34, 0.000, 0.000, 0.000, 12:33:58.332
89, 19155.37, -1502.99, 19656.91, 20346.82, 0.000, 0.000, 0.000, 12:33:58.344
90, 19238.03, -1411.57, 19764.92, 20414.83, 0.000, 0.000, 0.000, 12:33:58.344
91, 20159.73, -1376.39, 20644.87, 21315.72, 0.000, 0.000, 0.000, 12:33:58.359
92, 20442.05, -1047.74, 20898.22, 21626.76, 0.000, 0.000, 0.000, 12:33:58.359
93, 20106.48, -1469.96, 20646.50, 21335.32, 0.000, 0.000, 0.000, 12:33:58.388
94, 20171.18, -1421.64, 20724.02, 21384.73, 0.000, 0.000, 0.000, 12:33:58.388
95, 21091.94, -1394.56, 21601.15, 22290.09, 0.000, 0.000, 0.000, 12:33:58.390
96, 21397.81, -1038.54, 21875.06, 22616.59, 0.000, 0.000, 0.000, 12:33:58.390
97, 21068.84, -1465.26, 21618.89, 22315.65, 0.000, 0.000, 0.000, 12:33:58.390
98, 21119.94, -1408.81, 21698.76, 22366.70, 0.000, 0.000, 0.000, 12:33:58.390
99, 22052.29, -1374.18, 22579.67, 23277.16, 0.000, 0.000, 0.000, 12:33:58.390
100, 22383.04, -1017.17, 22868.88, 23601.01, 0.000, 0.000, 0.000, 12:33:58.390
101, 22053.09, -1447.45, 22607.52, 23298.59, 0.000, 0.000, 0.000, 12:33:58.409
102, 22097.89, -1407.42, 22675.42, 23345.89, 0.000, 0.000, 0.000, 12:33:58.409
103, 23020.65, -1395.17, 23551.17, 24245.77, 0.000, 0.000, 0.000, 12:33:58.418
104, 23353.45, -1016.24, 23847.10, 24590.82, 0.000, 0.000, 0.000, 12:33:58.418
105, 23028.32, -1436.15, 23583.51, 24292.13, 0.000, 0.000, 0.000, 12:33:58.434
106, 23065.22, -1416.15, 23639.34, 24316.99, 0.000, 0.000, 0.000, 12:33:58.435
107, 23989.05, -1398.68, 24523.88, 25211.72, 0.000, 0.000, 0.000, 12:33:58.435
108, 24333.43, -1006.99, 24826.68, 25563.67, 0.000, 0.000, 0.000, 12:33:58.435
109, 23998.21, -1430.15, 24559.56, 25265.79, 0.000, 0.000, 0.000, 12:33:58.449
110, 24029.97, -1428.37, 24607.15, 25281.94, 0.000, 0.000, 0.000, 12:33:58.450
111, 24945.43, -1418.07, 25492.60, 26183.31, 0.000, 0.000, 0.000, 12:33:58.464
112, 25312.52, -1012.38, 25804.25, 26545.86, 0.000, 0.000, 0.000, 12:33:58.464
113, 24992.58, -1435.02, 25542.35, 26258.30, 0.000, 0.000, 0.000, 12:33:58.464
114, 25003.18, -1433.79, 25582.47, 26266.42, 0.000, 0.000, 0.000, 12:33:58.465
115, 25915.28, -1430.27, 26446.31, 27155.33, 0.000, 0.000, 0.000, 12:33:58.478
116, 26292.02, -1001.88, 26792.79, 27536.58, 0.000, 0.000, 0.000, 12:33:58.478
117, 25970.33, -1425.41, 26535.08, 27242.95, 0.000, 0.000, 0.000, 12:33:58.493
118, 25967.17, -1437.47, 26562.21, 27234.27, 0.000, 0.000, 0.000, 12:33:58.493
119, 26900.20, -1427.79, 27436.31, 28126.89, 0.000, 0.000, 0.000, 12:33:58.494
120, 27268.56, -1000.70, 27777.74, 28513.35, 0.000, 0.000, 0.000, 12:33:58.494
121, 26946.20, -1423.75, 27519.24, 28231.06, 0.000, 0.000, 0.000, 12:33:58.508
122, 26954.59, -1438.97, 27533.79, 28226.69, 0.000, 0.000, 0.000, 12:33:58.508
123, 27877.27, -463.18, 28407.35, 29112.33, 0.000, 0.000, 0.000, 12:33:58.524
124, 28291.72, -6.54, 28762.28, 29515.87, 0.000, 0.000, 0.000, 12:33:58.524
125, 27968.86, -420.59, 28518.24, 29225.44, 0.000, 0.000, 0.000, 12:33:58.530
126, 27949.77, -463.37, 28515.21, 29190.59, 0.000, 0.000, 0.000, 12:33:58.530
127, 28837.27, 498.69, 29372.89, 30065.12, 0.000, 0.000, 0.000, 12:33:58.539
128, 29271.74, 991.40, 29762.75, 30506.71, 0.000, 0.000, 0.000, 12:33:58.539
129, 28938.69, 575.92, 29511.42, 30220.91, 0.000, 0.000, 0.000, 12:33:58.553
130, 28896.85, 519.49, 29507.42, 30169.84, 0.000, 0.000, 0.000, 12:33:58.553
131, 29804.56, 1484.14, 30367.50, 31058.22, 0.000, 0.000, 0.000, 12:33:58.553
132, 30240.13, 1981.39, 30748.71, 31481.69, 0.000, 0.000, 0.000, 12:33:58.553
133, 29916.55, 1552.35, 30500.40, 31196.79, 0.000, 0.000, 0.000, 12:33:58.569
134, 29870.49, 1489.27, 30478.77, 31129.55, 0.000, 0.000, 0.000, 12:33:58.569
135, 30770.88, 2445.71, 31332.67, 31998.80, 0.000, 0.000, 0.000, 12:33:58.614
136, 31205.64, 2920.75, 31708.40, 32446.73, 0.000, 0.000, 0.000, 12:33:58.614
137, 30886.06, 2501.57, 31448.63, 32164.05, 0.000, 0.000, 0.000, 12:33:58.658
138, 30840.65, 2434.00, 31427.57, 32098.14, 0.000, 0.000, 0.000, 12:33:58.658
139, 31732.78, 3393.80, 32280.28, 32968.00, 0.000, 0.000, 0.000, 12:33:58.659
140, 32171.88, 3897.45, 32680.49, 33416.89, 0.000, 0.000, 0.000, 12:33:58.659
141, 31868.67, 3498.97, 32445.16, 33142.37, 0.000, 0.000, 0.000, 12:33:58.659
142, 31832.74, 3408.28, 32409.88, 33066.52, 0.000, 0.000, 0.000, 12:33:58.660
143, 32710.96, 4360.72, 33255.07, 33946.11, 0.000, 0.000, 0.000, 12:33:58.660
144, 33147.33, 4876.58, 33667.80, 34410.14, 0.000, 0.000, 0.000, 12:33:58.660
145, 32917.72, 4497.06, 33437.82, 34148.26, 0.000, 0.000, 0.000, 12:33:58.661
146, 32830.29, 4399.08, 33392.29, 34062.93, 0.000, 0.000, 0.000, 12:33:58.662
147, 33717.34, 5355.35, 34246.70, 34931.38, 0.000, 0.000, 0.000, 12:33:58.662
148, 34184.93, 5877.78, 34665.49, 35402.21, 0.000, 0.000, 0.000, 12:33:58.662
149, 33900.82, 5497.30, 34451.93, 35153.07, 0.000, 0.000, 0.000, 12:33:58.663
150, 33849.23, 5391.83, 34398.25, 35062.98, 0.000, 0.000, 0.000, 12:33:58.663
155, 34737.09, 6342.63, 35232.40, 35923.05, 0.000, 0.000, 0.000, 12:33:58.674
156, 35181.98, 6893.28, 35676.34, 36422.75, 0.000, 0.000, 0.000, 12:33:58.674
157, 34913.19, 6509.28, 35451.91, 36157.77, 0.000, 0.000, 0.000, 12:33:58.689
158, 34787.30, 6376.30, 35379.23, 36042.12, 0.000, 0.000, 0.000, 12:33:58.689
159, 35644.55, 7313.03, 36207.39, 36893.11, 0.000, 0.000, 0.000, 12:33:58.733
160, 36038.94, 7881.34, 36663.85, 37414.08, 0.000, 0.000, 0.000, 12:33:58.733
161, 35811.49, 7503.83, 36447.17, 37168.34, 0.000, 0.000, 0.000, 12:33:58.733
162, 35858.86, 7364.14, 36367.70, 37046.25, 0.000, 0.000, 0.000, 12:33:58.734
163, 36705.48, 8287.55, 37187.73, 37884.78, 0.000, 0.000, 0.000, 12:33:58.750
164, 37200.61, 8862.90, 37655.34, 38403.04, 0.000, 0.000, 0.000, 12:33:58.750
165, 36915.67, 8480.38, 37423.40, 38144.97, 0.000, 0.000, 0.000, 12:33:58.751
166, 36768.13, 8327.41, 37333.08, 37997.02, 0.000, 0.000, 0.000, 12:33:58.752
167, 37638.12, 9271.71, 38168.94, 38857.87, 0.000, 0.000, 0.000, 12:33:58.754
168, 38163.34, 9856.15, 38644.10, 39391.02, 0.000, 0.000, 0.000, 12:33:58.757
169, 37865.85, 9469.79, 38406.42, 39138.32, 0.000, 0.000, 0.000, 12:33:58.757
170, 37733.91, 9297.47, 38304.05, 38978.26, 0.000, 0.000, 0.000, 12:33:58.757
171, 38601.69, 10232.89, 39118.65, 39821.52, 0.000, 0.000, 0.000, 12:33:58.758
172, 39128.03, 10825.28, 39614.82, 40354.47, 0.000, 0.000, 0.000, 12:33:58.759
173, 38850.39, 10463.96, 39399.84, 40120.23, 0.000, 0.000, 0.000, 12:33:58.770
174, 38745.30, 10282.60, 39282.52, 39950.88, 0.000, 0.000, 0.000, 12:33:58.770
175, 39603.46, 11225.03, 40112.32, 40806.76, 0.000, 0.000, 0.000, 12:33:58.790
176, 40148.56, 11830.74, 40616.66, 41358.56, 0.000, 0.000, 0.000, 12:33:58.790
177, 39875.25, 11463.87, 40400.71, 41122.98, 0.000, 0.000, 0.000, 12:33:58.808
178, 39711.71, 11268.24, 40265.33, 40932.05, 0.000, 0.000, 0.000, 12:33:58.808
179, 40575.73, 12189.25, 41089.04, 41778.83, 0.000, 0.000, 0.000, 12:33:58.808
180, 41120.30, 12791.92, 41582.25, 42330.08, 0.000, 0.000, 0.000, 12:33:58.808
181, 40860.06, 12433.96, 41360.12, 42080.07, 0.000, 0.000, 0.000, 12:33:58.810
182, 40656.88, 12207.18, 41206.18, 41878.07, 0.000, 0.000, 0.000, 12:33:58.810
183, 41549.77, 13139.42, 42050.42, 42729.84, 0.000, 0.000, 0.000, 12:33:58.813
184, 42141.13, 13773.41, 42567.14, 43322.69, 0.000, 0.000, 0.000, 12:33:58.814
185, 41874.25, 13415.77, 42354.85, 43084.84, 0.000, 0.000, 0.000, 12:33:58.829
186, 41706.42, 13197.53, 42203.27, 42883.04, 0.000, 0.000, 0.000, 12:33:58.830
187, 42539.10, 14101.55, 43001.66, 43705.79, 0.000, 0.000, 0.000, 12:33:58.839
188, 43125.78, 14755.11, 43544.77, 44302.68, 0.000, 0.000, 0.000, 12:33:58.839
189, 42860.52, 14394.90, 43336.89, 44054.32, 0.000, 0.000, 0.000, 12:33:58.855
190, 42663.13, 14173.22, 43178.42, 43850.99, 0.000, 0.000, 0.000, 12:33:58.855
191, 43504.36, 15071.73, 43980.85, 44670.06, 0.000, 0.000, 0.000, 12:33:58.856
192, 44093.76, 15735.75, 44517.55, 45266.94, 0.000, 0.000, 0.000, 12:33:58.856
193, 43839.77, 15394.18, 44330.05, 45049.46, 0.000, 0.000, 0.000, 12:33:58.887
194, 43621.37, 15145.18, 44153.93, 44825.69, 0.000, 0.000, 0.000, 12:33:58.887
195, 44474.34, 16058.34, 44960.52, 45653.73, 0.000, 0.000, 0.000, 12:33:58.888
196, 45064.59, 16709.99, 45496.46, 46251.92, 0.000, 0.000, 0.000, 12:33:58.888
197, 44836.76, 16388.00, 45316.68, 46035.36, 0.000, 0.000, 0.000, 12:33:58.889
198, 44604.20, 16125.60, 45126.61, 45805.34, 0.000, 0.000, 0.000, 12:33:58.889
199, 45438.62, 17020.64, 45922.46, 46614.18, 0.000, 0.000, 0.000, 12:33:58.905
200, 46049.73, 17697.46, 46483.85, 47230.01, 0.000, 0.000, 0.000, 12:33:58.905
0, -2210.26, -2239.89, -2718.92, -2007.10, 0.000, 0.000, 0.000, 12:33:58.905
1, -2457.36, -2512.31, -2914.72, -2262.53, 0.000, 0.000, 0.000, 12:33:58.927
2, -1618.37, -1616.52, -2116.63, -1427.96, 0.000, 0.000, 0.000, 12:33:58.927
3, -999.06, -924.51, -1535.47, -804.20, 0.000, 0.000, 0.000, 12:33:58.929
4, -1230.20, -1249.38, -1720.52, -1007.10, 0.000, 0.000, 0.000, 12:33:58.930
5, -1484.35, -1539.42, -1932.70, -1271.60, 0.000, 0.000, 0.000, 12:33:58.934
6, -641.05, -644.65, -1137.94, -456.00, 0.000, 0.000, 0.000, 12:33:58.934
7, -24.79, 32.58, -565.13, 164.34, 0.000, 0.000, 0.000, 12:33:58.958
8, -243.04, -262.97, -734.54, -27.72, 0.000, 0.000, 0.000, 12:33:58.958
9, -497.02, -556.52, -946.53, -292.44, 0.000, 0.000, 0.000, 12:33:58.959
10, 329.42, 337.29, -154.35, 520.36, 0.000, 0.000, 0.000, 12:33:58.959
11, 971.10, 1044.77, 431.86, 1160.28, 0.000, 0.000, 0.000, 12:33:58.960
12, 750.23, 734.82, 253.59, 975.73, 0.000, 0.000, 0.000, 12:33:58.960
13, 475.66, 425.14, 35.14, 689.86, 0.000, 0.000, 0.000, 12:33:58.975
14, 1295.18, 1298.77, 814.71, 1494.98, 0.000, 0.000, 0.000, 12:33:58.976
15, 1952.47, 2026.31, 1419.68, 2151.81, 0.000, 0.000, 0.000, 12:33:59.019
16, 1741.73, 1720.73, 1254.50, 1955.47, 0.000, 0.000, 0.000, 12:33:59.019
17, 1443.94, 1387.16, 993.80, 1659.90, 0.000, 0.000, 0.000, 12:33:59.019
18, 2250.90, 2268.89, 1777.42, 2464.40, 0.000, 0.000, 0.000, 12:33:59.019
19, 2923.29, 2995.80, 2395.96, 3127.55, 0.000, 0.000, 0.000, 12:33:59.020
20, 2724.81, 2717.75, 2237.08, 2950.70, 0.000, 0.000, 0.000, 12:33:59.020
21, 2431.51, 2377.94, 1985.31, 2645.84, 0.000, 0.000, 0.000, 12:33:59.033
22, 3235.32, 3254.62, 2759.76, 3441.66, 0.000, 0.000, 0.000, 12:33:59.034
23, 3907.65, 3981.10, 3379.23, 4112.25, 0.000, 0.000, 0.000, 12:33:59.034
24, 3717.66, 3707.52, 3228.57, 3941.31, 0.000, 0.000, 0.000, 12:33:59.034
25, 3406.54, 3360.26, 2964.57, 3632.38, 0.000, 0.000, 0.000, 12:33:59.034
26, 4206.03, 4219.43, 3724.08, 4403.88, 0.000, 0.000, 0.000, 12:33:59.034
27, 4888.28, 4966.56, 4360.34, 5093.82, 0.000, 0.000, 0.000, 12:33:59.042
28, 4699.00, 4687.78, 4213.71, 4922.46, 0.000, 0.000, 0.000, 12:33:59.042
29, 4376.27, 4332.99, 3944.66, 4605.87, 0.000, 0.000, 0.000, 12:33:59.049
30, 5180.63, 5186.77, 4703.65, 5391.68, 0.000, 0.000, 0.000, 12:33:59.049
31, 5869.17, 5955.82, 5340.67, 6088.85, 0.000, 0.000, 0.000, 12:33:59.093
32, 5673.84, 5678.73, 5196.56, 5916.01, 0.000, 0.000, 0.000, 12:33:59.093
33, 5352.84, 5305.66, 4915.12, 5587.94, 0.000, 0.000, 0.000, 12:33:59.093
34, 6151.08, 6166.16, 5683.07, 6362.26, 0.000, 0.000, 0.000, 12:33:59.094
35, 6851.52, 6936.85, 6327.60, 7066.46, 0.000, 0.000, 0.000, 12:33:59.094
36, 6674.48, 6671.16, 6189.48, 6910.34, 0.000, 0.000, 0.000, 12:33:59.095
37, 6321.46, 6281.35, 5882.55, 6550.10, 0.000, 0.000, 0.000, 12:33:59.096
38, 7111.55, 7125.69, 6637.98, 7323.27, 0.000, 0.000, 0.000, 12:33:59.096
39, 7825.57, 7916.45, 7298.81, 8038.23, 0.000, 0.000, 0.000, 12:33:59.096
40, 7660.93, 7661.81, 7177.73, 7903.06, 0.000, 0.000, 0.000, 12:33:59.096
41, 7293.18, 7255.68, 6865.08, 7538.94, 0.000, 0.000, 0.000, 12:33:59.109
42, 8079.40, 8094.95, 7612.50, 8300.68, 0.000, 0.000, 0.000, 12:33:59.109
43, 8802.00, 8896.36, 8281.31, 9020.11, 0.000, 0.000, 0.000, 12:33:59.123
44, 8642.07, 8649.39, 8166.75, 8883.72, 0.000, 0.000, 0.000, 12:33:59.124
45, 8273.60, 8233.52, 7846.05, 8494.33, 0.000, 0.000, 0.000, 12:33:59.162
46, 9053.98, 9077.59, 8593.87, 9273.69, 0.000, 0.000, 0.000, 12:33:59.162
47, 9789.88, 9873.67, 9270.83, 10000.34, 0.000, 0.000, 0.000, 12:33:59.162
48, 9631.53, 9644.43, 9152.49, 9848.66, 0.000, 0.000, 0.000, 12:33:59.162
49, 9230.93, 9203.30, 8812.38, 9459.94, 0.000, 0.000, 0.000, 12:33:59.166
50, 10024.90, 10049.28, 9559.76, 10261.57, 0.000, 0.000, 0.000, 12:33:59.166
51, 10764.51, 10862.91, 10225.31, 11012.01, 0.000, 0.000, 0.000, 12:33:59.170
52, 10628.96, 10652.71, 10138.83, 10897.67, 0.000, 0.000, 0.000, 12:33:59.170
53, 10230.13, 10204.79, 9780.17, 10483.97, 0.000, 0.000, 0.000, 12:33:59.171
54, 11006.22, 11033.59, 10530.43, 11251.05, 0.000, 0.000, 0.000, 12:33:59.171
55, 11762.35, 11861.26, 11228.02, 11998.18, 0.000, 0.000, 0.000, 12:33:59.214
56, 11628.29, 11638.42, 11125.99, 11883.72, 0.000, 0.000, 0.000, 12:33:59.214
57, 11218.22, 11186.54, 10771.70, 11466.33, 0.000, 0.000, 0.000, 12:33:59.223
58, 11995.88, 12016.53, 11515.96, 12235.04, 0.000, 0.000, 0.000, 12:33:59.223
59, 12747.56, 12844.97, 12220.63, 12982.93, 0.000, 0.000, 0.000, 12:33:59.235
60, 12632.59, 12650.28, 12134.38, 12885.95, 0.000, 0.000, 0.000, 12:33:59.237
61, 12203.06, 12171.78, 11763.85, 12452.07, 0.000, 0.000, 0.000, 12:33:59.238
62, 12976.08, 12999.93, 12505.98, 13199.06, 0.000, 0.000, 0.000, 12:33:59.239
63, 13725.25, 13816.99, 13198.67, 13952.04, 0.000, 0.000, 0.000, 12:33:59.240
64, 13625.45, 13628.77, 13130.18, 13868.96, 0.000, 0.000, 0.000, 12:33:59.240
65, 13182.59, 13140.86, 12746.11, 13428.35, 0.000, 0.000, 0.000, 12:33:59.240
66, 13942.07, 13964.43, 13473.03, 14162.19, 0.000, 0.000, 0.000, 12:33:59.241
67, 14705.40, 14802.98, 14185.51, 14922.97, 0.000, 0.000, 0.000, 12:33:59.243
68, 14606.77, 14627.67, 14123.06, 14849.89, 0.000, 0.000, 0.000, 12:33:59.244
69, 14160.22, 14118.79, 13717.47, 14392.78, 0.000, 0.000, 0.000, 12:33:59.288
70, 14906.62, 14920.72, 14439.19, 15121.81, 0.000, 0.000, 0.000, 12:33:59.288
71, 15684.35, 15773.79, 15162.23, 15897.43, 0.000, 0.000, 0.000, 12:33:59.288
72, 15588.78, 15608.61, 15110.07, 15835.09, 0.000, 0.000, 0.000, 12:33:59.288
73, 15122.61, 15082.97, 14689.51, 15371.98, 0.000, 0.000, 0.000, 12:33:59.290
74, 15884.30, 15892.30, 15412.24, 16098.22, 0.000, 0.000, 0.000, 12:33:59.290
75, 16664.35, 16755.30, 16138.99, 16873.71, 0.000, 0.000, 0.000, 12:33:59.291
76, 16577.00, 16593.32, 16090.86, 16820.68, 0.000, 0.000, 0.000, 12:33:59.291
77, 16107.24, 16063.09, 15673.86, 16340.48, 0.000, 0.000, 0.000, 12:33:59.292
78, 16844.09, 16862.94, 16377.12, 17063.10, 0.000, 0.000, 0.000, 12:33:59.292
79, 17637.27, 17717.57, 17112.83, 17845.15, 0.000, 0.000, 0.000, 12:33:59.303
80, 17577.27, 17582.67, 17080.08, 17807.53, 0.000, 0.000, 0.000, 12:33:59.303
81, 17082.84, 17038.90, 16640.04, 17312.44, 0.000, 0.000, 0.000, 12:33:59.318
82, 17824.02, 17834.41, 17350.38, 18040.40, 0.000, 0.000, 0.000, 12:33:59.319
83, 18623.63, 18708.86, 18093.27, 18826.30, 0.000, 0.000, 0.000, 12:33:59.321
84, 18561.17, 18567.34, 18062.29, 18788.37, 0.000, 0.000, 0.000, 12:33:59.322
85, 18064.51, 18022.56, 17628.26, 18297.42, 0.000, 0.000, 0.000, 12:33:59.334
86, 18797.81, 18806.22, 18330.02, 19012.87, 0.000, 0.000, 0.000, 12:33:59.334
87, 19595.49, 19685.33, 19075.33, 19805.64, 0.000, 0.000, 0.000, 12:33:59.363
88, 19540.83, 19562.11, 19053.14, 19786.09, 0.000, 0.000, 0.000, 12:33:59.363
89, 19038.47, 18992.08, 18598.01, 19264.07, 0.000, 0.000, 0.000, 12:33:59.363
90, 19761.02, 19775.26, 19299.45, 19974.97, 0.000, 0.000, 0.000, 12:33:59.363
91, 20571.35, 20662.87, 20054.49, 20785.35, 0.000, 0.000, 0.000, 12:33:59.364
92, 20528.87, 20557.61, 20045.87, 20768.64, 0.000, 0.000, 0.000, 12:33:59.364
93, 20006.02, 19968.10, 19573.90, 20234.00, 0.000, 0.000, 0.000, 12:33:59.365
94, 20726.37, 20739.79, 20255.79, 20948.71, 0.000, 0.000, 0.000, 12:33:59.365
95, 21543.76, 21633.64, 21021.86, 21762.74, 0.000, 0.000, 0.000, 12:33:59.395
96, 21513.47, 21528.53, 20042.12, 21753.94, 0.000, 0.000, 0.000, 12:33:59.395
97, 20973.13, 20927.55, 19562.14, 21210.81, 0.000, 0.000, 0.000, 12:33:59.396
98, 21695.33, 21707.25, 20251.91, 21913.34, 0.000, 0.000, 0.000, 12:33:59.396
99, 22525.22, 22609.26, 21020.33, 22725.56, 0.000, 0.000, 0.000, 12:33:59.439
100, 22503.63, 22514.88, 20048.43, 21754.73, 0.000, 0.000, 0.000, 12:33:59.439
101, 21950.57, 21901.77, 19552.17, 21204.39, 0.000, 0.000, 0.000, 12:33:59.440
102, 22665.55, 22672.42, 20235.26, 21904.81, 0.000, 0.000, 0.000, 12:33:59.441
103, 23492.99, 23586.39, 21007.07, 22728.66, 0.000, 0.000, 0.000, 12:33:59.441
104, 23491.14, 23507.34, 20055.05, 21768.42, 0.000, 0.000, 0.000, 12:33:59.441
105, 22932.23, 22893.07, 19558.44, 21210.96, 0.000, 0.000, 0.000, 12:33:59.442
106, 23638.63, 23649.07, 20232.45, 21901.05, 0.000, 0.000, 0.000, 12:33:59.442
107, 24478.84, 24569.17, 21011.90, 22735.03, 0.000, 0.000, 0.000, 12:33:59.442
108, 23499.69, 24505.46, 20071.98, 21778.46, 0.000, 0.000, 0.000, 12:33:59.442
109, 22920.75, 23875.18, 19541.48, 21200.10, 0.000, 0.000, 0.000, 12:33:59.453
110, 23624.95, 24623.57, 20223.87, 21887.80, 0.000, 0.000, 0.000, 12:33:59.453
111, 24475.07, 25552.75, 21020.15, 22737.75, 0.000, 0.000, 0.000, 12:33:59.468
112, 23516.44, 25506.93, 20086.17, 21795.32, 0.000, 0.000, 0.000, 12:33:59.468
113, 22922.77, 24852.64, 19567.46, 21207.63, 0.000, 0.000, 0.000, 12:33:59.469
114, 23624.87, 25601.68, 20232.30, 21890.56, 0.000, 0.000, 0.000, 12:33:59.469
115, 24475.23, 26533.70, 21022.93, 22735.90, 0.000, 0.000, 0.000, 12:33:59.484
116, 23525.91, 26492.88, 20094.87, 21804.71, 0.000, 0.000, 0.000, 12:33:59.484
117, 22922.01, 25830.21, 19550.74, 21201.50, 0.000, 0.000, 0.000, 12:33:59.498
118, 23616.00, 26568.29, 20219.48, 21872.22, 0.000, 0.000, 0.000, 12:33:59.498
119, 24471.41, 27498.66, 21018.97, 22732.78, 0.000, 0.000, 0.000, 12:33:59.499
120, 23535.05, 27483.70, 20105.33, 21819.70, 0.000, 0.000, 0.000, 12:33:59.500
121, 22921.70, 26810.17, 19553.17, 21209.09, 0.000, 0.000, 0.000, 12:33:59.514
122, 23612.39, 27545.40, 20208.12, 21879.19, 0.000, 0.000, 0.000, 12:33:59.514
123, 24445.10, 28461.22, 20997.23, 22714.54, 0.000, 0.000, 0.000, 12:33:59.530
124, 23552.87, 27505.32, 20125.78, 21832.51, 0.000, 0.000, 0.000, 12:33:59.530
125, 22944.39, 26823.82, 19575.02, 21210.40, 0.000, 0.000, 0.000, 12:33:59.530
126, 23619.05, 27550.00, 20230.89, 21868.41, 0.000, 0.000, 0.000, 12:33:59.531
127, 24490.68, 28496.05, 21048.35, 22720.06, 0.000, 0.000, 0.000, 12:33:59.545
128, 23576.60, 27519.53, 20159.53, 21828.17, 0.000, 0.000, 0.000, 12:33:59.546
129, 22937.62, 26820.14, 19592.23, 21197.16, 0.000, 0.000, 0.000, 12:33:59.573
130, 23613.70, 27543.26, 20240.31, 21847.37, 0.000, 0.000, 0.000, 12:33:59.573
131, 24481.58, 28490.21, 21049.54, 22709.20, 0.000, 0.000, 0.000, 12:33:59.574
132, 23571.62, 27515.76, 20160.54, 21831.00, 0.000, 0.000, 0.000, 12:33:59.574
133, 22924.63, 26803.68, 19577.14, 21177.95, 0.000, 0.000, 0.000, 12:33:59.575
134, 23596.55, 27528.49, 20220.73, 21842.38, 0.000, 0.000, 0.000, 12:33:59.575
135, 24475.42, 28478.57, 21030.08, 22717.12, 0.000, 0.000, 0.000, 12:33:59.576
136, 23592.78, 27530.14, 20171.74, 21851.91, 0.000, 0.000, 0.000, 12:33:59.576
137, 22911.95, 26794.48, 19549.39, 21180.50, 0.000, 0.000, 0.000, 12:33:59.605
138, 23591.82, 27520.27, 20204.35, 21847.49, 0.000, 0.000, 0.000, 12:33:59.605
139, 24466.07, 28475.83, 21019.49, 22721.67, 0.000, 0.000, 0.000, 12:33:59.618
140, 23592.98, 27547.04, 20171.49, 21870.45, 0.000, 0.000, 0.000, 12:33:59.618
141, 22921.51, 26809.68, 19551.90, 21192.93, 0.000, 0.000, 0.000, 12:33:59.650
142, 23586.87, 27508.37, 20195.44, 21842.79, 0.000, 0.000, 0.000, 12:33:59.650
143, 24473.62, 28482.65, 21028.79, 22720.32, 0.000, 0.000, 0.000, 12:33:59.653
144, 23607.91, 27564.47, 20181.24, 21881.07, 0.000, 0.000, 0.000, 12:33:59.653
145, 22923.35, 26806.58, 19549.20, 21191.51, 0.000, 0.000, 0.000, 12:33:59.661
146, 23576.67, 27512.01, 20186.70, 21835.78, 0.000, 0.000, 0.000, 12:33:59.661
147, 24465.38, 28476.98, 21022.71, 22715.05, 0.000, 0.000, 0.000, 12:33:59.661
148, 23613.38, 27570.47, 20180.15, 21891.55, 0.000, 0.000, 0.000, 12:33:59.661
149, 22907.67, 26798.64, 19542.10, 21192.68, 0.000, 0.000, 0.000, 12:33:59.661
150, 23564.53, 27498.68, 20182.28, 21831.02, 0.000, 0.000, 0.000, 12:33:59.662
151, 24461.74, 27500.36, 21020.59, 22719.61, 0.000, 0.000, 0.000, 12:33:59.679
152, 23625.81, 26605.99, 20190.41, 21905.48, 0.000, 0.000, 0.000, 12:33:59.679
153, 22918.46, 25826.36, 19550.34, 21191.01, 0.000, 0.000, 0.000, 12:33:59.679
154, 23567.86, 26525.39, 20183.55, 21827.16, 0.000, 0.000, 0.000, 12:33:59.680
155, 24469.05, 27503.35, 21020.19, 22716.31, 0.000, 0.000, 0.000, 12:33:59.680
156, 23641.02, 26628.37, 20211.40, 21917.69, 0.000, 0.000, 0.000, 12:33:59.680
157, 22901.68, 25822.53, 19544.54, 21188.98, 0.000, 0.000, 0.000, 12:33:59.694
158, 23550.25, 26512.94, 20159.00, 21822.08, 0.000, 0.000, 0.000, 12:33:59.694
159, 24462.92, 26514.30, 21012.80, 22716.83, 0.000, 0.000, 0.000, 12:33:59.723
160, 23647.45, 25645.80, 20216.86, 21929.11, 0.000, 0.000, 0.000, 12:33:59.723
161, 22893.12, 24819.44, 19523.84, 21179.54, 0.000, 0.000, 0.000, 12:33:59.725
162, 23529.39, 25506.91, 20144.29, 21789.96, 0.000, 0.000, 0.000, 12:33:59.725
163, 24452.49, 25540.56, 21004.60, 22722.07, 0.000, 0.000, 0.000, 12:33:59.725
164, 23637.68, 24693.23, 20219.65, 21940.42, 0.000, 0.000, 0.000, 12:33:59.725
165, 22883.93, 23866.22, 19541.98, 21187.00, 0.000, 0.000, 0.000, 12:33:59.726
166, 23520.37, 24547.00, 20152.62, 21808.42, 0.000, 0.000, 0.000, 12:33:59.726
167, 24425.12, 24555.38, 21000.80, 22709.43, 0.000, 0.000, 0.000, 12:33:59.739
168, 23633.18, 23716.73, 20228.78, 21942.21, 0.000, 0.000, 0.000, 12:33:59.739
169, 22876.09, 22886.97, 19529.85, 21187.27, 0.000, 0.000, 0.000, 12:33:59.754
170, 23508.42, 23558.08, 20144.57, 21794.06, 0.000, 0.000, 0.000, 12:33:59.754
171, 24423.24, 23566.26, 21000.25, 22703.36, 0.000, 0.000, 0.000, 12:33:59.768
172, 23655.52, 22749.30, 20250.52, 21960.65, 0.000, 0.000, 0.000, 12:33:59.768
173, 22900.69, 21907.74, 19548.37, 21193.46, 0.000, 0.000, 0.000, 12:33:59.768
174, 23525.34, 22572.30, 20135.96, 21793.78, 0.000, 0.000, 0.000, 12:33:59.768
175, 24429.04, 22573.17, 20995.74, 22693.33, 0.000, 0.000, 0.000, 12:33:59.798
176, 23685.88, 21785.76, 20260.48, 21974.21, 0.000, 0.000, 0.000, 12:33:59.799
177, 22922.33, 20945.60, 19560.72, 21209.18, 0.000, 0.000, 0.000, 12:33:59.801
178, 23528.81, 21586.34, 20143.12, 21798.64, 0.000, 0.000, 0.000, 12:33:59.801
179, 24433.42, 21591.41, 20995.18, 22694.42, 0.000, 0.000, 0.000, 12:33:59.801
180, 23694.17, 20815.19, 20278.12, 21983.12, 0.000, 0.000, 0.000, 12:33:59.801
181, 22919.37, 19963.17, 19554.46, 21198.33, 0.000, 0.000, 0.000, 12:33:59.830
182, 23522.96, 20601.68, 20137.01, 21789.23, 0.000, 0.000, 0.000, 12:33:59.830
183, 24429.87, 20608.84, 20994.87, 22693.60, 0.000, 0.000, 0.000, 12:33:59.830
184, 23703.52, 19843.12, 20281.36, 21989.54, 0.000, 0.000, 0.000, 12:33:59.830
185, 22917.82, 18976.74, 19565.87, 21204.61, 0.000, 0.000, 0.000, 12:33:59.858
186, 23510.46, 19599.31, 20118.26, 21778.49, 0.000, 0.000, 0.000, 12:33:59.858
187, 24421.71, 19610.39, 20971.43, 22677.37, 0.000, 0.000, 0.000, 12:33:59.859
188, 23713.39, 18866.20, 20281.83, 22000.79, 0.000, 0.000, 0.000, 12:33:59.859
189, 22927.33, 18002.31, 19562.44, 21212.82, 0.000, 0.000, 0.000, 12:33:59.860
190, 23511.22, 18626.69, 20130.22, 21778.69, 0.000, 0.000, 0.000, 12:33:59.860
191, 24411.16, 19600.73, 20971.79, 22669.54, 0.000, 0.000, 0.000, 12:33:59.860
192, 23732.04, 18880.26, 20298.62, 22007.60, 0.000, 0.000, 0.000, 12:33:59.860
193, 22937.41, 18015.95, 19567.21, 21221.81, 0.000, 0.000, 0.000, 12:33:59.873
194, 23509.63, 18624.58, 20123.02, 21775.62, 0.000, 0.000, 0.000, 12:33:59.873
195, 24389.80, 19573.36, 20943.09, 22649.38, 0.000, 0.000, 0.000, 12:33:59.918
196, 23733.28, 18872.91, 20303.36, 22011.98, 0.000, 0.000, 0.000, 12:33:59.918
197, 22939.77, 18009.93, 19564.80, 21224.67, 0.000, 0.000, 0.000, 12:33:59.919
198, 23513.47, 18614.93, 20107.47, 21773.25, 0.000, 0.000, 0.000, 12:33:59.919
199, 24396.64, 19571.88, 20943.92, 22645.32, 0.000, 0.000, 0.000, 12:33:59.919
200, 23745.13, 18884.87, 20306.63, 22017.66, 0.000, 0.000, 0.000, 12:33:59.919
0, -2536.11, -2567.06, -2971.48, -2297.23, 0.000, 0.000, 0.000, 12:33:59.920
1, -1984.78, -1981.28, -2443.10, -1761.71, 0.000, 0.000, 0.000, 12:33:59.921
2, -1099.47, -1023.51, -1608.44, -885.65, 0.000, 0.000, 0.000, 12:33:59.921
3, -1732.17, -1687.58, -2224.65, -1496.32, 0.000, 0.000, 0.000, 12:33:59.922
4, -2528.88, -2557.14, -2962.96, -2291.06, 0.000, 0.000, 0.000, 12:33:59.922
5, -1988.89, -1976.89, -2439.63, -1763.91, 0.000, 0.000, 0.000, 12:33:59.933
6, -1107.69, -1027.18, -1616.39, -895.95, 0.000, 0.000, 0.000, 12:33:59.933
7, -1722.76, -1674.70, -2220.83, -1495.12, 0.000, 0.000, 0.000, 12:33:59.949
8, -2535.66, -2559.17, -2974.23, -2303.08, 0.000, 0.000, 0.000, 12:33:59.950
9, -1985.86, -1984.10, -2444.79, -1768.37, 0.000, 0.000, 0.000, 12:33:59.964
10, -1116.21, -1037.42, -1617.11, -902.30, 0.000, 0.000, 0.000, 12:33:59.964
11, -1711.10, -1663.95, -2209.29, -1476.00, 0.000, 0.000, 0.000, 12:33:59.964
12, -2533.47, -2558.13, -2976.14, -2293.01, 0.000, 0.000, 0.000, 12:33:59.964
13, -1986.97, -1987.04, -2448.65, -1768.50, 0.000, 0.000, 0.000, 12:33:59.993
14, -1118.25, -1028.92, -1614.91, -897.64, 0.000, 0.000, 0.000, 12:33:59.993
15, -1701.01, -1657.96, -2204.81, -1471.02, 0.000, 0.000, 0.000, 12:33:59.995
16, -2540.09, -2556.30, -2979.56, -2294.01, 0.000, 0.000, 0.000, 12:33:59.995
17, -2012.53, -2006.22, -2454.85, -1783.87, 0.000, 0.000, 0.000, 12:33:59.995
18, -1128.88, -1049.15, -1626.36, -911.44, 0.000, 0.000, 0.000, 12:33:59.995
19, -1693.73, -1642.09, -2189.69, -1459.19, 0.000, 0.000, 0.000, 12:34:00.008
20, -2537.59, -2551.34, -2968.03, -2300.06, 0.000, 0.000, 0.000, 12:34:00.009
21, -2011.79, -2002.19, -2464.39, -1792.08, 0.000, 0.000, 0.000, 12:34:00.054
22, -1128.38, -1054.66, -1634.84, -921.23, 0.000, 0.000, 0.000, 12:34:00.054
23, -1684.75, -1632.70, -2180.67, -1437.53, 0.000, 0.000, 0.000, 12:34:00.054
24, -2531.33, -2564.01, -2976.55, -2290.93, 0.000, 0.000, 0.000, 12:34:00.054
25, -2009.50, -2013.46, -2472.24, -1786.83, 0.000, 0.000, 0.000, 12:34:00.054
26, -1140.66, -1066.30, -1650.32, -922.64, 0.000, 0.000, 0.000, 12:34:00.054
27, -1674.70, -1626.54, -2180.65, -1447.10, 0.000, 0.000, 0.000, 12:34:00.055
28, -2535.28, -2563.41, -2973.06, -2296.01, 0.000, 0.000, 0.000, 12:34:00.055
29, -2015.18, -2010.63, -2469.60, -1794.99, 0.000, 0.000, 0.000, 12:34:00.056
30, -1141.99, -1063.92, -1645.57, -932.64, 0.000, 0.000, 0.000, 12:34:00.056
31, -1660.30, -1609.43, -2164.25, -1431.48, 0.000, 0.000, 0.000, 12:34:00.068
32, -2536.87, -2559.80, -2980.48, -2297.23, 0.000, 0.000, 0.000, 12:34:00.069
33, -2029.00, -2020.83, -2476.82, -1801.82, 0.000, 0.000, 0.000, 12:34:00.084
34, -1138.29, -1061.77, -1649.40, -931.04, 0.000, 0.000, 0.000, 12:34:00.084
35, -1651.56, -1600.41, -2160.76, -1429.57, 0.000, 0.000, 0.000, 12:34:00.084
36, -2527.03, -2548.76, -2964.75, -2298.05, 0.000, 0.000, 0.000, 12:34:00.084
37, -2036.52, -2034.78, -2482.78, -1800.66, 0.000, 0.000, 0.000, 12:34:00.098
38, -1145.11, -1070.55, -1654.25, -924.00, 0.000, 0.000, 0.000, 12:34:00.099
39, -1644.76, -1585.99, -2145.80, -1402.62, 0.000, 0.000, 0.000, 12:34:00.114
40, -2526.61, -2551.57, -2973.59, -2292.46, 0.000, 0.000, 0.000, 12:34:00.114
41, -2042.36, -2033.47, -2490.26, -1817.16, 0.000, 0.000, 0.000, 12:34:00.114
42, -1159.66, -1081.60, -1660.64, -947.06, 0.000, 0.000, 0.000, 12:34:00.114
43, -1650.63, -1585.58, -2146.87, -1408.81, 0.000, 0.000, 0.000, 12:34:00.128
44, -2531.80, -2560.52, -2980.12, -2292.96, 0.000, 0.000, 0.000, 12:34:00.128
45, -2031.80, -2038.21, -2493.85, -1807.83, 0.000, 0.000, 0.000, 12:34:00.144
46, -1152.13, -1078.24, -1662.94, -936.65, 0.000, 0.000, 0.000, 12:34:00.144
47, -1618.53, -1562.83, -2130.95, -1390.24, 0.000, 0.000, 0.000, 12:34:00.144
48, -2537.63, -1584.15, -2975.76, -2292.18, 0.000, 0.000, 0.000, 12:34:00.145
49, -2054.34, -1065.48, -2501.89, -1831.54, 0.000, 0.000, 0.000, 12:34:00.159
50, -1150.11, -98.40, -1657.15, -937.59, 0.000, 0.000, 0.000, 12:34:00.159
51, -1615.31, -574.77, -2119.10, -1383.28, 0.000, 0.000, 0.000, 12:34:00.173
52, -2539.85, -610.56, -2983.79, -2307.88, 0.000, 0.000, 0.000, 12:34:00.173
53, -2054.14, -96.57, -2508.97, -1835.15, 0.000, 0.000, 0.000, 12:34:00.174
54, -1148.26, 877.99, -1659.98, -934.70, 0.000, 0.000, 0.000, 12:34:00.174
55, -1598.40, 416.17, -2112.16, -1370.71, 0.000, 0.000, 0.000, 12:34:00.188
56, -2537.91, 385.02, -2978.69, -2298.45, 0.000, 0.000, 0.000, 12:34:00.188
57, -2056.28, 889.16, -2516.63, -1843.48, 0.000, 0.000, 0.000, 12:34:00.203
58, -1158.30, 1847.48, -1673.06, -954.83, 0.000, 0.000, 0.000, 12:34:00.204
59, -1592.63, 1399.61, -2107.20, -1352.74, 0.000, 0.000, 0.000, 12:34:00.204
60, -2555.78, 1351.63, -2996.01, -2301.75, 0.000, 0.000, 0.000, 12:34:00.204
61, -2067.47, 1854.93, -2526.47, -1847.79, 0.000, 0.000, 0.000, 12:34:00.218
62, -1164.39, 2826.75, -1675.41, -945.36, 0.000, 0.000, 0.000, 12:34:00.218
63, -1571.10, 2397.37, -2084.32, -1343.50, 0.000, 0.000, 0.000, 12:34:00.234
64, -2545.65, 2334.61, -2985.97, -2307.15, 0.000, 0.000, 0.000, 12:34:00.235
65, -2064.15, 2825.47, -2528.97, -1856.16, 0.000, 0.000, 0.000, 12:34:00.235
66, -1157.60, 2836.50, -1659.71, -947.44, 0.000, 0.000, 0.000, 12:34:00.235
67, -1572.15, 2402.86, -2078.91, -1337.72, 0.000, 0.000, 0.000, 12:34:00.249
68, -1573.15, 2320.94, -3001.03, -2315.03, 0.000, 0.000, 0.000, 12:34:00.250
69, -1104.92, 2817.02, -2537.59, -1862.26, 0.000, 0.000, 0.000, 12:34:00.263
70, -189.67, 2823.40, -1669.05, -958.66, 0.000, 0.000, 0.000, 12:34:00.263
71, -593.79, 2415.07, -2075.75, -1333.08, 0.000, 0.000, 0.000, 12:34:00.264
72, -1563.28, 2326.94, -2990.47, -2310.20, 0.000, 0.000, 0.000, 12:34:00.264
73, -1114.55, 2809.07, -2548.49, -1871.50, 0.000, 0.000, 0.000, 12:34:00.279
74, -207.98, 2811.51, -1688.91, -961.77, 0.000, 0.000, 0.000, 12:34:00.279
75, -580.61, 2421.34, -2060.47, -1326.49, 0.000, 0.000, 0.000, 12:34:00.294
76, -596.01, 2332.36, -2987.54, -1338.50, 0.000, 0.000, 0.000, 12:34:00.294
77, -146.32, 2793.83, -2554.98, -898.90, 0.000, 0.000, 0.000, 12:34:00.297
78, 760.76, 3769.77, -1701.77, -1.40, 0.000, 0.000, 0.000, 12:34:00.297
79, 395.20, 3394.48, -2072.16, -352.17, 0.000, 0.000, 0.000, 12:34:00.324
80, 378.90, 3298.03, -3000.17, -356.81, 0.000, 0.000, 0.000, 12:34:00.324
81, 828.52, 3766.99, -2560.31, 74.72, 0.000, 0.000, 0.000, 12:34:00.324
82, 1746.81, 3780.54, -1692.15, 985.56, 0.000, 0.000, 0.000, 12:34:00.324
83, 1400.13, 3413.78, -2054.15, 652.73, 0.000, 0.000, 0.000, 12:34:00.324
84, 1367.00, 3301.88, -2997.29, 625.43, 0.000, 0.000, 0.000, 12:34:00.324
85, 1807.09, 3769.11, -2563.11, 1047.90, 0.000, 0.000, 0.000, 12:34:00.345
86, 2712.33, 4745.36, -1708.65, 1944.22, 0.000, 0.000, 0.000, 12:34:00.346
87, 2387.96, 4406.99, -2046.10, 1635.24, 0.000, 0.000, 0.000, 12:34:00.353
88, 2356.13, 4288.15, -2989.30, 1619.83, 0.000, 0.000, 0.000, 12:34:00.354
89, 2783.99, 4739.02, -2572.31, 2026.54, 0.000, 0.000, 0.000, 12:34:00.354
90, 3683.34, 5712.37, -1714.80, 2924.22, 0.000, 0.000, 0.000, 12:34:00.354
91, 3386.05, 5407.05, -2023.97, 2627.20, 0.000, 0.000, 0.000, 12:34:00.368
92, 3340.60, 5283.41, -2988.46, 2594.45, 0.000, 0.000, 0.000, 12:34:00.368
93, 3759.99, 5723.45, -2568.34, 3006.41, 0.000, 0.000, 0.000, 12:34:00.399
94, 4661.61, 6696.84, -1714.09, 3901.40, 0.000, 0.000, 0.000, 12:34:00.399
95, 4363.23, 6391.88, -2019.83, 3620.72, 0.000, 0.000, 0.000, 12:34:00.400
96, 4318.26, 6261.15, -2984.43, 3581.37, 0.000, 0.000, 0.000, 12:34:00.400
97, 4730.45, 6696.15, -2575.05, 3977.75, 0.000, 0.000, 0.000, 12:34:00.400
98, 5628.43, 7657.73, -1727.30, 4865.40, 0.000, 0.000, 0.000, 12:34:00.400
99, 5345.55, 7380.65, -2011.65, 4604.82, 0.000, 0.000, 0.000, 12:34:00.400
100, 5307.38, 7248.90, -2976.39, 4561.54, 0.000, 0.000, 0.000, 12:34:00.400
101, 5704.91, 7666.24, -2582.59, 4954.26, 0.000, 0.000, 0.000, 12:34:00.415
102, 6610.15, 8641.90, -1725.45, 5845.47, 0.000, 0.000, 0.000, 12:34:00.415
103, 6355.92, 8385.64, -1996.15, 5605.19, 0.000, 0.000, 0.000, 12:34:00.428
104, 6286.60, 8237.38, -2972.90, 5554.18, 0.000, 0.000, 0.000, 12:34:00.429
105, 6683.87, 8633.96, -2591.81, 5929.02, 0.000, 0.000, 0.000, 12:34:00.444
106, 7589.36, 8638.39, -1724.45, 6826.90, 0.000, 0.000, 0.000, 12:34:00.444
107, 7341.79, 8395.50, -1980.65, 6606.03, 0.000, 0.000, 0.000, 12:34:00.445
108, 7274.65, 8235.32, -1986.41, 6536.91, 0.000, 0.000, 0.000, 12:34:00.445
109, 7651.46, 8629.82, -1607.72, 6903.11, 0.000, 0.000, 0.000, 12:34:00.473
110, 8578.27, 8650.80, -738.67, 7819.10, 0.000, 0.000, 0.000, 12:34:00.473
111, 8359.39, 8429.41, -971.67, 7607.32, 0.000, 0.000, 0.000, 12:34:00.473
112, 8258.30, 8240.54, -1005.21, 7517.59, 0.000, 0.000, 0.000, 12:34:00.473
113, 8634.57, 8644.53, -624.13, 7879.32, 0.000, 0.000, 0.000, 12:34:00.474
114, 9556.13, 8647.08, 238.13, 8796.36, 0.000, 0.000, 0.000, 12:34:00.474
115, 9352.08, 8439.28, 19.03, 8602.19, 0.000, 0.000, 0.000, 12:34:00.488
116, 9228.34, 8225.30, -40.11, 8494.05, 0.000, 0.000, 0.000, 12:34:00.488
117, 9595.41, 8609.18, 331.34, 8841.06, 0.000, 0.000, 0.000, 12:34:00.503
118, 10538.88, 8642.84, 1219.16, 9776.56, 0.000, 0.000, 0.000, 12:34:00.503
119, 10347.80, 8457.49, 1013.89, 9598.52, 0.000, 0.000, 0.000, 12:34:00.504
120, 10199.33, 8215.87, 931.26, 9462.48, 0.000, 0.000, 0.000, 12:34:00.504
121, 10554.99, 8581.80, 1289.87, 9804.43, 0.000, 0.000, 0.000, 12:34:00.520
122, 11507.30, 8627.49, 2187.30, 10739.97, 0.000, 0.000, 0.000, 12:34:00.520
123, 11349.05, 8468.68, 2009.70, 10599.32, 0.000, 0.000, 0.000, 12:34:00.549
124, 11157.94, 8185.53, 1885.48, 10420.21, 0.000, 0.000, 0.000, 12:34:00.550
125, 11513.55, 8561.91, 2238.15, 10758.73, 0.000, 0.000, 0.000, 12:34:00.550
126, 12482.50, 8629.95, 3168.68, 11723.93, 0.000, 0.000, 0.000, 12:34:00.550
127, 12324.46, 8475.15, 2991.93, 11580.49, 0.000, 0.000, 0.000, 12:34:00.550
128, 12123.65, 8167.90, 2853.62, 11389.00, 0.000, 0.000, 0.000, 12:34:00.551
129, 12479.80, 8532.28, 3201.86, 11727.80, 0.000, 0.000, 0.000, 12:34:00.551
130, 12498.19, 8630.21, 4150.43, 11728.21, 0.000, 0.000, 0.000, 12:34:00.551
131, 12377.47, 8518.90, 4009.00, 11619.13, 0.000, 0.000, 0.000, 12:34:00.564
132, 12122.41, 8162.82, 3829.38, 11375.18, 0.000, 0.000, 0.000, 12:34:00.564
133, 12456.89, 8511.12, 4171.24, 11696.83, 0.000, 0.000, 0.000, 12:34:00.579
134, 12510.25, 8653.41, 4176.02, 11739.05, 0.000, 0.000, 0.000, 12:34:00.579
135, 12391.89, 8537.63, 4030.31, 11629.68, 0.000, 0.000, 0.000, 12:34:00.597
136, 12103.53, 8149.00, 3807.45, 11361.26, 0.000, 0.000, 0.000, 12:34:00.597
137, 12440.09, 8494.12, 4147.41, 11678.30, 0.000, 0.000, 0.000, 12:34:00.597
138, 12519.40, 8655.45, 4180.35, 11750.63, 0.000, 0.000, 0.000, 12:34:00.597
139, 12440.81, 8596.00, 4080.42, 11684.53, 0.000, 0.000, 0.000, 12:34:00.611
140, 12083.50, 8124.66, 3779.47, 11353.73, 0.000, 0.000, 0.000, 12:34:00.611
141, 12393.45, 8454.08, 4108.16, 11645.87, 0.000, 0.000, 0.000, 12:34:00.623
142, 12539.63, 8683.09, 4195.62, 11771.09, 0.000, 0.000, 0.000, 12:34:00.623
143, 12482.53, 8637.93, 4106.79, 11722.82, 0.000, 0.000, 0.000, 12:34:00.624
144, 12056.96, 8106.15, 3764.06, 11322.98, 0.000, 0.000, 0.000, 12:34:00.624
145, 12378.15, 8432.80, 4090.09, 11626.19, 0.000, 0.000, 0.000, 12:34:00.638
146, 12534.12, 8675.52, 4194.57, 11757.67, 0.000, 0.000, 0.000, 12:34:00.638
147, 12494.39, 8655.09, 4128.25, 11739.73, 0.000, 0.000, 0.000, 12:34:00.653
148, 12039.16, 8093.99, 3747.94, 11301.77, 0.000, 0.000, 0.000, 12:34:00.653
149, 12355.16, 8414.54, 4074.78, 11597.37, 0.000, 0.000, 0.000, 12:34:00.654
150, 12560.71, 8715.98, 4237.10, 11796.05, 0.000, 0.000, 0.000, 12:34:00.654
151, 12555.42, 8729.97, 4187.75, 11796.03, 0.000, 0.000, 0.000, 12:34:00.669
152, 12021.86, 8078.58, 3733.37, 11285.77, 0.000, 0.000, 0.000, 12:34:00.669
153, 12343.68, 8396.05, 4056.59, 11583.00, 0.000, 0.000, 0.000, 12:34:00.683
154, 12574.72, 8725.57, 4240.32, 11808.32, 0.000, 0.000, 0.000, 12:34:00.684
155, 12576.57, 8747.57, 4210.69, 11811.92, 0.000, 0.000, 0.000, 12:34:00.684
156, 11980.32, 8029.31, 3678.50, 11250.60, 0.000, 0.000, 0.000, 12:34:00.684
157, 12302.54, 8362.00, 4015.12, 11553.84, 0.000, 0.000, 0.000, 12:34:00.705
158, 12578.48, 8727.43, 4242.07, 11806.46, 0.000, 0.000, 0.000, 12:34:00.705
159, 12614.92, 8786.02, 4245.48, 11853.14, 0.000, 0.000, 0.000, 12:34:00.714
160, 11986.52, 8045.43, 3696.18, 11257.55, 0.000, 0.000, 0.000, 12:34:00.714
161, 12282.36, 8344.85, 4006.62, 11535.15, 0.000, 0.000, 0.000, 12:34:00.715
162, 12573.43, 8722.76, 4242.42, 11803.87, 0.000, 0.000, 0.000, 12:34:00.715
163, 12655.38, 8834.96, 4289.12, 11891.86, 0.000, 0.000, 0.000, 12:34:00.730
164, 11977.99, 8038.14, 3685.05, 11252.65, 0.000, 0.000, 0.000, 12:34:00.731
165, 12262.89, 8318.00, 3983.05, 11519.04, 0.000, 0.000, 0.000, 12:34:00.745
166, 12590.81, 8749.28, 4268.69, 11817.93, 0.000, 0.000, 0.000, 12:34:00.745
167, 12660.18, 8843.69, 4297.59, 11909.34, 0.000, 0.000, 0.000, 12:34:00.746
168, 11985.23, 8045.84, 3697.06, 11259.66, 0.000, 0.000, 0.000, 12:34:00.746
169, 12244.52, 8305.99, 3974.76, 11490.21, 0.000, 0.000, 0.000, 12:34:00.759
170, 12591.26, 8740.84, 4256.54, 11826.29, 0.000, 0.000, 0.000, 12:34:00.759
171, 12683.79, 8865.10, 4318.55, 11924.55, 0.000, 0.000, 0.000, 12:34:00.773
172, 11962.90, 8027.29, 3672.60, 11239.85, 0.000, 0.000, 0.000, 12:34:00.774
173, 12224.38, 8281.38, 3943.13, 11477.32, 0.000, 0.000, 0.000, 12:34:00.774
174, 12587.72, 8739.92, 4260.29, 11818.43, 0.000, 0.000, 0.000, 12:34:00.774
175, 12703.66, 8894.91, 4343.17, 11959.52, 0.000, 0.000, 0.000, 12:34:00.788
176, 11964.78, 8022.69, 3673.27, 11236.08, 0.000, 0.000, 0.000, 12:34:00.788
177, 12210.29, 8273.37, 3943.74, 11472.02, 0.000, 0.000, 0.000, 12:34:00.803
178, 12578.65, 8733.69, 4256.01, 11814.38, 0.000, 0.000, 0.000, 12:34:00.803
179, 12715.20, 8919.30, 4358.22, 11979.52, 0.000, 0.000, 0.000, 12:34:00.804
180, 11968.23, 8027.23, 3671.88, 11230.54, 0.000, 0.000, 0.000, 12:34:00.804
181, 12189.38, 8244.02, 3917.84, 11434.63, 0.000, 0.000, 0.000, 12:34:00.818
182, 12561.97, 8718.42, 4234.50, 11793.43, 0.000, 0.000, 0.000, 12:34:00.818
183, 12750.31, 8941.59, 4377.28, 11992.54, 0.000, 0.000, 0.000, 12:34:00.834
184, 11956.48, 8012.87, 3660.66, 11224.94, 0.000, 0.000, 0.000, 12:34:00.834
185, 12166.50, 8232.03, 3908.33, 11423.18, 0.000, 0.000, 0.000, 12:34:00.834
186, 12543.91, 8703.58, 4224.40, 11776.05, 0.000, 0.000, 0.000, 12:34:00.834
187, 12785.75, 8971.95, 4414.88, 12022.89, 0.000, 0.000, 0.000, 12:34:00.850
188, 11962.77, 8013.81, 3664.70, 11241.46, 0.000, 0.000, 0.000, 12:34:00.850
189, 12175.27, 8228.79, 3904.83, 11421.45, 0.000, 0.000, 0.000, 12:34:00.878
190, 12541.23, 8695.25, 4222.63, 11775.48, 0.000, 0.000, 0.000, 12:34:00.878
191, 12779.48, 8968.50, 4411.78, 12033.43, 0.000, 0.000, 0.000, 12:34:00.879
192, 11978.12, 8035.69, 3678.60, 11251.04, 0.000, 0.000, 0.000, 12:34:00.879
193, 12141.87, 8193.65, 3873.92, 11392.83, 0.000, 0.000, 0.000, 12:34:00.880
194, 12532.68, 8678.68, 4201.15, 11759.42, 0.000, 0.000, 0.000, 12:34:00.880
195, 12804.41, 9000.43, 4435.45, 12050.76, 0.000, 0.000, 0.000, 12:34:00.880
196, 11980.65, 8041.63, 3693.26, 11249.68, 0.000, 0.000, 0.000, 12:34:00.880
197, 12145.07, 8199.77, 3887.88, 11396.38, 0.000, 0.000, 0.000, 12:34:00.894
198, 12525.09, 8678.19, 4208.78, 11756.97, 0.000, 0.000, 0.000, 12:34:00.894
199, 12834.41, 9029.11, 4467.11, 12067.79, 0.000, 0.000, 0.000, 12:34:00.908
200, 11988.86, 9029.06, 3704.51, 11254.26, 0.000, 0.000, 0.000, 12:34:00.908
0, -2599.57, -2640.85, -3012.36, -2363.73, 0.000, 0.000, 0.000, 12:34:00.908
1, -2187.50, -2116.92, -2651.16, -1968.08, 0.000, 0.000, 0.000, 12:34:00.923
2, -1834.59, -1716.59, -2360.28, -1609.55, 0.000, 0.000, 0.000, 12:34:00.923
3, -2727.99, -1768.44, -3172.52, -2469.84, 0.000, 0.000, 0.000, 12:34:00.953
4, -2630.74, -1679.72, -3039.10, -2393.72, 0.000, 0.000, 0.000, 12:34:00.953
5, -2186.68, -1137.11, -2664.37, -1965.43, 0.000, 0.000, 0.000, 12:34:00.954
6, -1796.74, -697.95, -2327.49, -1569.06, 0.000, 0.000, 0.000, 12:34:00.954
7, -2728.31, -790.59, -3174.64, -2481.51, 0.000, 0.000, 0.000, 12:34:00.954
8, -2653.66, -735.41, -3069.83, -2421.27, 0.000, 0.000, 0.000, 12:34:00.954
9, -2166.34, -143.75, -2664.20, -1977.10, 0.000, 0.000, 0.000, 12:34:00.957
10, -1700.24, 381.49, -2259.65, -1506.33, 0.000, 0.000, 0.000, 12:34:00.957
11, -1768.86, 153.54, -3214.21, -1530.85, 0.000, 0.000, 0.000, 12:34:00.969
12, -1868.43, 23.97, -3290.44, -1640.31, 0.000, 0.000, 0.000, 12:34:00.969
13, -1165.41, 812.24, -2685.58, -972.08, 0.000, 0.000, 0.000, 12:34:00.983
14, -251.46, 925.86, -1843.34, -40.11, 0.000, 0.000, 0.000, 12:34:00.984
15, -895.61, 47.70, -2330.37, -693.03, 0.000, 0.000, 0.000, 12:34:01.028
16, -1213.94, -347.39, -2579.40, -1002.02, 0.000, 0.000, 0.000, 12:34:01.028
17, -1179.25, -152.53, -1680.19, -992.62, 0.000, 0.000, 0.000, 12:34:01.030
18, -1013.19, 168.81, -708.80, -798.11, 0.000, 0.000, 0.000, 12:34:01.030
19, -1897.02, 43.53, -1372.55, -1632.88, 0.000, 0.000, 0.000, 12:34:01.031
20, -2410.20, -536.17, -1741.55, -2168.53, 0.000, 0.000, 0.000, 12:34:01.031
21, -2204.16, -196.08, -1708.03, -1980.71, 0.000, 0.000, 0.000, 12:34:01.031
22, -1828.44, 345.83, -1517.15, -1599.71, 0.000, 0.000, 0.000, 12:34:01.031
23, -1914.15, 27.73, -2355.64, -1673.83, 0.000, 0.000, 0.000, 12:34:01.031
24, -2534.69, -684.11, -2846.13, -2327.37, 0.000, 0.000, 0.000, 12:34:01.032
25, -2205.22, -207.05, -2699.84, -2002.70, 0.000, 0.000, 0.000, 12:34:01.044
26, -1739.70, 437.16, -2418.85, -1533.74, 0.000, 0.000, 0.000, 12:34:01.044
27, -1899.63, 36.53, -3320.65, -1671.81, 0.000, 0.000, 0.000, 12:34:01.058
28, -2510.68, -670.04, -3809.21, -2321.55, 0.000, 0.000, 0.000, 12:34:01.058
29, -2238.60, -238.05, -3701.46, -2035.68, 0.000, 0.000, 0.000, 12:34:01.059
30, -1707.07, 460.57, -3366.79, -1511.01, 0.000, 0.000, 0.000, 12:34:01.059
31, -1716.76, 244.35, -4134.69, -2471.75, 0.000, 0.000, 0.000, 12:34:01.073
32, -2525.35, -687.82, -4788.21, -3291.95, 0.000, 0.000, 0.000, 12:34:01.073
33, -2449.32, -475.92, -3888.44, -3228.79, 0.000, 0.000, 0.000, 12:34:01.103
34, -2405.65, -314.27, -3001.30, -3169.37, 0.000, 0.000, 0.000, 12:34:01.103
35, -2657.07, -719.76, -3118.26, -3388.75, 0.000, 0.000, 0.000, 12:34:01.103
36, -2750.68, -852.52, -3164.32, -3496.00, 0.000, 0.000, 0.000, 12:34:01.104
37, -2156.91, -145.03, -2645.80, -2907.77, 0.000, 0.000, 0.000, 12:34:01.104
38, -1462.77, 622.60, -2027.53, -2194.10, 0.000, 0.000, 0.000, 12:34:01.104
39, -1846.20, 82.90, -2300.70, -2574.23, 0.000, 0.000, 0.000, 12:34:01.105
40, -2134.37, -248.09, -2511.66, -2875.07, 0.000, 0.000, 0.000, 12:34:01.105
41, -1856.71, -35.66, -2109.70, -2592.87, 0.000, 0.000, 0.000, 12:34:01.119
42, -1366.98, 291.99, -1760.65, -2057.56, 0.000, 0.000, 0.000, 12:34:01.119
43, -1813.73, 190.47, -2132.87, -2513.90, 0.000, 0.000, 0.000, 12:34:01.134
44, -2510.68, -272.13, -2861.30, -3230.15, 0.000, 0.000, 0.000, 12:34:01.134
45, -2464.73, 287.67, -2788.76, -3212.22, 0.000, 0.000, 0.000, 12:34:01.149
46, -2162.66, 608.03, -2752.56, -2838.97, 0.000, 0.000, 0.000, 12:34:01.149
47, -3001.50, 48.09, -3429.16, -3701.47, 0.000, 0.000, 0.000, 12:34:01.149
48, -3046.66, -773.45, -3459.93, -3780.18, 0.000, 0.000, 0.000, 12:34:01.149
49, -2145.42, -360.79, -2507.51, -2899.21, 0.000, 0.000, 0.000, 12:34:01.163
50, -1768.36, 38.08, -2411.89, -2449.50, 0.000, 0.000, 0.000, 12:34:01.163
51, -1975.10, -877.24, -3389.40, -2670.08, 0.000, 0.000, 0.000, 12:34:01.179
52, -2088.61, -1775.00, -3475.26, -2812.61, 0.000, 0.000, 0.000, 12:34:01.179
53, -1945.71, -1147.88, -3314.42, -2712.11, 0.000, 0.000, 0.000, 12:34:01.179
54, -1553.30, -684.56, -3191.28, -2216.69, 0.000, 0.000, 0.000, 12:34:01.179
55, -1945.69, -846.70, -3365.94, -2626.32, 0.000, 0.000, 0.000, 12:34:01.193
56, -2056.51, -1755.19, -3440.10, -2792.84, 0.000, 0.000, 0.000, 12:34:01.194
57, -1976.52, -1169.05, -3339.79, -2771.32, 0.000, 0.000, 0.000, 12:34:01.223
58, -1488.05, -635.03, -3130.43, -2195.53, 0.000, 0.000, 0.000, 12:34:01.223
59, -1813.04, -688.74, -3237.86, -2540.73, 0.000, 0.000, 0.000, 12:34:01.224
60, -2130.18, -840.10, -3523.59, -2906.17, 0.000, 0.000, 0.000, 12:34:01.224
61, -2022.26, -225.74, -3357.74, -2884.03, 0.000, 0.000, 0.000, 12:34:01.226
62, -1437.18, 416.35, -3073.94, -2211.17, 0.000, 0.000, 0.000, 12:34:01.226
63, -1761.52, 348.18, -3189.77, -2521.85, 0.000, 0.000, 0.000, 12:34:01.226
64, -2124.19, 137.52, -3504.59, -2926.57, 0.000, 0.000, 0.000, 12:34:01.227
65, -2110.96, 647.70, -3464.89, -1972.74, 0.000, 0.000, 0.000, 12:34:01.314
66, -1434.71, 1394.17, -3086.53, -1188.66, 0.000, 0.000, 0.000, 12:34:01.314
67, -1642.92, 455.04, -3101.35, -1403.89, 0.000, 0.000, 0.000, 12:34:01.315
68, -2127.96, 126.98, -3508.04, -1916.74, 0.000, 0.000, 0.000, 12:34:01.315
69, -1201.07, 571.21, -2543.36, -1028.00, 0.000, 0.000, 0.000, 12:34:01.316
70, -399.59, 1439.36, -2057.35, -133.62, 0.000, 0.000, 0.000, 12:34:01.316
71, -569.53, 565.15, -3033.64, -312.13, 0.000, 0.000, 0.000, 12:34:01.316
72, -1194.79, 100.41, -3562.18, -995.27, 0.000, 0.000, 0.000, 12:34:01.316
73, -269.21, 516.90, -2585.47, -71.65, 0.000, 0.000, 0.000, 12:34:01.328
74, 660.91, 562.70, -1984.65, -47.12, 0.000, 0.000, 0.000, 12:34:01.328
75, 531.37, -275.31, -2911.32, -205.81, 0.000, 0.000, 0.000, 12:34:01.328
76, -153.00, -822.91, -3497.68, -935.24, 0.000, 0.000, 0.000, 12:34:01.328
77, 656.43, -509.37, -2624.47, -151.44, 0.000, 0.000, 0.000, 12:34:01.329
78, 669.29, -423.19, -1972.42, -39.02, 0.000, 0.000, 0.000, 12:34:01.330
83, -238.14, -1044.08, -2731.48, -950.73, 0.000, 0.000, 0.000, 12:34:01.330
84, -243.19, -1908.08, -3588.39, -972.69, 0.000, 0.000, 0.000, 12:34:01.330
85, 418.04, -1758.96, -2840.80, -355.50, 0.000, 0.000, 0.000, 12:34:01.388
86, 600.72, -1473.47, -2039.57, -105.14, 0.000, 0.000, 0.000, 12:34:01.388
87, -192.24, -1962.84, -2695.32, -905.38, 0.000, 0.000, 0.000, 12:34:01.389
88, -315.74, -1981.38, -3629.20, -1055.14, 0.000, 0.000, 0.000, 12:34:01.389
89, 238.52, -1956.42, -2985.83, -532.90, 0.000, 0.000, 0.000, 12:34:01.389
90, 531.09, -1555.23, -2068.27, -177.88, 0.000, 0.000, 0.000, 12:34:01.390
91, -115.44, -1877.35, -2622.33, -830.00, 0.000, 0.000, 0.000, 12:34:01.390
92, -388.88, -2048.09, -2724.96, -1152.88, 0.000, 0.000, 0.000, 12:34:01.390
93, 117.16, -1105.38, -2118.08, -658.19, 0.000, 0.000, 0.000, 12:34:01.391
94, 545.16, -567.15, -2074.73, -153.03, 0.000, 0.000, 0.000, 12:34:01.391
95, 3.73, -778.46, -2522.27, -696.51, 0.000, 0.000, 0.000, 12:34:01.392
96, -408.05, -1104.61, -2752.56, -1139.36, 0.000, 0.000, 0.000, 12:34:01.392
97, 51.56, -214.55, -2190.42, -738.15, 0.000, 0.000, 0.000, 12:34:01.450
98, 600.31, 451.34, -2033.26, -105.20, 0.000, 0.000, 0.000, 12:34:01.450
99, 122.73, 348.75, -2408.88, -595.26, 0.000, 0.000, 0.000, 12:34:01.450
100, -399.55, -115.59, -2740.05, -1181.55, 0.000, 0.000, 0.000, 12:34:01.450
101, -54.88, 648.49, -2301.50, -853.50, 0.000, 0.000, 0.000, 12:34:01.450
102, 622.57, 1457.06, -2030.96, -114.36, 0.000, 0.000, 0.000, 12:34:01.450
103, 269.03, 1414.25, -2409.45, -501.24, 0.000, 0.000, 0.000, 12:34:01.451
104, -467.97, 787.91, -2772.14, -1220.17, 0.000, 0.000, 0.000, 12:34:01.451
105, -202.20, 1501.09, -2390.83, -951.45, 0.000, 0.000, 0.000, 12:34:01.451
106, 597.49, 2426.21, -2036.24, -104.97, 0.000, 0.000, 0.000, 12:34:01.451
107, 333.76, 1526.73, -2296.01, -375.96, 0.000, 0.000, 0.000, 12:34:01.452
108, -475.31, 737.99, -2848.61, -1248.02, 0.000, 0.000, 0.000, 12:34:01.452
109, -251.19, 1406.94, -2489.45, -1079.28, 0.000, 0.000, 0.000, 12:34:01.463
110, 624.33, 1442.29, -2032.46, -113.97, 0.000, 0.000, 0.000, 12:34:01.463
111, 455.17, 682.74, -2184.87, -273.06, 0.000, 0.000, 0.000, 12:34:01.523
112, -505.07, -219.45, -2842.00, -321.53, 0.000, 0.000, 0.000, 12:34:01.523
113, -365.99, 326.92, -2520.43, -177.99, 0.000, 0.000, 0.000, 12:34:01.523
114, -343.63, 468.23, -2010.32, -84.44, 0.000, 0.000, 0.000, 12:34:01.523
115, -355.86, -123.21, -2012.40, -100.91, 0.000, 0.000, 0.000, 12:34:01.525
116, -492.20, -205.58, -2807.76, -258.19, 0.000, 0.000, 0.000, 12:34:01.525
117, -368.84, 300.97, -2555.21, -180.85, 0.000, 0.000, 0.000, 12:34:01.525
118, -302.88, 512.04, -1973.26, -81.57, 0.000, 0.000, 0.000, 12:34:01.525
119, -334.44, -69.37, -1977.30, -86.71, 0.000, 0.000, 0.000, 12:34:01.526
120, -547.71, -285.66, -2894.37, -363.76, 0.000, 0.000, 0.000, 12:34:01.526
121, -514.50, 139.68, -2688.94, -357.80, 0.000, 0.000, 0.000, 12:34:01.526
122, -349.42, 470.59, -1986.70, -113.93, 0.000, 0.000, 0.000, 12:34:01.526
123, -1247.87, 9.89, -2902.09, -1009.90, 0.000, 0.000, 0.000, 12:34:01.528
124, -1588.30, -351.39, -2949.74, -1393.09, 0.000, 0.000, 0.000, 12:34:01.528
125, -1588.14, 41.49, -2753.70, -427.64, 0.000, 0.000, 0.000, 12:34:01.554
126, -1315.96, 476.20, -1990.57, -97.26, 0.000, 0.000, 0.000, 12:34:01.554
127, -2136.52, 102.33, -2832.37, -892.18, 0.000, 0.000, 0.000, 12:34:01.554
128, -2593.03, -354.75, -2962.01, -1420.38, 0.000, 0.000, 0.000, 12:34:01.554
129, -1668.14, -42.64, -2833.28, -492.24, 0.000, 0.000, 0.000, 12:34:01.584
130, -1304.76, 478.77, -1981.81, -77.34, 0.000, 0.000, 0.000, 12:34:01.584
131, -1937.95, 309.71, -2661.65, -686.10, 0.000, 0.000, 0.000, 12:34:01.599
132, -2538.18, -319.43, -2921.57, -1328.27, 0.000, 0.000, 0.000, 12:34:01.599
133, -1704.31, -95.48, -2874.73, -514.68, 0.000, 0.000, 0.000, 12:34:01.599
134, -1272.29, 509.23, -1954.25, -36.50, 0.000, 0.000, 0.000, 12:34:01.599
135, -1777.55, 497.16, -2502.83, -519.95, 0.000, 0.000, 0.000, 12:34:01.599
136, -2515.16, -290.20, -2891.25, -1289.46, 0.000, 0.000, 0.000, 12:34:01.599
137, -1835.48, -214.65, -2001.91, -627.23, 0.000, 0.000, 0.000, 12:34:01.600
138, -1316.87, 455.96, -1025.04, -60.65, 0.000, 0.000, 0.000, 12:34:01.600
139, -1649.03, -357.49, -1411.08, -391.68, 0.000, 0.000, 0.000, 12:34:01.614
140, -2530.16, -1275.16, -1911.00, -1321.42, 0.000, 0.000, 0.000, 12:34:01.614
141, -1897.05, -1266.87, -1087.75, -706.92, 0.000, 0.000, 0.000, 12:34:01.629
142, -1334.70, -539.33, -1028.04, -74.67, 0.000, 0.000, 0.000, 12:34:01.629
143, -1531.23, -1202.03, -1311.63, -262.43, 0.000, 0.000, 0.000, 12:34:01.629
144, -2487.38, -1218.88, -1906.51, -302.82, 0.000, 0.000, 0.000, 12:34:01.629
145, -1994.94, -387.21, -1159.97, 175.07, 0.000, 0.000, 0.000, 12:34:01.659
146, -1358.87, 423.53, -1055.62, 892.69, 0.000, 0.000, 0.000, 12:34:01.659
147, -1403.04, -87.31, -1192.63, 840.58, 0.000, 0.000, 0.000, 12:34:01.659
148, -1489.55, -225.27, -1871.12, 697.87, 0.000, 0.000, 0.000, 12:34:01.659
149, -1101.64, 496.47, -1229.71, 1058.96, 0.000, 0.000, 0.000, 12:34:01.660
150, -431.10, 1357.50, -1077.01, 1801.11, 0.000, 0.000, 0.000, 12:34:01.660
151, -1306.28, 1004.30, -1114.47, 928.84, 0.000, 0.000, 0.000, 12:34:01.673
152, -1471.89, 782.71, -1840.26, 723.36, 0.000, 0.000, 0.000, 12:34:01.673
153, -1253.25, 1328.10, -1355.18, 901.52, 0.000, 0.000, 0.000, 12:34:01.689
154, -485.67, 2257.96, -1133.51, 1730.68, 0.000, 0.000, 0.000, 12:34:01.689
155, -1166.16, 2137.64, -1971.64, 1038.90, 0.000, 0.000, 0.000, 12:34:01.689
156, -1543.85, 1685.48, -2892.48, 608.84, 0.000, 0.000, 0.000, 12:34:01.689
157, -1317.33, 2250.93, -2391.67, 790.02, 0.000, 0.000, 0.000, 12:34:01.704
158, -424.23, 2325.56, -2033.08, 1754.51, 0.000, 0.000, 0.000, 12:34:01.704
159, -1065.83, 2242.83, -2864.60, 1124.92, 0.000, 0.000, 0.000, 12:34:01.718
160, -1523.52, 1707.82, -2877.72, 627.94, 0.000, 0.000, 0.000, 12:34:01.719
161, -1390.08, 2145.75, -2467.20, 734.73, 0.000, 0.000, 0.000, 12:34:01.733
162, -502.35, 2231.56, -2128.55, 1700.88, 0.000, 0.000, 0.000, 12:34:01.733
163, -981.82, 1369.04, -2801.61, 1225.12, 0.000, 0.000, 0.000, 12:34:01.733
164, -1565.54, 689.74, -2940.23, 590.99, 0.000, 0.000, 0.000, 12:34:01.733
165, -1516.94, 1046.14, -2594.60, 625.06, 0.000, 0.000, 0.000, 12:34:01.778
166, -563.71, 1205.78, -2173.61, 679.73, 0.000, 0.000, 0.000, 12:34:01.778
167, -896.31, 496.21, -2721.00, 357.29, 0.000, 0.000, 0.000, 12:34:01.779
168, -1590.72, -304.83, -2950.66, -385.03, 0.000, 0.000, 0.000, 12:34:01.779
169, -668.69, -95.04, -2704.50, 504.76, 0.000, 0.000, 0.000, 12:34:01.780
170, -636.25, 126.44, -2243.77, 593.91, 0.000, 0.000, 0.000, 12:34:01.780
171, -815.67, -409.83, -2655.23, 422.04, 0.000, 0.000, 0.000, 12:34:01.780
172, -1638.33, -1352.07, -2981.05, -416.60, 0.000, 0.000, 0.000, 12:34:01.780
173, -815.26, -1230.36, -2829.51, 353.99, 0.000, 0.000, 0.000, 12:34:01.781
174, -665.02, -902.01, -2260.34, 553.82, 0.000, 0.000, 0.000, 12:34:01.781
175, -666.04, -1235.93, -2519.97, -409.84, 0.000, 0.000, 0.000, 12:34:01.795
176, -1541.19, -2211.33, -2898.13, -1332.20, 0.000, 0.000, 0.000, 12:34:01.795
177, -788.36, -2174.93, -2802.37, -608.89, 0.000, 0.000, 0.000, 12:34:01.809
178, -631.65, -1849.33, -2231.11, -385.62, 0.000, 0.000, 0.000, 12:34:01.809
179, -1434.01, -1988.60, -2355.32, -1178.56, 0.000, 0.000, 0.000, 12:34:01.817
180, -1472.25, -2150.35, -2831.79, -1240.01, 0.000, 0.000, 0.000, 12:34:01.817
181, -951.95, -1370.78, -1956.60, -754.19, 0.000, 0.000, 0.000, 12:34:01.853
182, -779.71, -1034.71, -1355.10, -516.19, 0.000, 0.000, 0.000, 12:34:01.854
183, -1257.65, -1791.40, -2174.02, -978.10, 0.000, 0.000, 0.000, 12:34:01.854
184, -1396.89, -2082.55, -2779.90, -1157.21, 0.000, 0.000, 0.000, 12:34:01.854
185, -1116.52, -1539.08, -2098.93, -905.81, 0.000, 0.000, 0.000, 12:34:01.855
186, -944.73, -1219.72, -1530.21, -685.30, 0.000, 0.000, 0.000, 12:34:01.855
187, -1096.62, -1613.43, -2040.34, -807.99, 0.000, 0.000, 0.000, 12:34:01.855
188, -1331.68, -2003.36, -2730.35, -1091.80, 0.000, 0.000, 0.000, 12:34:01.855
189, -1232.58, -1670.73, -2192.39, -1030.70, 0.000, 0.000, 0.000, 12:34:01.855
190, -983.51, -1243.71, -1536.46, -714.36, 0.000, 0.000, 0.000, 12:34:01.856
191, -1911.40, -1432.88, -1884.97, -1656.89, 0.000, 0.000, 0.000, 12:34:01.883
192, -2316.01, -2014.32, -2740.67, -2082.47, 0.000, 0.000, 0.000, 12:34:01.883
193, -2310.98, -1771.51, -2310.62, -1146.05, 0.000, 0.000, 0.000, 12:34:01.884
194, -1336.70, -1686.63, -1900.23, -1112.63, 0.000, 0.000, 0.000, 12:34:01.884
195, -2286.89, -1753.91, -2302.20, -1982.89, 0.000, 0.000, 0.000, 12:34:01.899
196, -2423.69, -2005.74, -2934.25, -2172.74, 0.000, 0.000, 0.000, 12:34:01.899
197, -1739.65, -1190.73, -2635.94, -1514.88, 0.000, 0.000, 0.000, 12:34:01.900
198, -767.02, -725.98, -2314.12, -564.16, 0.000, 0.000, 0.000, 12:34:01.900
199, -1376.23, -1361.15, -2978.22, -1179.86, 0.000, 0.000, 0.000, 12:34:01.929
200, -2190.59, -1400.49, -3467.32, -2010.15, 0.000, 0.000, 0.000, 12:34:01.930
0, -2157.50, -2228.86, -2592.66, -1953.01, 0.000, 0.000, 0.000, 12:34:01.930
1, -1218.54, -1952.04, -1966.01, -1005.88, 0.000, 0.000, 0.000, 12:34:01.930
2, -1624.83, -2486.70, -2327.55, -1405.78, 0.000, 0.000, 0.000, 12:34:01.930
3, -1872.26, -3011.91, -3256.72, -1697.75, 0.000, 0.000, 0.000, 12:34:01.930
4, -1113.39, -2123.48, -2506.02, -918.75, 0.000, 0.000, 0.000, 12:34:01.930
5, -318.11, -2004.66, -2030.12, -104.39, 0.000, 0.000, 0.000, 12:34:01.944
6, -719.12, -2553.10, -2390.75, -506.20, 0.000, 0.000, 0.000, 12:34:01.944
7, -990.43, -3074.62, -3277.35, -821.65, 0.000, 0.000, 0.000, 12:34:01.958
8, -315.68, -2323.17, -2685.52, -114.73, 0.000, 0.000, 0.000, 12:34:01.959
9, 369.83, -2317.59, -2301.96, 578.44, 0.000, 0.000, 0.000, 12:34:02.003
10, 137.03, -2692.13, -2489.53, 321.04, 0.000, 0.000, 0.000, 12:34:02.003
11, -83.79, -3192.53, -3370.82, 78.90, 0.000, 0.000, 0.000, 12:34:02.004
12, 531.77, -2496.31, -2825.08, 701.58, 0.000, 0.000, 0.000, 12:34:02.004
13, 1216.24, -1528.30, -2452.45, 1398.06, 0.000, 0.000, 0.000, 12:34:02.004
14, 1063.78, -1793.90, -2542.40, 1254.34, 0.000, 0.000, 0.000, 12:34:02.004
15, 842.03, -2268.54, -3424.81, 1027.74, 0.000, 0.000, 0.000, 12:34:02.005
16, 1416.27, -1621.44, -2913.40, 1610.65, 0.000, 0.000, 0.000, 12:34:02.005
17, 2065.17, -687.03, -2558.28, 2277.45, 0.000, 0.000, 0.000, 12:34:02.006
18, 1972.02, -868.51, -2594.99, 2191.10, 0.000, 0.000, 0.000, 12:34:02.006
19, 1748.14, -1354.78, -3479.43, 1949.91, 0.000, 0.000, 0.000, 12:34:02.018
20, 2238.98, -786.25, -3044.08, 2458.70, 0.000, 0.000, 0.000, 12:34:02.018
21, 2895.63, 158.67, -2687.19, 3130.39, 0.000, 0.000, 0.000, 12:34:02.034
22, 1935.86, 72.65, -3613.55, 2160.67, 0.000, 0.000, 0.000, 12:34:02.034
23, 1679.11, -444.42, -4504.24, 1899.35, 0.000, 0.000, 0.000, 12:34:02.034
24, 2154.73, 114.24, -4081.46, 2387.94, 0.000, 0.000, 0.000, 12:34:02.034
25, 2826.18, 1068.61, -3711.60, 3083.51, 0.000, 0.000, 0.000, 12:34:02.079
26, 1903.43, 1025.19, -4608.19, 2142.51, 0.000, 0.000, 0.000, 12:34:02.079
27, 1617.59, 492.23, -5531.13, 1858.12, 0.000, 0.000, 0.000, 12:34:02.079
28, 2101.47, 1049.14, -5103.73, 2340.60, 0.000, 0.000, 0.000, 12:34:02.079
29, 2795.32, 2018.58, -4720.88, 3042.49, 0.000, 0.000, 0.000, 12:34:02.080
30, 1926.69, 1064.03, -5558.77, 2180.75, 0.000, 0.000, 0.000, 12:34:02.080
31, 1586.81, 456.66, -5567.65, 1828.23, 0.000, 0.000, 0.000, 12:34:02.080
32, 2043.56, 978.28, -5165.59, 2280.92, 0.000, 0.000, 0.000, 12:34:02.080
33, 2782.55, 1013.59, -4735.74, 3028.51, 0.000, 0.000, 0.000, 12:34:02.082
34, 1921.17, 90.74, -5558.77, 2166.68, 0.000, 0.000, 0.000, 12:34:02.082
35, 1581.19, -521.95, -5568.20, 1819.16, 0.000, 0.000, 0.000, 12:34:02.094
36, 1994.42, -43.10, -5207.62, 2241.76, 0.000, 0.000, 0.000, 12:34:02.094
37, 2759.14, 28.27, -4734.15, 3022.31, 0.000, 0.000, 0.000, 12:34:02.109
38, 1944.47, -866.72, -5538.29, 2184.48, 0.000, 0.000, 0.000, 12:34:02.109
39, 1515.82, -1559.17, -5645.32, 1753.52, 0.000, 0.000, 0.000, 12:34:02.138
40, 1647.25, -1364.93, -5547.56, 1866.17, 0.000, 0.000, 0.000, 12:34:02.138
41, 2380.46, -1346.58, -5112.06, 2594.44, 0.000, 0.000, 0.000, 12:34:02.139
42, 1826.45, -1953.77, -5667.26, 2021.60, 0.000, 0.000, 0.000, 12:34:02.139
43, 1772.60, -2254.19, -6381.77, 1964.24, 0.000, 0.000, 0.000, 12:34:02.139
44, 2179.58, -1810.72, -5999.06, 2357.80, 0.000, 0.000, 0.000, 12:34:02.139
45, 2616.74, -1113.06, -5832.33, 2819.77, 0.000, 0.000, 0.000, 12:34:02.140
46, 1914.02, -1882.69, -6568.54, 2125.24, 0.000, 0.000, 0.000, 12:34:02.140
47, 1715.92, -2304.30, -7424.24, 1948.00, 0.000, 0.000, 0.000, 12:34:02.154
48, 2082.59, -1891.47, -7063.69, 2300.48, 0.000, 0.000, 0.000, 12:34:02.154
49, 2486.57, -1252.46, -6907.71, 2716.59, 0.000, 0.000, 0.000, 12:34:02.175
50, 1834.34, -1967.88, -7616.68, 2090.79, 0.000, 0.000, 0.000, 12:34:02.176
51, 1759.13, -2240.07, -8384.21, 2007.77, 0.000, 0.000, 0.000, 12:34:02.183
52, 2158.18, -1793.01, -7980.86, 2387.79, 0.000, 0.000, 0.000, 12:34:02.184
53, 2452.65, -1303.81, -7930.94, 2689.69, 0.000, 0.000, 0.000, 12:34:02.184
54, 1762.53, -2038.43, -8658.69, 1994.70, 0.000, 0.000, 0.000, 12:34:02.184
55, 1737.39, -2255.76, -9400.95, 1973.05, 0.000, 0.000, 0.000, 12:34:02.213
56, 2079.72, -1874.28, -9037.46, 2313.64, 0.000, 0.000, 0.000, 12:34:02.213
57, 2229.00, -1552.98, -8098.54, 2437.11, 0.000, 0.000, 0.000, 12:34:02.214
58, 1635.95, -2195.16, -8747.08, 1824.56, 0.000, 0.000, 0.000, 12:34:02.214
59, 937.61, -3057.51, -9253.22, 1179.00, 0.000, 0.000, 0.000, 12:34:02.215
60, 1317.36, -2633.27, -8862.71, 1554.47, 0.000, 0.000, 0.000, 12:34:02.215
61, 2164.76, -2605.61, -8175.25, 2423.80, 0.000, 0.000, 0.000, 12:34:02.229
62, 1677.07, -3131.20, -8695.17, 1950.45, 0.000, 0.000, 0.000, 12:34:02.229
63, 1195.45, -3768.04, -8990.26, 1438.34, 0.000, 0.000, 0.000, 12:34:02.244
64, 1398.77, -3526.92, -8776.61, 1668.50, 0.000, 0.000, 0.000, 12:34:02.244
65, 1964.42, -2806.36, -8364.11, 2206.65, 0.000, 0.000, 0.000, 12:34:02.244
66, 1567.21, -3248.69, -8802.09, 1795.63, 0.000, 0.000, 0.000, 12:34:02.245
67, 1333.73, -3621.42, -8850.14, 1589.15, 0.000, 0.000, 0.000, 12:34:02.258
68, 1543.46, -3368.12, -8649.52, 1788.74, 0.000, 0.000, 0.000, 12:34:02.258
69, 2164.79, -2605.78, -8155.94, 2401.57, 0.000, 0.000, 0.000, 12:34:02.274
70, 1520.86, -3304.85, -8824.97, 1765.02, 0.000, 0.000, 0.000, 12:34:02.274
71, 1408.49, -3561.75, -9779.56, 1636.92, 0.000, 0.000, 0.000, 12:34:02.274
72, 1689.91, -3220.11, -9505.15, 1914.88, 0.000, 0.000, 0.000, 12:34:02.274
73, 1979.26, -2777.74, -9329.37, 2217.45, 0.000, 0.000, 0.000, 12:34:02.288
74, 1433.24, -3398.05, -9884.69, 1648.05, 0.000, 0.000, 0.000, 12:34:02.289
75, 1408.20, -3554.77, -10763.29, 682.83, 0.000, 0.000, 0.000, 12:34:02.303
76, 1580.00, -3345.68, -10603.10, 810.48, 0.000, 0.000, 0.000, 12:34:02.303
77, 1876.72, -2889.92, -10408.48, 1114.52, 0.000, 0.000, 0.000, 12:34:02.304
78, 1293.80, -3546.65, -11018.28, 561.10, 0.000, 0.000, 0.000, 12:34:02.304
79, 467.61, -4524.04, -11725.80, -282.61, 0.000, 0.000, 0.000, 12:34:02.334
80, 778.48, -4131.98, -11427.33, 3.01, 0.000, 0.000, 0.000, 12:34:02.334
81, 969.47, -3798.05, -11332.64, 231.13, 0.000, 0.000, 0.000, 12:34:02.334
82, 559.80, -4297.08, -11807.03, -179.84, 0.000, 0.000, 0.000, 12:34:02.334
83, 441.65, -4525.98, -12715.41, -301.80, 0.000, 0.000, 0.000, 12:34:02.335
84, 541.05, -4391.64, -12625.62, -212.60, 0.000, 0.000, 0.000, 12:34:02.335
85, 944.50, -3837.90, -12366.84, 190.84, 0.000, 0.000, 0.000, 12:34:02.349
86, 714.94, -4116.34, -12614.13, -40.63, 0.000, 0.000, 0.000, 12:34:02.349
87, 538.93, -4433.63, -12635.33, -227.10, 0.000, 0.000, 0.000, 12:34:02.363
88, 590.04, -4330.86, -12577.92, -191.02, 0.000, 0.000, 0.000, 12:34:02.363
89, 685.24, -4105.37, -11610.86, -59.74, 0.000, 0.000, 0.000, 12:34:02.364
90, 237.98, -4609.30, -12059.67, -528.44, 0.000, 0.000, 0.000, 12:34:02.364
91, -443.19, -5422.48, -12620.36, -1215.83, 0.000, 0.000, 0.000, 12:34:02.378
92, -239.96, -5165.12, -12443.40, -1037.01, 0.000, 0.000, 0.000, 12:34:02.378
93, 677.25, -5094.15, -11624.64, -113.23, 0.000, 0.000, 0.000, 12:34:02.409
94, 308.45, -5511.26, -11988.79, -461.63, 0.000, 0.000, 0.000, 12:34:02.409
95, -368.64, -6320.82, -12539.04, -1156.56, 0.000, 0.000, 0.000, 12:34:02.410
96, -238.15, -6139.40, -12428.91, -1029.33, 0.000, 0.000, 0.000, 12:34:02.410
97, 657.29, -6084.40, -11642.10, -114.81, 0.000, 0.000, 0.000, 12:34:02.410
98, 356.49, -6445.38, -11944.29, -409.49, 0.000, 0.000, 0.000, 12:34:02.410
99, -350.30, -7284.71, -12525.51, -1125.43, 0.000, 0.000, 0.000, 12:34:02.411
100, -227.68, -7125.65, -12435.80, -1005.32, 0.000, 0.000, 0.000, 12:34:02.411
101, 654.48, -7075.20, -11647.51, -109.94, 0.000, 0.000, 0.000, 12:34:02.424
102, 367.54, -7420.90, -11929.50, -382.58, 0.000, 0.000, 0.000, 12:34:02.424
103, -331.16, -8256.52, -12518.55, -1096.02, 0.000, 0.000, 0.000, 12:34:02.438
104, -249.48, -8116.54, -12443.92, -1015.62, 0.000, 0.000, 0.000, 12:34:02.439
105, 647.09, -8061.29, -11646.31, -109.24, 0.000, 0.000, 0.000, 12:34:02.454
106, 387.87, -8376.50, -11898.28, -369.35, 0.000, 0.000, 0.000, 12:34:02.454
107, -323.73, -9231.13, -12496.03, -1072.66, 0.000, 0.000, 0.000, 12:34:02.455
108, -265.59, -9117.29, -12459.84, -1016.34, 0.000, 0.000, 0.000, 12:34:02.455
109, 620.66, -9071.42, -11668.40, -114.41, 0.000, 0.000, 0.000, 12:34:02.468
110, 422.01, -9322.63, -11870.51, -322.45, 0.000, 0.000, 0.000, 12:34:02.468
111, -300.58, -10183.10, -12474.35, -1016.36, 0.000, 0.000, 0.000, 12:34:02.484
112, -286.99, -10120.79, -12474.17, -57.50, 0.000, 0.000, 0.000, 12:34:02.484
113, 590.92, -10081.13, -11693.78, 820.16, 0.000, 0.000, 0.000, 12:34:02.484
114, 428.01, -10303.88, -11871.33, 677.21, 0.000, 0.000, 0.000, 12:34:02.484
115, -305.82, -11171.38, -12474.75, -55.84, 0.000, 0.000, 0.000, 12:34:02.499
116, -290.49, -11095.31, -11498.08, -26.58, 0.000, 0.000, 0.000, 12:34:02.499
117, 563.11, -11087.84, -10738.41, 817.67, 0.000, 0.000, 0.000, 12:34:02.513
118, 430.31, -11271.16, -10880.19, 683.80, 0.000, 0.000, 0.000, 12:34:02.513
119, -284.48, -12118.89, -11479.38, -27.31, 0.000, 0.000, 0.000, 12:34:02.514
120, 685.48, -12084.01, -10523.65, 917.50, 0.000, 0.000, 0.000, 12:34:02.514
121, 1534.53, -12077.10, -9778.96, 1771.65, 0.000, 0.000, 0.000, 12:34:02.528
122, 1445.61, -12218.44, -9866.76, 1697.78, 0.000, 0.000, 0.000, 12:34:02.528
123, 695.86, -13102.88, -10496.16, 948.91, 0.000, 0.000, 0.000, 12:34:02.543
124, 1658.02, -13076.86, -9550.10, 1879.73, 0.000, 0.000, 0.000, 12:34:02.544
125, 2515.25, -13062.38, -8792.85, 2746.26, 0.000, 0.000, 0.000, 12:34:02.545
126, 2433.11, -13185.13, -8887.71, 2679.45, 0.000, 0.000, 0.000, 12:34:02.545
127, 1673.64, -14085.78, -9518.13, 1913.71, 0.000, 0.000, 0.000, 12:34:02.559
128, 2624.46, -14062.50, -8580.32, 2858.06, 0.000, 0.000, 0.000, 12:34:02.559
129, 3483.22, -14053.96, -7832.02, 3721.40, 0.000, 0.000, 0.000, 12:34:02.573
130, 3443.17, -14124.95, -7869.15, 3715.88, 0.000, 0.000, 0.000, 12:34:02.573
131, 2653.21, -15070.34, -8543.08, 2878.20, 0.000, 0.000, 0.000, 12:34:02.574
132, 3590.88, -15070.29, -7624.07, 3801.58, 0.000, 0.000, 0.000, 12:34:02.574
133, 4439.41, -15056.61, -6872.93, 4685.06, 0.000, 0.000, 0.000, 12:34:02.588
134, 3464.76, -15112.91, -6886.28, 3707.09, 0.000, 0.000, 0.000, 12:34:02.588
135, 2655.54, -16050.10, -7555.43, 2907.69, 0.000, 0.000, 0.000, 12:34:02.618
136, 3576.36, -15101.18, -6647.87, 3807.46, 0.000, 0.000, 0.000, 12:34:02.619
137, 4435.01, -15074.62, -5890.74, 4667.07, 0.000, 0.000, 0.000, 12:34:02.619
138, 3485.01, -15092.62, -6852.08, 3724.78, 0.000, 0.000, 0.000, 12:34:02.619
139, 2670.05, -16038.50, -7538.93, 2893.77, 0.000, 0.000, 0.000, 12:34:02.620
140, 3604.97, -15097.92, -6630.82, 3777.72, 0.000, 0.000, 0.000, 12:34:02.620
141, 4478.76, -15033.91, -5878.32, 4645.18, 0.000, 0.000, 0.000, 12:34:02.628
142, 3562.12, -15054.97, -6804.91, 3743.79, 0.000, 0.000, 0.000, 12:34:02.628
143, 2730.32, -16032.95, -7546.99, 2911.27, 0.000, 0.000, 0.000, 12:34:02.633
144, 3672.42, -15116.25, -6643.37, 3773.08, 0.000, 0.000, 0.000, 12:34:02.633
145, 4521.69, -15088.29, -5885.55, 4653.67, 0.000, 0.000, 0.000, 12:34:02.650
146, 3653.63, -16042.88, -6794.75, 3779.44, 0.000, 0.000, 0.000, 12:34:02.650
147, 2794.17, -16067.73, -7536.69, 2902.80, 0.000, 0.000, 0.000, 12:34:02.663
148, 3664.66, -15145.99, -6672.84, 3778.80, 0.000, 0.000, 0.000, 12:34:02.663
149, 4525.13, -15126.68, -5904.87, 4652.82, 0.000, 0.000, 0.000, 12:34:02.668
150, 3640.68, -16031.92, -6794.36, 3789.05, 0.000, 0.000, 0.000, 12:34:02.668
151, 2765.32, -16065.10, -7544.22, 2898.68, 0.000, 0.000, 0.000, 12:34:02.694
152, 3595.44, -15172.70, -6702.67, 3739.66, 0.000, 0.000, 0.000, 12:34:02.694
153, 4476.49, -15123.44, -5912.37, 4626.73, 0.000, 0.000, 0.000, 12:34:02.694
154, 3619.59, -15988.95, -6774.87, 3794.05, 0.000, 0.000, 0.000, 12:34:02.695
155, 2703.53, -16049.61, -7545.83, 2894.60, 0.000, 0.000, 0.000, 12:34:02.695
156, 3531.23, -15168.39, -6716.04, 3718.05, 0.000, 0.000, 0.000, 12:34:02.695
157, 4417.64, -15097.47, -5912.63, 4619.40, 0.000, 0.000, 0.000, 12:34:02.709
158, 3592.76, -15953.30, -6762.03, 3802.08, 0.000, 0.000, 0.000, 12:34:02.709
159, 2684.61, -16042.50, -7555.33, 2879.90, 0.000, 0.000, 0.000, 12:34:02.723
160, 3521.74, -15149.68, -6712.54, 3714.49, 0.000, 0.000, 0.000, 12:34:02.723
161, 4389.32, -15105.15, -5936.40, 4601.29, 0.000, 0.000, 0.000, 12:34:02.724
162, 3595.07, -15904.93, -6740.38, 3826.54, 0.000, 0.000, 0.000, 12:34:02.724
163, 2641.76, -16014.38, -7547.29, 2883.00, 0.000, 0.000, 0.000, 12:34:02.768
164, 3470.58, -15151.22, -6731.92, 3705.89, 0.000, 0.000, 0.000, 12:34:02.768
165, 4360.02, -15083.14, -5932.11, 4616.14, 0.000, 0.000, 0.000, 12:34:02.768
166, 3587.76, -15874.03, -6713.53, 3860.36, 0.000, 0.000, 0.000, 12:34:02.769
167, 2631.38, -15998.19, -7554.17, 2895.08, 0.000, 0.000, 0.000, 12:34:02.769
168, 3442.47, -15153.62, -6746.28, 3701.02, 0.000, 0.000, 0.000, 12:34:02.769
169, 4340.48, -15095.71, -5940.43, 4605.95, 0.000, 0.000, 0.000, 12:34:02.770
170, 3613.45, -15845.80, -6691.74, 3890.22, 0.000, 0.000, 0.000, 12:34:02.770
171, 3598.93, -16009.05, -7557.17, 3871.55, 0.000, 0.000, 0.000, 12:34:02.770
172, 4399.19, -15162.88, -6769.57, 4664.74, 0.000, 0.000, 0.000, 12:34:02.771
173, 5305.88, -15100.05, -5952.09, 5574.71, 0.000, 0.000, 0.000, 12:34:02.784
174, 4600.30, -15810.81, -6678.04, 4891.67, 0.000, 0.000, 0.000, 12:34:02.784
175, 4567.01, -16009.91, -7570.35, 4845.47, 0.000, 0.000, 0.000, 12:34:02.800
176, 5371.43, -15179.23, -6770.35, 5636.45, 0.000, 0.000, 0.000, 12:34:02.800
177, 6301.28, -15093.25, -5942.41, 6573.17, 0.000, 0.000, 0.000, 12:34:02.813
178, 5629.88, -15779.39, -6642.92, 5908.09, 0.000, 0.000, 0.000, 12:34:02.814
179, 5546.48, -16020.22, -7575.20, 5821.42, 0.000, 0.000, 0.000, 12:34:02.815
180, 6329.91, -15202.25, -6797.16, 6597.36, 0.000, 0.000, 0.000, 12:34:02.815
181, 7272.27, -15099.00, -5952.02, 7540.48, 0.000, 0.000, 0.000, 12:34:02.828
182, 6635.27, -15747.66, -6621.80, 6918.58, 0.000, 0.000, 0.000, 12:34:02.828
183, 6511.62, -16029.64, -7595.10, 6783.81, 0.000, 0.000, 0.000, 12:34:02.844
184, 7288.80, -15228.46, -6816.68, 7558.65, 0.000, 0.000, 0.000, 12:34:02.844
185, 7311.20, -15073.79, -5923.49, 7569.25, 0.000, 0.000, 0.000, 12:34:02.845
186, 6696.73, -15707.48, -6567.54, 6961.74, 0.000, 0.000, 0.000, 12:34:02.845
187, 6502.71, -16058.09, -6632.23, 6763.43, 0.000, 0.000, 0.000, 12:34:02.858
188, 7269.76, -15260.34, -5861.12, 7511.42, 0.000, 0.000, 0.000, 12:34:02.858
189, 7325.10, -15068.53, -4931.16, 7571.69, 0.000, 0.000, 0.000, 12:34:02.888
190, 6882.86, -15516.85, -5420.05, 7148.75, 0.000, 0.000, 0.000, 12:34:02.888
191, 6565.10, -15997.54, -5596.30, 6824.59, 0.000, 0.000, 0.000, 12:34:02.889
192, 7162.39, -15383.31, -4982.25, 7415.00, 0.000, 0.000, 0.000, 12:34:02.889
193, 7231.70, -15169.87, -4034.32, 7483.71, 0.000, 0.000, 0.000, 12:34:02.890
194, 6708.80, -15706.00, -4601.90, 6973.84, 0.000, 0.000, 0.000, 12:34:02.890
195, 6458.87, -16114.76, -4714.84, 6722.98, 0.000, 0.000, 0.000, 12:34:02.890
196, 7214.96, -15328.96, -3952.11, 7471.00, 0.000, 0.000, 0.000, 12:34:02.890
197, 7294.80, -15109.13, -3001.55, 7549.88, 0.000, 0.000, 0.000, 12:34:02.903
198, 6795.76, -15623.69, -3548.57, 7045.04, 0.000, 0.000, 0.000, 12:34:02.903
199, 6495.70, -16081.72, -3711.34, 6746.17, 0.000, 0.000, 0.000, 12:34:02.918
200, 7231.75, -15329.41, -2979.35, 7466.18, 0.000, 0.000, 0.000, 12:34:02.918
0, -532.17, -402.32, -1030.23, -299.12, 0.000, 0.000, 0.000, 12:34:02.919
1, -1013.84, -889.37, -1558.04, -765.22, 0.000, 0.000, 0.000, 12:34:02.933
2, -1343.30, -1375.95, -1740.89, -1100.26, 0.000, 0.000, 0.000, 12:34:02.933
3, -617.74, -634.99, -1022.71, -400.22, 0.000, 0.000, 0.000, 12:34:02.963
4, -532.68, -411.56, -52.13, -299.38, 0.000, 0.000, 0.000, 12:34:02.964
5, -1000.21, -855.04, -542.50, -733.41, 0.000, 0.000, 0.000, 12:34:02.964
6, -1326.40, -1369.01, -758.56, -1092.04, 0.000, 0.000, 0.000, 12:34:02.964
7, -634.30, -659.36, -56.56, -412.27, 0.000, 0.000, 0.000, 12:34:02.964
8, -543.74, -426.21, 913.12, -311.00, 0.000, 0.000, 0.000, 12:34:02.964
9, -946.73, -829.32, 460.90, -706.62, 0.000, 0.000, 0.000, 12:34:02.966
10, -1323.30, -1368.62, 219.85, -1089.24, 0.000, 0.000, 0.000, 12:34:02.966
11, -656.03, -688.14, 893.76, -438.53, 0.000, 0.000, 0.000, 12:34:02.978
12, -580.38, -444.37, 899.02, -334.13, 0.000, 0.000, 0.000, 12:34:02.978
13, -980.68, -797.32, 488.10, -680.88, 0.000, 0.000, 0.000, 12:34:02.994
14, -1337.78, -1370.52, 222.37, -1088.32, 0.000, 0.000, 0.000, 12:34:02.994
15, -655.06, -715.85, 879.11, -456.24, 0.000, 0.000, 0.000, 12:34:03.008
16, -552.90, -450.04, 895.32, -332.84, 0.000, 0.000, 0.000, 12:34:03.008
17, -888.58, -769.07, 521.26, -642.60, 0.000, 0.000, 0.000, 12:34:03.009
18, -1328.22, -1361.81, 223.97, -1084.31, 0.000, 0.000, 0.000, 12:34:03.009
19, -716.70, -754.09, 841.35, -492.29, 0.000, 0.000, 0.000, 12:34:03.024
20, -561.29, -452.53, 899.75, -333.69, 0.000, 0.000, 0.000, 12:34:03.024
21, -848.62, -715.73, 564.01, -605.70, 0.000, 0.000, 0.000, 12:34:03.038
22, -1314.79, -1353.90, 239.19, -1064.21, 0.000, 0.000, 0.000, 12:34:03.039
23, -727.40, -743.31, 851.38, -484.23, 0.000, 0.000, 0.000, 12:34:03.039
24, -608.11, -474.95, 873.17, -362.06, 0.000, 0.000, 0.000, 12:34:03.039
25, -864.90, -712.74, 565.20, -606.12, 0.000, 0.000, 0.000, 12:34:03.054
26, -1330.79, -1353.31, 235.18, -1065.88, 0.000, 0.000, 0.000, 12:34:03.054
27, -743.32, -752.16, 840.56, -500.07, 0.000, 0.000, 0.000, 12:34:03.068
28, -630.22, -502.25, 851.26, -380.47, 0.000, 0.000, 0.000, 12:34:03.068
29, -840.90, -708.71, 577.00, -589.41, 0.000, 0.000, 0.000, 12:34:03.069
30, -1301.05, -1335.17, 252.80, -1044.09, 0.000, 0.000, 0.000, 12:34:03.069
31, -728.29, -755.75, 839.76, -494.73, 0.000, 0.000, 0.000, 12:34:03.098
32, -643.75, -531.26, 1803.92, -413.38, 0.000, 0.000, 0.000, 12:34:03.098
33, -848.93, -719.55, 1543.00, -605.87, 0.000, 0.000, 0.000, 12:34:03.099
34, -1275.91, -1321.85, 1240.44, -1042.37, 0.000, 0.000, 0.000, 12:34:03.099
35, -684.18, -729.46, 1849.44, -456.41, 0.000, 0.000, 0.000, 12:34:03.099
36, -655.54, -578.89, 2766.99, -414.98, 0.000, 0.000, 0.000, 12:34:03.099
37, -898.21, -784.71, 2471.25, -656.21, 0.000, 0.000, 0.000, 12:34:03.120
38, -1247.26, -1325.29, 2249.90, -1027.30, 0.000, 0.000, 0.000, 12:34:03.121
39, -671.16, -722.43, 2835.07, -437.04, 0.000, 0.000, 0.000, 12:34:03.128
40, 272.28, -612.41, 3699.26, 476.88, 0.000, 0.000, 0.000, 12:34:03.128
41, 90.92, -839.02, 3457.63, 285.17, 0.000, 0.000, 0.000, 12:34:03.129
42, -207.05, -1284.29, 3286.82, -7.34, 0.000, 0.000, 0.000, 12:34:03.129
43, 371.78, -747.33, 3850.26, 514.28, 0.000, 0.000, 0.000, 12:34:03.174
44, 1290.19, -614.94, 4644.02, 1439.01, 0.000, 0.000, 0.000, 12:34:03.174
45, 1160.64, -821.58, 4463.29, 1267.35, 0.000, 0.000, 0.000, 12:34:03.174
46, 922.70, -1296.48, 4307.23, 1032.88, 0.000, 0.000, 0.000, 12:34:03.174
47, 1436.51, -757.77, 4800.08, 1536.12, 0.000, 0.000, 0.000, 12:34:03.175
48, 2325.92, -729.06, 5613.08, 2393.07, 0.000, 0.000, 0.000, 12:34:03.175
49, 2189.29, -849.81, 5422.99, 2283.00, 0.000, 0.000, 0.000, 12:34:03.176
50, 1898.81, -1288.43, 5280.43, 2029.38, 0.000, 0.000, 0.000, 12:34:03.176
51, 2374.46, -786.20, 5789.74, 2512.02, 0.000, 0.000, 0.000, 12:34:03.177
52, 3238.32, -749.11, 6580.98, 3388.81, 0.000, 0.000, 0.000, 12:34:03.177
53, 3142.42, -807.68, 6433.82, 3302.26, 0.000, 0.000, 0.000, 12:34:03.189
54, 2862.93, -1258.86, 6268.90, 3012.02, 0.000, 0.000, 0.000, 12:34:03.189
55, 3305.66, -772.65, 6762.49, 3462.62, 0.000, 0.000, 0.000, 12:34:03.203
56, 4187.61, -742.76, 7532.39, 4325.50, 0.000, 0.000, 0.000, 12:34:03.203
57, 4090.85, -783.11, 7402.55, 4255.48, 0.000, 0.000, 0.000, 12:34:03.219
58, 3786.27, -1210.71, 7257.86, 3979.85, 0.000, 0.000, 0.000, 12:34:03.219
59, 4225.22, -740.23, 7731.45, 4423.87, 0.000, 0.000, 0.000, 12:34:03.219
60, 5116.96, -713.37, 8509.51, 5288.30, 0.000, 0.000, 0.000, 12:34:03.220
61, 5043.89, -732.19, 8403.76, 5250.62, 0.000, 0.000, 0.000, 12:34:03.249
62, 4733.45, -1187.34, 8227.36, 4956.15, 0.000, 0.000, 0.000, 12:34:03.249
63, 5156.45, -737.48, 8690.37, 5380.06, 0.000, 0.000, 0.000, 12:34:03.249
64, 6021.53, -700.53, 9472.37, 6265.79, 0.000, 0.000, 0.000, 12:34:03.249
65, 6014.05, -674.26, 9411.32, 6267.84, 0.000, 0.000, 0.000, 12:34:03.249
66, 5664.19, -1178.28, 9190.17, 5937.22, 0.000, 0.000, 0.000, 12:34:03.250
67, 6087.78, -744.94, 9647.27, 6353.59, 0.000, 0.000, 0.000, 12:34:03.263
68, 6983.29, -695.72, 10448.20, 7251.16, 0.000, 0.000, 0.000, 12:34:03.263
69, 7016.48, -641.76, 10418.42, 7283.28, 0.000, 0.000, 0.000, 12:34:03.278
70, 6646.83, -1171.37, 10176.80, 6922.85, 0.000, 0.000, 0.000, 12:34:03.278
71, 7045.33, -763.41, 10609.43, 7317.16, 0.000, 0.000, 0.000, 12:34:03.279
72, 7957.26, -706.04, 11420.79, 8221.72, 0.000, 0.000, 0.000, 12:34:03.279
73, 8005.47, -622.83, 11414.76, 8285.86, 0.000, 0.000, 0.000, 12:34:03.309
74, 7628.93, -1163.67, 11157.03, 7909.99, 0.000, 0.000, 0.000, 12:34:03.309
75, 8018.54, -775.89, 11572.53, 8285.20, 0.000, 0.000, 0.000, 12:34:03.310
76, 8936.80, -721.61, 12396.71, 9198.62, 0.000, 0.000, 0.000, 12:34:03.310
77, 9018.42, -610.41, 12409.92, 9287.36, 0.000, 0.000, 0.000, 12:34:03.310
78, 8621.59, -1185.82, 12141.54, 8891.45, 0.000, 0.000, 0.000, 12:34:03.311
79, 8994.27, -801.21, 12533.39, 9259.37, 0.000, 0.000, 0.000, 12:34:03.323
80, 9930.63, -730.10, 13373.07, 10171.36, 0.000, 0.000, 0.000, 12:34:03.323
81, 10049.70, -618.92, 13441.04, 10299.98, 0.000, 0.000, 0.000, 12:34:03.338
82, 9629.35, -1194.49, 13145.66, 9873.06, 0.000, 0.000, 0.000, 12:34:03.338
83, 10008.13, -821.31, 13506.42, 10215.39, 0.000, 0.000, 0.000, 12:34:03.339
84, 10930.36, -780.66, 14374.13, 11129.12, 0.000, 0.000, 0.000, 12:34:03.339
85, 11098.55, -550.48, 14411.29, 11271.98, 0.000, 0.000, 0.000, 12:34:03.354
86, 10675.75, -1217.43, 14121.06, 10833.49, 0.000, 0.000, 0.000, 12:34:03.354
87, 11048.47, -892.26, 14492.42, 11188.75, 0.000, 0.000, 0.000, 12:34:03.368
88, 11992.92, -796.01, 15318.05, 12104.40, 0.000, 0.000, 0.000, 12:34:03.368
89, 12193.56, -589.47, 15440.99, 12314.82, 0.000, 0.000, 0.000, 12:34:03.369
90, 11690.29, -1251.19, 15067.54, 11827.80, 0.000, 0.000, 0.000, 12:34:03.369
91, 12001.50, -942.90, 15416.43, 12130.82, 0.000, 0.000, 0.000, 12:34:03.383
92, 12976.54, -808.19, 16321.80, 12138.61, 0.000, 0.000, 0.000, 12:34:03.383
93, 13178.88, -520.48, 16486.45, 12378.60, 0.000, 0.000, 0.000, 12:34:03.398
94, 12587.10, -1268.79, 16020.66, 11789.87, 0.000, 0.000, 0.000, 12:34:03.398
95, 12879.58, -984.26, 16348.06, 12056.78, 0.000, 0.000, 0.000, 12:34:03.398
96, 12941.25, -760.99, 17318.92, 12141.62, 0.000, 0.000, 0.000, 12:34:03.398
97, 13205.27, -424.19, 17527.09, 12426.89, 0.000, 0.000, 0.000, 12:34:03.414
98, 12537.33, -1226.38, 17006.43, 11789.88, 0.000, 0.000, 0.000, 12:34:03.414
99, 12815.44, -967.03, 17317.02, 12046.60, 0.000, 0.000, 0.000, 12:34:03.429
100, 12879.65, -750.99, 18278.63, 12115.66, 0.000, 0.000, 0.000, 12:34:03.429
101, 13179.59, -378.98, 18516.35, 12441.82, 0.000, 0.000, 0.000, 12:34:03.429
102, 12531.53, -1196.60, 17998.79, 11796.57, 0.000, 0.000, 0.000, 12:34:03.429
103, 12766.35, -960.55, 18277.00, 12030.45, 0.000, 0.000, 0.000, 12:34:03.443
104, 12839.75, -751.39, 19246.65, 12108.89, 0.000, 0.000, 0.000, 12:34:03.444
105, 13188.51, -340.06, 19530.61, 12471.70, 0.000, 0.000, 0.000, 12:34:03.459
106, 12498.83, -1194.19, 18968.95, 11800.32, 0.000, 0.000, 0.000, 12:34:03.459
107, 12725.46, -982.51, 19229.63, 12007.36, 0.000, 0.000, 0.000, 12:34:03.459
108, 12809.32, -768.30, 20202.30, 12094.78, 0.000, 0.000, 0.000, 12:34:03.459
109, 13196.86, -314.76, 20518.58, 12505.36, 0.000, 0.000, 0.000, 12:34:03.473
110, 12473.76, -1196.05, 19940.85, 11806.77, 0.000, 0.000, 0.000, 12:34:03.473
111, 12689.34, -1019.31, 20178.67, 11992.46, 0.000, 0.000, 0.000, 12:34:03.488
112, 12822.18, -768.53, 20202.56, 12098.64, 0.000, 0.000, 0.000, 12:34:03.488
113, 13248.89, -274.07, 20557.47, 12534.41, 0.000, 0.000, 0.000, 12:34:03.489
114, 12513.04, -1178.45, 19955.65, 11813.38, 0.000, 0.000, 0.000, 12:34:03.489
115, 12680.29, -1027.74, 20171.74, 11968.29, 0.000, 0.000, 0.000, 12:34:03.503
116, 12798.95, -776.31, 20193.24, 12089.12, 0.000, 0.000, 0.000, 12:34:03.503
117, 13274.64, -241.41, 20582.70, 12572.29, 0.000, 0.000, 0.000, 12:34:03.518
118, 12503.51, -1192.17, 19937.18, 11798.74, 0.000, 0.000, 0.000, 12:34:03.518
119, 12640.51, -1073.03, 20126.41, 11929.39, 0.000, 0.000, 0.000, 12:34:03.519
120, 12794.76, -797.26, 20185.93, 12079.68, 0.000, 0.000, 0.000, 12:34:03.519
121, 13322.20, -201.83, 20624.34, 12617.12, 0.000, 0.000, 0.000, 12:34:03.533
122, 12506.24, -210.73, 19940.38, 11808.30, 0.000, 0.000, 0.000, 12:34:03.533
123, 12637.26, -113.13, 20109.56, 11907.78, 0.000, 0.000, 0.000, 12:34:03.549
124, 12798.98, 169.51, 20170.67, 12061.18, 0.000, 0.000, 0.000, 12:34:03.549
125, 13349.94, 799.19, 20649.23, 12635.33, 0.000, 0.000, 0.000, 12:34:03.549
126, 12524.75, 769.01, 19942.34, 11806.72, 0.000, 0.000, 0.000, 12:34:03.549
127, 12620.26, 832.10, 20094.13, 11885.40, 0.000, 0.000, 0.000, 12:34:03.570
128, 12797.75, 1136.85, 20170.38, 12067.85, 0.000, 0.000, 0.000, 12:34:03.570
129, 13414.99, 1798.59, 20699.89, 12701.03, 0.000, 0.000, 0.000, 12:34:03.578
130, 12529.57, 1761.17, 19940.98, 11812.27, 0.000, 0.000, 0.000, 12:34:03.579
131, 12581.52, 1773.23, 20053.51, 11835.25, 0.000, 0.000, 0.000, 12:34:03.579
132, 12813.13, 2067.74, 20188.74, 12066.33, 0.000, 0.000, 0.000, 12:34:03.579
133, 13487.40, 2834.08, 20755.38, 12729.91, 0.000, 0.000, 0.000, 12:34:03.594
134, 12553.06, 2722.12, 19936.25, 11792.43, 0.000, 0.000, 0.000, 12:34:03.594
135, 12589.41, 2697.11, 20031.15, 11795.03, 0.000, 0.000, 0.000, 12:34:03.608
136, 12862.47, 3070.63, 20197.28, 12081.12, 0.000, 0.000, 0.000, 12:34:03.609
137, 13612.21, 3868.56, 20822.54, 12779.35, 0.000, 0.000, 0.000, 12:34:03.609
138, 12654.75, 3652.27, 19976.43, 11804.90, 0.000, 0.000, 0.000, 12:34:03.609
139, 12567.57, 3462.78, 19915.94, 11719.85, 0.000, 0.000, 0.000, 12:34:03.623
140, 12921.66, 4002.29, 20150.28, 12068.64, 0.000, 0.000, 0.000, 12:34:03.623
141, 13877.10, 4054.57, 20984.70, 12978.28, 0.000, 0.000, 0.000, 12:34:03.654
142, 13622.74, 3634.54, 20905.40, 12655.73, 0.000, 0.000, 0.000, 12:34:03.654
143, 13127.36, 3049.07, 20504.15, 12319.75, 0.000, 0.000, 0.000, 12:34:03.654
144, 13724.85, 3833.55, 21022.82, 12902.08, 0.000, 0.000, 0.000, 12:34:03.654
145, 14488.38, 4717.19, 21666.79, 13714.36, 0.000, 0.000, 0.000, 12:34:03.655
146, 13761.09, 3834.89, 21122.73, 13040.25, 0.000, 0.000, 0.000, 12:34:03.655
147, 12883.04, 2871.60, 20294.57, 12088.50, 0.000, 0.000, 0.000, 12:34:03.656
148, 13596.20, 3777.12, 20940.94, 12833.78, 0.000, 0.000, 0.000, 12:34:03.656
149, 13664.50, 3957.65, 21840.92, 12889.45, 0.000, 0.000, 0.000, 12:34:03.668
150, 12797.58, 3922.82, 21145.59, 12026.68, 0.000, 0.000, 0.000, 12:34:03.668
151, 12118.09, 3192.96, 20633.75, 11357.89, 0.000, 0.000, 0.000, 12:34:03.683
152, 12514.83, 3644.73, 21033.82, 11741.04, 0.000, 0.000, 0.000, 12:34:03.684
153, 12677.25, 4178.78, 21639.39, 11935.23, 0.000, 0.000, 0.000, 12:34:03.713
154, 12644.79, 4095.47, 20729.62, 11929.10, 0.000, 0.000, 0.000, 12:34:03.713
155, 11681.64, 3698.31, 20434.82, 10962.79, 0.000, 0.000, 0.000, 12:34:03.728
156, 12285.45, 4320.16, 21025.78, 11556.92, 0.000, 0.000, 0.000, 12:34:03.728
157, 13180.23, 4719.23, 21203.96, 12483.07, 0.000, 0.000, 0.000, 12:34:03.728
158, 12637.16, 4121.81, 20743.26, 11939.22, 0.000, 0.000, 0.000, 12:34:03.729
159, 11885.43, 3659.63, 20116.55, 11181.65, 0.000, 0.000, 0.000, 12:34:03.729
160, 12368.64, 4437.27, 20947.63, 11657.61, 0.000, 0.000, 0.000, 12:34:03.729
161, 13347.88, 4539.46, 21529.36, 11745.53, 0.000, 0.000, 0.000, 12:34:03.730
162, 12774.22, 4114.50, 21314.00, 11128.86, 0.000, 0.000, 0.000, 12:34:03.730
163, 12708.79, 3235.38, 21276.27, 11036.88, 0.000, 0.000, 0.000, 12:34:03.744
164, 12959.63, 4068.65, 21442.89, 11257.65, 0.000, 0.000, 0.000, 12:34:03.744
165, 13662.36, 4867.98, 21799.55, 12049.21, 0.000, 0.000, 0.000, 12:34:03.759
166, 12773.20, 4073.07, 21304.23, 11109.85, 0.000, 0.000, 0.000, 12:34:03.759
167, 11836.46, 3323.01, 20375.57, 10154.14, 0.000, 0.000, 0.000, 12:34:03.759
168, 12237.52, 3358.19, 20651.38, 10520.25, 0.000, 0.000, 0.000, 12:34:03.760
169, 12735.18, 3920.81, 20854.64, 11109.60, 0.000, 0.000, 0.000, 12:34:03.773
170, 11948.24, 3255.84, 20452.38, 10275.33, 0.000, 0.000, 0.000, 12:34:03.773
171, 11940.15, 2404.64, 20439.13, 10227.64, 0.000, 0.000, 0.000, 12:34:03.803
172, 12237.64, 3333.11, 20657.87, 10495.84, 0.000, 0.000, 0.000, 12:34:03.803
173, 12844.24, 4028.99, 20945.37, 11197.46, 0.000, 0.000, 0.000, 12:34:03.804
174, 12091.69, 3402.81, 20589.88, 10409.45, 0.000, 0.000, 0.000, 12:34:03.804
175, 11938.13, 3395.13, 20455.73, 10227.01, 0.000, 0.000, 0.000, 12:34:03.804
176, 12168.76, 4229.13, 20588.42, 10420.58, 0.000, 0.000, 0.000, 12:34:03.804
177, 12869.28, 5024.51, 20976.26, 11224.31, 0.000, 0.000, 0.000, 12:34:03.805
178, 12207.65, 4489.22, 20667.98, 10514.41, 0.000, 0.000, 0.000, 12:34:03.805
179, 11942.29, 4352.94, 20451.56, 10216.02, 0.000, 0.000, 0.000, 12:34:03.818
180, 12143.55, 5153.75, 20552.65, 10382.62, 0.000, 0.000, 0.000, 12:34:03.818
181, 12956.41, 6066.87, 21030.69, 11294.15, 0.000, 0.000, 0.000, 12:34:03.834
182, 12240.01, 5473.25, 20688.94, 10523.68, 0.000, 0.000, 0.000, 12:34:03.834
183, 11929.98, 5322.12, 20429.03, 10161.72, 0.000, 0.000, 0.000, 12:34:03.849
184, 12130.54, 6109.19, 20531.93, 10347.67, 0.000, 0.000, 0.000, 12:34:03.849
185, 13042.01, 6139.93, 21091.37, 10369.53, 0.000, 0.000, 0.000, 12:34:03.849
186, 12299.29, 5530.98, 20737.64, 9599.03, 0.000, 0.000, 0.000, 12:34:03.849
187, 11906.57, 5281.59, 20405.35, 9172.50, 0.000, 0.000, 0.000, 12:34:03.879
188, 12052.10, 6018.88, 20459.37, 9301.84, 0.000, 0.000, 0.000, 12:34:03.879
189, 12070.88, 6153.59, 21105.56, 9398.44, 0.000, 0.000, 0.000, 12:34:03.879
190, 11402.30, 5610.40, 20809.83, 8704.66, 0.000, 0.000, 0.000, 12:34:03.880
191, 10900.63, 5256.44, 20392.87, 8155.96, 0.000, 0.000, 0.000, 12:34:03.880
192, 10992.37, 5888.52, 20393.50, 8222.45, 0.000, 0.000, 0.000, 12:34:03.880
193, 11114.33, 6134.31, 21116.41, 8437.41, 0.000, 0.000, 0.000, 12:34:03.894
194, 10526.97, 5724.86, 20910.21, 7843.68, 0.000, 0.000, 0.000, 12:34:03.894
195, 9925.20, 5218.04, 20384.51, 7148.72, 0.000, 0.000, 0.000, 12:34:03.908
196, 10885.09, 5756.61, 21260.84, 8099.64, 0.000, 0.000, 0.000, 12:34:03.909
197, 11153.36, 6178.28, 22119.75, 8427.30, 0.000, 0.000, 0.000, 12:34:03.909
198, 10719.18, 5837.70, 22001.20, 7946.79, 0.000, 0.000, 0.000, 12:34:03.909
199, 10027.26, 5193.96, 21402.47, 7204.47, 0.000, 0.000, 0.000, 12:34:03.923
200, 10881.75, 5644.26, 22176.10, 8023.52, 0.000, 0.000, 0.000, 12:34:03.923
0, 8295.23, 9058.28, 6442.12, 8451.63, 0.000, 0.000, 0.000, 12:34:03.924
1, 7917.97, 8838.80, 6383.14, 8051.20, 0.000, 0.000, 0.000, 12:34:03.953
2, 7048.88, 8067.95, 5631.97, 7140.31, 0.000, 0.000, 0.000, 12:34:03.954
3, 7813.93, 8448.98, 6384.35, 7915.99, 0.000, 0.000, 0.000, 12:34:03.954
4, 8275.20, 9080.97, 6449.66, 8470.51, 0.000, 0.000, 0.000, 12:34:03.954
5, 8031.17, 9009.75, 5533.73, 8192.57, 0.000, 0.000, 0.000, 12:34:03.955
6, 8018.45, 8107.20, 4672.44, 8132.95, 0.000, 0.000, 0.000, 12:34:03.955
7, 8715.49, 8400.70, 5339.24, 8820.50, 0.000, 0.000, 0.000, 12:34:03.968
8, 9275.71, 9138.87, 5498.60, 9478.27, 0.000, 0.000, 0.000, 12:34:03.969
9, 9095.27, 8201.49, 4665.94, 9294.14, 0.000, 0.000, 0.000, 12:34:03.983
10, 8931.49, 8141.57, 3697.06, 9102.17, 0.000, 0.000, 0.000, 12:34:03.983
11, 9544.60, 8332.16, 4291.97, 9704.10, 0.000, 0.000, 0.000, 12:34:03.984
12, 10196.24, 9177.70, 4537.92, 10446.98, 0.000, 0.000, 0.000, 12:34:03.984
13, 10124.95, 8360.73, 3788.14, 10385.87, 0.000, 0.000, 0.000, 12:34:03.998
14, 9864.65, 8178.38, 3714.61, 10095.23, 0.000, 0.000, 0.000, 12:34:03.998
15, 10415.39, 8256.76, 4201.13, 10592.98, 0.000, 0.000, 0.000, 12:34:04.013
16, 11155.97, 9170.81, 4516.64, 11419.82, 0.000, 0.000, 0.000, 12:34:04.013
17, 10243.46, 8498.38, 3886.49, 10522.81, 0.000, 0.000, 0.000, 12:34:04.013
18, 9865.00, 8190.77, 3698.78, 10095.36, 0.000, 0.000, 0.000, 12:34:04.014
19, 10269.61, 9120.15, 4088.72, 10495.80, 0.000, 0.000, 0.000, 12:34:04.029
20, 11106.15, 9149.81, 4481.62, 11414.98, 0.000, 0.000, 0.000, 12:34:04.029
21, 10341.90, 8618.11, 3972.75, 10631.28, 0.000, 0.000, 0.000, 12:34:04.044
22, 9834.90, 8176.24, 3679.13, 10092.27, 0.000, 0.000, 0.000, 12:34:04.045
23, 10152.40, 9013.72, 3997.35, 10393.08, 0.000, 0.000, 0.000, 12:34:04.045
24, 11085.27, 9129.27, 4481.44, 10414.49, 0.000, 0.000, 0.000, 12:34:04.045
25, 10469.18, 8764.97, 4082.31, 9782.56, 0.000, 0.000, 0.000, 12:34:04.059
26, 9844.19, 8185.10, 3686.83, 9106.97, 0.000, 0.000, 0.000, 12:34:04.059
27, 10072.33, 8907.13, 3924.98, 9307.43, 0.000, 0.000, 0.000, 12:34:04.073
28, 10105.65, 9106.42, 4475.08, 9400.44, 0.000, 0.000, 0.000, 12:34:04.073
29, 9605.89, 8894.98, 4195.24, 8931.17, 0.000, 0.000, 0.000, 12:34:04.074
30, 8816.94, 8129.07, 3651.36, 8099.95, 0.000, 0.000, 0.000, 12:34:04.074
31, 8992.44, 8787.82, 3827.70, 8235.38, 0.000, 0.000, 0.000, 12:34:04.088
32, 9117.45, 9098.07, 4456.21, 8448.89, 0.000, 0.000, 0.000, 12:34:04.088
33, 8758.29, 9017.86, 4291.35, 8071.07, 0.000, 0.000, 0.000, 12:34:04.103
34, 7866.40, 8146.46, 3666.70, 7132.67, 0.000, 0.000, 0.000, 12:34:04.103
35, 7917.16, 8685.57, 3741.88, 7157.67, 0.000, 0.000, 0.000, 12:34:04.104
36, 8128.20, 9066.17, 4459.52, 7434.11, 0.000, 0.000, 0.000, 12:34:04.104
37, 7895.83, 8151.69, 4393.13, 7188.62, 0.000, 0.000, 0.000, 12:34:04.118
38, 7865.54, 8143.52, 3649.48, 7108.97, 0.000, 0.000, 0.000, 12:34:04.118
39, 8801.94, 8556.95, 4628.15, 8028.02, 0.000, 0.000, 0.000, 12:34:04.133
40, 9078.46, 9037.70, 5417.05, 8394.25, 0.000, 0.000, 0.000, 12:34:04.133
41, 8965.50, 8254.07, 4469.84, 8265.15, 0.000, 0.000, 0.000, 12:34:04.149
42, 8833.41, 8105.48, 3630.94, 8064.54, 0.000, 0.000, 0.000, 12:34:04.149
43, 9662.22, 8433.80, 4528.74, 8884.48, 0.000, 0.000, 0.000, 12:34:04.156
44, 10040.17, 8989.27, 5404.07, 9328.69, 0.000, 0.000, 0.000, 12:34:04.156
45, 9073.37, 8361.01, 4567.96, 8368.53, 0.000, 0.000, 0.000, 12:34:04.163
46, 8814.42, 8098.25, 3622.24, 8059.94, 0.000, 0.000, 0.000, 12:34:04.163
47, 9576.39, 8324.35, 4446.30, 8798.60, 0.000, 0.000, 0.000, 12:34:04.164
48, 10031.03, 8972.80, 5388.34, 9324.55, 0.000, 0.000, 0.000, 12:34:04.164
49, 9184.90, 8480.57, 4661.14, 8488.57, 0.000, 0.000, 0.000, 12:34:04.179
50, 8834.86, 8123.44, 4631.13, 8086.10, 0.000, 0.000, 0.000, 12:34:04.179
51, 9464.70, 8201.46, 5339.01, 8678.53, 0.000, 0.000, 0.000, 12:34:04.209
52, 10022.22, 8954.02, 5362.67, 9313.79, 0.000, 0.000, 0.000, 12:34:04.209
53, 9324.45, 8609.19, 4771.99, 8608.97, 0.000, 0.000, 0.000, 12:34:04.209
54, 8815.12, 8102.77, 4597.61, 8058.41, 0.000, 0.000, 0.000, 12:34:04.210
55, 9368.83, 9081.90, 5245.81, 8581.83, 0.000, 0.000, 0.000, 12:34:04.210
56, 10009.28, 9909.93, 5344.31, 9286.00, 0.000, 0.000, 0.000, 12:34:04.210
57, 9428.01, 9708.15, 4865.37, 8706.30, 0.000, 0.000, 0.000, 12:34:04.210
58, 8828.21, 9077.50, 4618.66, 8051.07, 0.000, 0.000, 0.000, 12:34:04.211
59, 9271.80, 9949.81, 5160.58, 8492.98, 0.000, 0.000, 0.000, 12:34:04.223
60, 9981.74, 10874.50, 5337.69, 9252.98, 0.000, 0.000, 0.000, 12:34:04.223
61, 9551.02, 10810.31, 4963.48, 8830.41, 0.000, 0.000, 0.000, 12:34:04.238
62, 8842.34, 10064.53, 4610.30, 8075.00, 0.000, 0.000, 0.000, 12:34:04.238
63, 9172.51, 10839.06, 5076.33, 8396.24, 0.000, 0.000, 0.000, 12:34:04.254
64, 9964.22, 10852.10, 5320.42, 9252.78, 0.000, 0.000, 0.000, 12:34:04.254
65, 9673.41, 9961.25, 5074.20, 8960.36, 0.000, 0.000, 0.000, 12:34:04.254
66, 8827.30, 9085.34, 4608.17, 8059.66, 0.000, 0.000, 0.000, 12:34:04.254
67, 9086.32, 9760.38, 5003.30, 8308.57, 0.000, 0.000, 0.000, 12:34:04.283
68, 9965.08, 9848.28, 5314.23, 9249.73, 0.000, 0.000, 0.000, 12:34:04.283
69, 9785.77, 9108.05, 5176.24, 9075.69, 0.000, 0.000, 0.000, 12:34:04.284
70, 8843.52, 9093.19, 4627.78, 9058.83, 0.000, 0.000, 0.000, 12:34:04.284
71, 8987.57, 9655.07, 4911.14, 9182.90, 0.000, 0.000, 0.000, 12:34:04.284
72, 9909.56, 9794.67, 5276.29, 9191.26, 0.000, 0.000, 0.000, 12:34:04.284
73, 9877.73, 9209.09, 5248.62, 9157.69, 0.000, 0.000, 0.000, 12:34:04.298
74, 9764.42, 9056.88, 4567.40, 9009.15, 0.000, 0.000, 0.000, 12:34:04.298
75, 9822.63, 9491.70, 4779.31, 9034.07, 0.000, 0.000, 0.000, 12:34:04.313
76, 9847.76, 9710.85, 5218.75, 9114.87, 0.000, 0.000, 0.000, 12:34:04.313
77, 9003.65, 9316.41, 4360.12, 8280.08, 0.000, 0.000, 0.000, 12:34:04.314
78, 8831.16, 9078.10, 3621.81, 8057.90, 0.000, 0.000, 0.000, 12:34:04.314
79, 9742.93, 9389.44, 3713.64, 8954.76, 0.000, 0.000, 0.000, 12:34:04.328
80, 9823.49, 9691.59, 4209.67, 9102.31, 0.000, 0.000, 0.000, 12:34:04.328
81, 9121.46, 9460.33, 3472.33, 8402.92, 0.000, 0.000, 0.000, 12:34:04.358
82, 8848.05, 9085.58, 2637.95, 8077.15, 0.000, 0.000, 0.000, 12:34:04.359
83, 9656.17, 9309.98, 2680.24, 8870.60, 0.000, 0.000, 0.000, 12:34:04.359
84, 9787.22, 9660.86, 3212.81, 9063.78, 0.000, 0.000, 0.000, 12:34:04.359
85, 9263.10, 9609.74, 2618.83, 8536.54, 0.000, 0.000, 0.000, 12:34:04.360
86, 8869.89, 9113.42, 1680.38, 8094.02, 0.000, 0.000, 0.000, 12:34:04.360
87, 9572.53, 9208.24, 2591.91, 8781.32, 0.000, 0.000, 0.000, 12:34:04.361
88, 9780.32, 9629.02, 3186.75, 9041.23, 0.000, 0.000, 0.000, 12:34:04.361
89, 9390.06, 8776.60, 2738.63, 8680.17, 0.000, 0.000, 0.000, 12:34:04.373
90, 8898.40, 8169.84, 2699.91, 8133.37, 0.000, 0.000, 0.000, 12:34:04.373
91, 9487.48, 9112.74, 3494.99, 8691.55, 0.000, 0.000, 0.000, 12:34:04.389
92, 9733.74, 9584.08, 4139.86, 9015.36, 0.000, 0.000, 0.000, 12:34:04.389
93, 9518.29, 8905.44, 3828.70, 8795.62, 0.000, 0.000, 0.000, 12:34:04.403
94, 8889.39, 8160.79, 3666.14, 8116.07, 0.000, 0.000, 0.000, 12:34:04.403
95, 9393.56, 9025.16, 4403.84, 8601.70, 0.000, 0.000, 0.000, 12:34:04.404
96, 9704.67, 9544.88, 5105.86, 8976.08, 0.000, 0.000, 0.000, 12:34:04.404
97, 9641.91, 9049.36, 4919.49, 8926.75, 0.000, 0.000, 0.000, 12:34:04.433
98, 8929.03, 8187.46, 4671.24, 8155.32, 0.000, 0.000, 0.000, 12:34:04.433
99, 9327.58, 8922.70, 5316.25, 8519.08, 0.000, 0.000, 0.000, 12:34:04.434
100, 9686.59, 9511.98, 6054.47, 8932.56, 0.000, 0.000, 0.000, 12:34:04.434
101, 8796.35, 9171.28, 6015.89, 8036.59, 0.000, 0.000, 0.000, 12:34:04.434
102, 7964.89, 8211.79, 5666.24, 7172.37, 0.000, 0.000, 0.000, 12:34:04.435
103, 8266.72, 8825.26, 6225.69, 7440.30, 0.000, 0.000, 0.000, 12:34:04.455
104, 8709.67, 9451.03, 7021.58, 7909.85, 0.000, 0.000, 0.000, 12:34:04.455
105, 7995.84, 9283.17, 6117.37, 7197.48, 0.000, 0.000, 0.000, 12:34:04.463
106, 7052.76, 9177.95, 5670.12, 7180.19, 0.000, 0.000, 0.000, 12:34:04.463
107, 7273.20, 9660.98, 6143.77, 7349.66, 0.000, 0.000, 0.000, 12:34:04.464
108, 7735.78, 10350.23, 6976.27, 7905.40, 0.000, 0.000, 0.000, 12:34:04.464
109, 7169.26, 9393.43, 6224.07, 7326.96, 0.000, 0.000, 0.000, 12:34:04.494
110, 7097.86, 9182.43, 5713.28, 7234.62, 0.000, 0.000, 0.000, 12:34:04.494
111, 7133.33, 9541.44, 6044.81, 7275.21, 0.000, 0.000, 0.000, 12:34:04.494
112, 7669.28, 10310.77, 6960.77, 7878.10, 0.000, 0.000, 0.000, 12:34:04.494
113, 7282.89, 9548.47, 6346.30, 7487.92, 0.000, 0.000, 0.000, 12:34:04.495
114, 7095.83, 9231.94, 5739.74, 7245.17, 0.000, 0.000, 0.000, 12:34:04.495
115, 8032.55, 9491.01, 5978.20, 8155.24, 0.000, 0.000, 0.000, 12:34:04.509
116, 8585.28, 10296.73, 6921.08, 8779.15, 0.000, 0.000, 0.000, 12:34:04.509
117, 8317.43, 9698.41, 6455.61, 8547.74, 0.000, 0.000, 0.000, 12:34:04.523
118, 8020.73, 9259.92, 5720.48, 8200.61, 0.000, 0.000, 0.000, 12:34:04.523
119, 8887.40, 9408.56, 5889.25, 9022.77, 0.000, 0.000, 0.000, 12:34:04.524
120, 9482.50, 10261.24, 6865.02, 9708.83, 0.000, 0.000, 0.000, 12:34:04.525
121, 9383.09, 9839.02, 6536.99, 9647.69, 0.000, 0.000, 0.000, 12:34:04.553
122, 8972.84, 9282.78, 5714.51, 9192.96, 0.000, 0.000, 0.000, 12:34:04.553
123, 9706.90, 9321.96, 5796.10, 9908.81, 0.000, 0.000, 0.000, 12:34:04.554
124, 10378.01, 10214.42, 5831.65, 10644.24, 0.000, 0.000, 0.000, 12:34:04.554
125, 9466.83, 9966.61, 5662.56, 9762.82, 0.000, 0.000, 0.000, 12:34:04.555
126, 8956.06, 9303.83, 4743.95, 9224.23, 0.000, 0.000, 0.000, 12:34:04.555
127, 9600.06, 10205.81, 5716.55, 9829.76, 0.000, 0.000, 0.000, 12:34:04.568
128, 10331.36, 11148.97, 5811.60, 10603.15, 0.000, 0.000, 0.000, 12:34:04.568
129, 9584.16, 11086.75, 5751.90, 9885.36, 0.000, 0.000, 0.000, 12:34:04.583
130, 8964.53, 10285.77, 5735.86, 9228.29, 0.000, 0.000, 0.000, 12:34:04.583
131, 9517.33, 11103.82, 6642.25, 9743.99, 0.000, 0.000, 0.000, 12:34:04.583
132, 10274.86, 11114.51, 6749.07, 10562.97, 0.000, 0.000, 0.000, 12:34:04.583
133, 9697.41, 10253.55, 5867.19, 10012.37, 0.000, 0.000, 0.000, 12:34:04.599
134, 8999.83, 9348.90, 5769.46, 9259.91, 0.000, 0.000, 0.000, 12:34:04.599
135, 9419.76, 10021.67, 6547.34, 9645.51, 0.000, 0.000, 0.000, 12:34:04.613
136, 10221.28, 10047.56, 6709.08, 10496.67, 0.000, 0.000, 0.000, 12:34:04.613
137, 9819.76, 9396.68, 5962.57, 10138.96, 0.000, 0.000, 0.000, 12:34:04.614
138, 9037.44, 9382.05, 5784.66, 9287.36, 0.000, 0.000, 0.000, 12:34:04.614
139, 9361.72, 9935.17, 6472.17, 9588.78, 0.000, 0.000, 0.000, 12:34:04.628
140, 10196.11, 10022.29, 6673.38, 10477.57, 0.000, 0.000, 0.000, 12:34:04.628
141, 9953.67, 9525.38, 6075.73, 10261.69, 0.000, 0.000, 0.000, 12:34:04.644
142, 9086.67, 9419.15, 5795.47, 9326.63, 0.000, 0.000, 0.000, 12:34:04.644
