%OpenBCI Raw EEG Data
%
%Sample Rate = 200.0 Hz
%First Column = SampleIndex
%Last Column = Timestamp 
%Other Columns = EEG data in microvolts followed by Accel Data (in G) interleaved with Aux Data
0, -3222.10, -3259.32, -3990.74, -3219.13, 0.000, 0.000, 0.000, 12:52:29.098
1, -3719.61, -3855.55, -4411.18, -3690.48, 0.000, 0.000, 0.000, 12:52:29.099
2, -3411.62, -3502.62, -4130.30, -3421.23, 0.000, 0.000, 0.000, 12:52:29.099
3, -2872.84, -2776.61, -3648.28, -2921.63, 0.000, 0.000, 0.000, 12:52:29.112
4, -3237.12, -3201.23, -3955.65, -3241.76, 0.000, 0.000, 0.000, 12:52:29.112
5, -3712.82, -3757.56, -4370.75, -3706.81, 0.000, 0.000, 0.000, 12:52:29.113
6, -3386.57, -3391.12, -4093.95, -3413.89, 0.000, 0.000, 0.000, 12:52:29.113
7, -2856.09, -2845.63, -3626.13, -2905.97, 0.000, 0.000, 0.000, 12:52:29.127
8, -3217.99, -3217.68, -3944.00, -3225.20, 0.000, 0.000, 0.000, 12:52:29.127
9, -3685.62, -3816.16, -4361.66, -3682.01, 0.000, 0.000, 0.000, 12:52:29.142
10, -3359.67, -3340.87, -4077.74, -3387.09, 0.000, 0.000, 0.000, 12:52:29.142
11, -2840.64, -2791.30, -3621.31, -2891.25, 0.000, 0.000, 0.000, 12:52:29.142
12, -3194.02, -3274.02, -3937.66, -3202.78, 0.000, 0.000, 0.000, 12:52:29.143
13, -3679.72, -3842.24, -4363.98, -3656.98, 0.000, 0.000, 0.000, 12:52:29.158
14, -3354.69, -3424.78, -4081.73, -3379.25, 0.000, 0.000, 0.000, 12:52:29.158
15, -2827.67, -2774.89, -3620.60, -2876.35, 0.000, 0.000, 0.000, 12:52:29.173
16, -3193.24, -3259.94, -3939.87, -3196.23, 0.000, 0.000, 0.000, 12:52:29.173
17, -3670.42, -3684.61, -4358.96, -3649.31, 0.000, 0.000, 0.000, 12:52:29.174
18, -3345.98, -3307.71, -4081.43, -3370.38, 0.000, 0.000, 0.000, 12:52:29.174
19, -2832.11, -2771.18, -3629.04, -2872.34, 0.000, 0.000, 0.000, 12:52:29.187
20, -3189.23, -3231.11, -3941.24, -3192.69, 0.000, 0.000, 0.000, 12:52:29.187
21, -3669.77, -3756.30, -4363.69, -3652.74, 0.000, 0.000, 0.000, 12:52:29.203
22, -3352.01, -3339.85, -4075.03, -3370.85, 0.000, 0.000, 0.000, 12:52:29.203
23, -2835.76, -2890.05, -3623.86, -2875.06, 0.000, 0.000, 0.000, 12:52:29.217
24, -3198.55, -3301.34, -3942.91, -3196.37, 0.000, 0.000, 0.000, 12:52:29.217
25, -3672.82, -3851.45, -4369.11, -3649.87, 0.000, 0.000, 0.000, 12:52:29.218
26, -3359.46, -3486.79, -4087.50, -3363.74, 0.000, 0.000, 0.000, 12:52:29.218
27, -2826.95, -2883.37, -3622.61, -2872.72, 0.000, 0.000, 0.000, 12:52:29.247
28, -3189.64, -3265.55, -3940.52, -3182.26, 0.000, 0.000, 0.000, 12:52:29.247
29, -3662.94, -3776.11, -4363.29, -3644.11, 0.000, 0.000, 0.000, 12:52:29.248
30, -3346.71, -3296.80, -4081.04, -3353.23, 0.000, 0.000, 0.000, 12:52:29.248
31, -2817.73, -2742.93, -3618.68, -2868.09, 0.000, 0.000, 0.000, 12:52:29.249
32, -3177.08, -3263.27, -3939.61, -3171.45, 0.000, 0.000, 0.000, 12:52:29.249
33, -3659.91, -3663.30, -4367.76, -3644.45, 0.000, 0.000, 0.000, 12:52:29.249
34, -3340.14, -3460.72, -4085.02, -3355.32, 0.000, 0.000, 0.000, 12:52:29.249
35, -2821.86, -2859.25, -3620.94, -2862.41, 0.000, 0.000, 0.000, 12:52:29.262
36, -3187.67, -3151.34, -3936.04, -3178.90, 0.000, 0.000, 0.000, 12:52:29.262
37, -3673.86, -3762.02, -4360.85, -3640.72, 0.000, 0.000, 0.000, 12:52:29.277
38, -3352.56, -3383.22, -4083.11, -3361.82, 0.000, 0.000, 0.000, 12:52:29.277
39, -2825.35, -2885.42, -3624.52, -2865.49, 0.000, 0.000, 0.000, 12:52:29.293
40, -3205.46, -3224.21, -3957.25, -3191.40, 0.000, 0.000, 0.000, 12:52:29.293
41, -3693.69, -3804.47, -4389.54, -3661.26, 0.000, 0.000, 0.000, 12:52:29.300
42, -3374.26, -3374.58, -4108.72, -3379.18, 0.000, 0.000, 0.000, 12:52:29.300
43, -2852.17, -2860.74, -3644.55, -2896.01, 0.000, 0.000, 0.000, 12:52:29.307
44, -3205.04, -3230.37, -3954.82, -3196.47, 0.000, 0.000, 0.000, 12:52:29.307
45, -3682.72, -3767.67, -4382.05, -3652.40, 0.000, 0.000, 0.000, 12:52:29.322
46, -3356.87, -3400.91, -4093.89, -3362.39, 0.000, 0.000, 0.000, 12:52:29.322
47, -2826.52, -2799.86, -3626.04, -2861.97, 0.000, 0.000, 0.000, 12:52:29.322
48, -3182.91, -3198.13, -3936.84, -3179.47, 0.000, 0.000, 0.000, 12:52:29.323
49, -3660.76, -3787.45, -4361.34, -3634.96, 0.000, 0.000, 0.000, 12:52:29.338
50, -3348.43, -3409.39, -4086.88, -3356.49, 0.000, 0.000, 0.000, 12:52:29.338
51, -2833.10, -2819.38, -3627.19, -2870.04, 0.000, 0.000, 0.000, 12:52:29.352
52, -3184.29, -3236.99, -3945.40, -3174.48, 0.000, 0.000, 0.000, 12:52:29.353
53, -3670.21, -3758.36, -4366.24, -3634.26, 0.000, 0.000, 0.000, 12:52:29.353
54, -3342.36, -3368.25, -4088.65, -3351.13, 0.000, 0.000, 0.000, 12:52:29.354
55, -2814.52, -2762.62, -3620.00, -2849.02, 0.000, 0.000, 0.000, 12:52:29.383
56, -3170.95, -3277.05, -3935.76, -3171.20, 0.000, 0.000, 0.000, 12:52:29.383
57, -3651.56, -3690.33, -4355.35, -3634.33, 0.000, 0.000, 0.000, 12:52:29.383
58, -3333.54, -3302.22, -4077.79, -3340.11, 0.000, 0.000, 0.000, 12:52:29.383
59, -2813.35, -2782.51, -3622.93, -2852.67, 0.000, 0.000, 0.000, 12:52:29.384
60, -3172.31, -3246.50, -3932.61, -3174.40, 0.000, 0.000, 0.000, 12:52:29.384
61, -3651.40, -3734.68, -4360.00, -3645.09, 0.000, 0.000, 0.000, 12:52:29.398
62, -3343.07, -3407.46, -4082.88, -3350.41, 0.000, 0.000, 0.000, 12:52:29.398
63, -2831.33, -2855.56, -3634.32, -2863.53, 0.000, 0.000, 0.000, 12:52:29.413
64, -3179.23, -3266.87, -3943.58, -3174.85, 0.000, 0.000, 0.000, 12:52:29.413
65, -3664.47, -3741.78, -4365.79, -3634.56, 0.000, 0.000, 0.000, 12:52:29.413
66, -3338.84, -3444.36, -4080.48, -3354.54, 0.000, 0.000, 0.000, 12:52:29.413
67, -2824.41, -2781.59, -3622.67, -2870.04, 0.000, 0.000, 0.000, 12:52:29.427
68, -3184.26, -3236.57, -3937.37, -3177.06, 0.000, 0.000, 0.000, 12:52:29.427
69, -3662.61, -3628.03, -4358.94, -3631.08, 0.000, 0.000, 0.000, 12:52:29.443
70, -3352.89, -3424.64, -4086.84, -3358.13, 0.000, 0.000, 0.000, 12:52:29.443
71, -2827.33, -2802.07, -3634.30, -2868.71, 0.000, 0.000, 0.000, 12:52:29.443
72, -3178.89, -3251.69, -3942.48, -3173.00, 0.000, 0.000, 0.000, 12:52:29.443
73, -3660.19, -3760.05, -4363.74, -3633.15, 0.000, 0.000, 0.000, 12:52:29.458
74, -3332.05, -3349.45, -4085.60, -3352.12, 0.000, 0.000, 0.000, 12:52:29.458
75, -2817.26, -2889.69, -3628.66, -2859.48, 0.000, 0.000, 0.000, 12:52:29.473
76, -3172.31, -3255.09, -3938.33, -3163.64, 0.000, 0.000, 0.000, 12:52:29.473
77, -3645.18, -3649.72, -4353.98, -3623.65, 0.000, 0.000, 0.000, 12:52:29.474
78, -3331.81, -3466.13, -4083.07, -3345.22, 0.000, 0.000, 0.000, 12:52:29.474
79, -2816.72, -2808.65, -3618.92, -2858.25, 0.000, 0.000, 0.000, 12:52:29.487
80, -3178.71, -3281.61, -3933.85, -3173.04, 0.000, 0.000, 0.000, 12:52:29.487
81, -3657.05, -3745.32, -4365.10, -3638.27, 0.000, 0.000, 0.000, 12:52:29.503
82, -3348.51, -3413.19, -4092.52, -3364.74, 0.000, 0.000, 0.000, 12:52:29.503
83, -2836.47, -2848.07, -3633.97, -2871.27, 0.000, 0.000, 0.000, 12:52:29.504
84, -3191.79, -3208.63, -3952.02, -3184.69, 0.000, 0.000, 0.000, 12:52:29.504
85, -3664.79, -3788.58, -4375.77, -3632.05, 0.000, 0.000, 0.000, 12:52:29.517
86, -3351.30, -3344.46, -4087.13, -3358.25, 0.000, 0.000, 0.000, 12:52:29.517
87, -2835.79, -2790.22, -3631.11, -2875.35, 0.000, 0.000, 0.000, 12:52:29.532
88, -3188.91, -3155.86, -3942.42, -3174.94, 0.000, 0.000, 0.000, 12:52:29.532
89, -3664.76, -3701.16, -4364.65, -3639.88, 0.000, 0.000, 0.000, 12:52:29.533
90, -3343.57, -3410.24, -4096.87, -3358.29, 0.000, 0.000, 0.000, 12:52:29.533
91, -2837.32, -2863.44, -3642.11, -2875.94, 0.000, 0.000, 0.000, 12:52:29.547
92, -3187.77, -3168.94, -3952.87, -3183.36, 0.000, 0.000, 0.000, 12:52:29.547
93, -3664.82, -3658.85, -4375.09, -3640.39, 0.000, 0.000, 0.000, 12:52:29.562
94, -3348.27, -3348.13, -4096.57, -3360.71, 0.000, 0.000, 0.000, 12:52:29.562
95, -2832.59, -2765.90, -3636.77, -2873.31, 0.000, 0.000, 0.000, 12:52:29.562
96, -3183.26, -3305.17, -3937.17, -3185.74, 0.000, 0.000, 0.000, 12:52:29.562
97, -3659.92, -3846.26, -4365.93, -3644.42, 0.000, 0.000, 0.000, 12:52:29.577
98, -3347.53, -3419.30, -4097.40, -3357.62, 0.000, 0.000, 0.000, 12:52:29.577
99, -2835.06, -2769.74, -3641.87, -2872.22, 0.000, 0.000, 0.000, 12:52:29.593
100, -3191.32, -3253.14, -3943.79, -3184.68, 0.000, 0.000, 0.000, 12:52:29.593
101, -3661.19, -3768.07, -4364.09, -3641.99, 0.000, 0.000, 0.000, 12:52:29.593
102, -3349.98, -3388.62, -4092.24, -3364.39, 0.000, 0.000, 0.000, 12:52:29.593
103, -2839.16, -2887.61, -3637.28, -2865.28, 0.000, 0.000, 0.000, 12:52:29.608
104, -3182.43, -3282.70, -3941.44, -3177.96, 0.000, 0.000, 0.000, 12:52:29.609
105, -3667.88, -3739.87, -4366.99, -3640.35, 0.000, 0.000, 0.000, 12:52:29.623
106, -3346.38, -3383.83, -4091.82, -3352.86, 0.000, 0.000, 0.000, 12:52:29.623
107, -2828.06, -2756.16, -3630.57, -2860.86, 0.000, 0.000, 0.000, 12:52:29.623
108, -3177.02, -3232.66, -3939.53, -3171.48, 0.000, 0.000, 0.000, 12:52:29.623
109, -3652.11, -3836.03, -4362.98, -3625.28, 0.000, 0.000, 0.000, 12:52:29.638
110, -3340.29, -3383.43, -4086.10, -3351.31, 0.000, 0.000, 0.000, 12:52:29.638
111, -2825.73, -2807.31, -3620.97, -2867.11, 0.000, 0.000, 0.000, 12:52:29.653
112, -3176.08, -3245.89, -3931.24, -3173.49, 0.000, 0.000, 0.000, 12:52:29.653
113, -3666.35, -3663.94, -4371.19, -3635.41, 0.000, 0.000, 0.000, 12:52:29.653
114, -3348.15, -3348.33, -4093.51, -3358.04, 0.000, 0.000, 0.000, 12:52:29.654
115, -2827.14, -2842.09, -3636.10, -2864.50, 0.000, 0.000, 0.000, 12:52:29.667
116, -3179.49, -3234.26, -3943.82, -3176.69, 0.000, 0.000, 0.000, 12:52:29.668
117, -3655.01, -3834.26, -4363.13, -3637.34, 0.000, 0.000, 0.000, 12:52:29.682
118, -3348.90, -3388.39, -4084.19, -3360.87, 0.000, 0.000, 0.000, 12:52:29.682
119, -2832.20, -2801.99, -3633.68, -2873.95, 0.000, 0.000, 0.000, 12:52:29.683
120, -3182.21, -3238.93, -3943.41, -3174.49, 0.000, 0.000, 0.000, 12:52:29.683
121, -3665.40, -3731.74, -4368.44, -3633.60, 0.000, 0.000, 0.000, 12:52:29.698
122, -3349.95, -3453.60, -4089.53, -3359.38, 0.000, 0.000, 0.000, 12:52:29.698
123, -2826.19, -2860.99, -3630.48, -2867.25, 0.000, 0.000, 0.000, 12:52:29.713
124, -3181.60, -3225.18, -3932.89, -3176.64, 0.000, 0.000, 0.000, 12:52:29.713
125, -3664.58, -3652.15, -4367.44, -3638.22, 0.000, 0.000, 0.000, 12:52:29.720
126, -3352.71, -3412.21, -4090.32, -3358.02, 0.000, 0.000, 0.000, 12:52:29.720
127, -2826.53, -2880.31, -3631.26, -2863.81, 0.000, 0.000, 0.000, 12:52:29.727
128, -3189.35, -3182.21, -3934.70, -3178.69, 0.000, 0.000, 0.000, 12:52:29.727
129, -3663.42, -3757.26, -4358.60, -3635.32, 0.000, 0.000, 0.000, 12:52:29.742
130, -3338.09, -3418.92, -4081.38, -3359.25, 0.000, 0.000, 0.000, 12:52:29.742
131, -2839.10, -2827.35, -3630.55, -2873.53, 0.000, 0.000, 0.000, 12:52:29.743
132, -3179.21, -3224.54, -3929.93, -3168.25, 0.000, 0.000, 0.000, 12:52:29.743
133, -3662.18, -3798.19, -4361.63, -3636.97, 0.000, 0.000, 0.000, 12:52:29.757
134, -3343.18, -3439.74, -4088.84, -3359.53, 0.000, 0.000, 0.000, 12:52:29.757
135, -2830.08, -2818.82, -3629.62, -2867.52, 0.000, 0.000, 0.000, 12:52:29.773
136, -3182.78, -3170.95, -3932.76, -3162.47, 0.000, 0.000, 0.000, 12:52:29.773
137, -3657.97, -3790.64, -4365.08, -3639.03, 0.000, 0.000, 0.000, 12:52:29.773
138, -3344.19, -3411.05, -4086.99, -3357.27, 0.000, 0.000, 0.000, 12:52:29.773
139, -2825.80, -2839.00, -3625.10, -2869.91, 0.000, 0.000, 0.000, 12:52:29.788
140, -3175.90, -3226.75, -3935.41, -3168.90, 0.000, 0.000, 0.000, 12:52:29.788
141, -3654.84, -3736.64, -4364.79, -3640.98, 0.000, 0.000, 0.000, 12:52:29.802
142, -3345.61, -3420.04, -4088.87, -3359.09, 0.000, 0.000, 0.000, 12:52:29.802
143, -2828.40, -2718.01, -3629.24, -2869.84, 0.000, 0.000, 0.000, 12:52:29.803
144, -3166.72, -3179.22, -3934.07, -3164.35, 0.000, 0.000, 0.000, 12:52:29.803
145, -3654.47, -3684.28, -4356.89, -3630.71, 0.000, 0.000, 0.000, 12:52:29.817
146, -3345.41, -3426.51, -4093.56, -3365.21, 0.000, 0.000, 0.000, 12:52:29.817
147, -2832.04, -2891.63, -3633.38, -2875.04, 0.000, 0.000, 0.000, 12:52:29.832
148, -3182.72, -3231.74, -3937.09, -3174.58, 0.000, 0.000, 0.000, 12:52:29.832
149, -3663.27, -3816.96, -4367.14, -3638.68, 0.000, 0.000, 0.000, 12:52:29.833
150, -3351.31, -3377.75, -4106.77, -3362.99, 0.000, 0.000, 0.000, 12:52:29.833
151, -2824.69, -2749.58, -3633.83, -2861.59, 0.000, 0.000, 0.000, 12:52:29.847
152, -3179.34, -3240.95, -3947.27, -3170.58, 0.000, 0.000, 0.000, 12:52:29.847
153, -3669.90, -3816.90, -4365.42, -3651.11, 0.000, 0.000, 0.000, 12:52:29.862
154, -3348.54, -3328.01, -4095.05, -3358.48, 0.000, 0.000, 0.000, 12:52:29.862
155, -2832.06, -2801.27, -3631.78, -2860.89, 0.000, 0.000, 0.000, 12:52:29.863
156, -3178.22, -3240.69, -3943.53, -3173.77, 0.000, 0.000, 0.000, 12:52:29.863
157, -3664.62, -3647.75, -4363.61, -3638.06, 0.000, 0.000, 0.000, 12:52:29.892
158, -3351.06, -3436.70, -4096.35, -3357.55, 0.000, 0.000, 0.000, 12:52:29.892
159, -2834.23, -2817.49, -3634.86, -2868.51, 0.000, 0.000, 0.000, 12:52:29.893
160, -3182.39, -3221.75, -3945.31, -3179.82, 0.000, 0.000, 0.000, 12:52:29.893
161, -3672.92, -3776.07, -4381.27, -3647.58, 0.000, 0.000, 0.000, 12:52:29.907
162, -3363.36, -3308.94, -4105.27, -3367.42, 0.000, 0.000, 0.000, 12:52:29.907
163, -2843.96, -2830.60, -3645.48, -2872.67, 0.000, 0.000, 0.000, 12:52:29.909
164, -3198.50, -3258.87, -3952.84, -3171.45, 0.000, 0.000, 0.000, 12:52:29.909
165, -3676.44, -3770.70, -4374.84, -3649.59, 0.000, 0.000, 0.000, 12:52:29.923
166, -3350.84, -3420.02, -4089.40, -3353.51, 0.000, 0.000, 0.000, 12:52:29.923
167, -2830.33, -2823.22, -3630.33, -2859.17, 0.000, 0.000, 0.000, 12:52:29.923
168, -3178.85, -3200.72, -3937.90, -3167.58, 0.000, 0.000, 0.000, 12:52:29.923
169, -3660.52, -3713.83, -4361.79, -3638.00, 0.000, 0.000, 0.000, 12:52:29.938
170, -3348.94, -3404.71, -4086.48, -3359.43, 0.000, 0.000, 0.000, 12:52:29.938
171, -2841.79, -2879.41, -3638.61, -2873.37, 0.000, 0.000, 0.000, 12:52:29.953
172, -3184.38, -3162.20, -3941.61, -3170.84, 0.000, 0.000, 0.000, 12:52:29.953
173, -3669.63, -3777.69, -4368.38, -3638.63, 0.000, 0.000, 0.000, 12:52:29.953
174, -3346.58, -3411.52, -4085.68, -3345.45, 0.000, 0.000, 0.000, 12:52:29.954
175, -2827.73, -2838.49, -3626.73, -2864.29, 0.000, 0.000, 0.000, 12:52:29.967
176, -3170.83, -3186.30, -3930.59, -3165.09, 0.000, 0.000, 0.000, 12:52:29.967
177, -3649.19, -3718.86, -4354.78, -3628.81, 0.000, 0.000, 0.000, 12:52:29.982
178, -3342.65, -3445.64, -4085.21, -3350.45, 0.000, 0.000, 0.000, 12:52:29.983
179, -2825.00, -2812.28, -3629.95, -2862.47, 0.000, 0.000, 0.000, 12:52:29.983
180, -3179.36, -3206.23, -3931.59, -3169.20, 0.000, 0.000, 0.000, 12:52:29.983
181, -3664.51, -3730.08, -4363.94, -3632.06, 0.000, 0.000, 0.000, 12:52:30.013
182, -3347.67, -3469.57, -4081.87, -3359.00, 0.000, 0.000, 0.000, 12:52:30.013
183, -2818.19, -2849.26, -3625.41, -2866.07, 0.000, 0.000, 0.000, 12:52:30.013
184, -3173.61, -3200.14, -3924.51, -3160.47, 0.000, 0.000, 0.000, 12:52:30.013
185, -3658.93, -3748.25, -4359.11, -3634.22, 0.000, 0.000, 0.000, 12:52:30.027
186, -3339.53, -3382.93, -4084.17, -3353.73, 0.000, 0.000, 0.000, 12:52:30.027
187, -2833.49, -2828.42, -3632.79, -2868.36, 0.000, 0.000, 0.000, 12:52:30.027
188, -3182.99, -3254.68, -3934.62, -3169.57, 0.000, 0.000, 0.000, 12:52:30.027
189, -3668.40, -3684.18, -4363.53, -3644.89, 0.000, 0.000, 0.000, 12:52:30.043
190, -3352.66, -3408.95, -4090.98, -3362.38, 0.000, 0.000, 0.000, 12:52:30.043
191, -2823.21, -2805.40, -3626.99, -2870.16, 0.000, 0.000, 0.000, 12:52:30.043
192, -3175.21, -3169.79, -3932.22, -3170.88, 0.000, 0.000, 0.000, 12:52:30.043
193, -3666.32, -3747.71, -4372.69, -3639.98, 0.000, 0.000, 0.000, 12:52:30.058
194, -3354.12, -3422.10, -4093.93, -3367.92, 0.000, 0.000, 0.000, 12:52:30.058
195, -2838.74, -2825.23, -3629.76, -2874.04, 0.000, 0.000, 0.000, 12:52:30.073
196, -3188.90, -3268.64, -3936.14, -3172.06, 0.000, 0.000, 0.000, 12:52:30.073
197, -3667.87, -3724.81, -4365.94, -3646.78, 0.000, 0.000, 0.000, 12:52:30.088
198, -3357.84, -3323.41, -4091.64, -3362.66, 0.000, 0.000, 0.000, 12:52:30.088
199, -2838.66, -2753.29, -3625.67, -2865.98, 0.000, 0.000, 0.000, 12:52:30.089
200, -3172.18, -3278.13, -3933.49, -3160.45, 0.000, 0.000, 0.000, 12:52:30.089
0, -3657.17, -3732.24, -4360.70, -3634.32, 0.000, 0.000, 0.000, 12:52:30.089
1, -3337.08, -3412.68, -4083.56, -3350.38, 0.000, 0.000, 0.000, 12:52:30.103
2, -2822.49, -2866.24, -3631.35, -2858.78, 0.000, 0.000, 0.000, 12:52:30.103
3, -3174.73, -3223.19, -3930.92, -3167.43, 0.000, 0.000, 0.000, 12:52:30.117
4, -3657.69, -3674.26, -4361.65, -3632.30, 0.000, 0.000, 0.000, 12:52:30.118
5, -3349.66, -3416.55, -4092.00, -3359.39, 0.000, 0.000, 0.000, 12:52:30.118
6, -2830.69, -2827.43, -3626.47, -2867.84, 0.000, 0.000, 0.000, 12:52:30.118
7, -3168.24, -3276.60, -3924.08, -3162.60, 0.000, 0.000, 0.000, 12:52:30.139
8, -3654.50, -3767.41, -4359.62, -3639.96, 0.000, 0.000, 0.000, 12:52:30.140
9, -3342.57, -3370.19, -4091.10, -3360.49, 0.000, 0.000, 0.000, 12:52:30.162
10, -2824.51, -2876.71, -3622.94, -2860.96, 0.000, 0.000, 0.000, 12:52:30.163
11, -3171.50, -3176.66, -3927.02, -3163.58, 0.000, 0.000, 0.000, 12:52:30.163
12, -3666.67, -3755.14, -4365.27, -3632.24, 0.000, 0.000, 0.000, 12:52:30.163
13, -3351.43, -3409.98, -4092.77, -3364.23, 0.000, 0.000, 0.000, 12:52:30.163
14, -2831.57, -2804.50, -3634.54, -2868.69, 0.000, 0.000, 0.000, 12:52:30.164
15, -3171.21, -3189.68, -3926.19, -3168.27, 0.000, 0.000, 0.000, 12:52:30.164
16, -3664.17, -3782.63, -4366.60, -3639.14, 0.000, 0.000, 0.000, 12:52:30.164
17, -3356.55, -3445.28, -4094.41, -3359.71, 0.000, 0.000, 0.000, 12:52:30.178
18, -2835.97, -2812.50, -3639.01, -2868.66, 0.000, 0.000, 0.000, 12:52:30.178
19, -3175.07, -3106.71, -3928.94, -3167.66, 0.000, 0.000, 0.000, 12:52:30.207
20, -3662.45, -3790.02, -4368.04, -3642.02, 0.000, 0.000, 0.000, 12:52:30.207
21, -3354.63, -3466.44, -4101.20, -3367.33, 0.000, 0.000, 0.000, 12:52:30.209
22, -2833.15, -2824.23, -3633.03, -2870.90, 0.000, 0.000, 0.000, 12:52:30.209
23, -3161.66, -3142.94, -3920.25, -3168.17, 0.000, 0.000, 0.000, 12:52:30.209
24, -3657.90, -3817.47, -4369.66, -3645.68, 0.000, 0.000, 0.000, 12:52:30.210
25, -3354.18, -3404.43, -4095.13, -3365.02, 0.000, 0.000, 0.000, 12:52:30.223
26, -2832.74, -2873.18, -3635.86, -2866.00, 0.000, 0.000, 0.000, 12:52:30.223
27, -3169.21, -3144.06, -3929.56, -3162.65, 0.000, 0.000, 0.000, 12:52:30.238
28, -3661.61, -3723.42, -4367.11, -3638.28, 0.000, 0.000, 0.000, 12:52:30.238
29, -3347.61, -3451.79, -4090.58, -3362.53, 0.000, 0.000, 0.000, 12:52:30.238
30, -2834.14, -2833.13, -3627.30, -2865.82, 0.000, 0.000, 0.000, 12:52:30.238
31, -3175.97, -3169.23, -3928.96, -3164.13, 0.000, 0.000, 0.000, 12:52:30.252
32, -3655.37, -3751.47, -4364.57, -3642.38, 0.000, 0.000, 0.000, 12:52:30.252
33, -3345.39, -3413.01, -4099.03, -3366.71, 0.000, 0.000, 0.000, 12:52:30.268
34, -2832.56, -2848.20, -3633.77, -2877.48, 0.000, 0.000, 0.000, 12:52:30.268
35, -3174.18, -3233.67, -3937.43, -3162.10, 0.000, 0.000, 0.000, 12:52:30.268
36, -3653.98, -3740.39, -4359.91, -3634.57, 0.000, 0.000, 0.000, 12:52:30.268
37, -3347.86, -3347.02, -4089.15, -3366.80, 0.000, 0.000, 0.000, 12:52:30.283
38, -2830.02, -2851.43, -3631.62, -2871.24, 0.000, 0.000, 0.000, 12:52:30.283
39, -3165.76, -3190.54, -3925.28, -3166.29, 0.000, 0.000, 0.000, 12:52:30.298
40, -3661.91, -3766.72, -4365.53, -3639.20, 0.000, 0.000, 0.000, 12:52:30.298
41, -3360.31, -3422.93, -4097.86, -3366.47, 0.000, 0.000, 0.000, 12:52:30.298
42, -2842.06, -2854.81, -3636.96, -2877.98, 0.000, 0.000, 0.000, 12:52:30.298
43, -3180.71, -3173.74, -3942.04, -3177.24, 0.000, 0.000, 0.000, 12:52:30.312
44, -3663.97, -3770.24, -4370.59, -3642.26, 0.000, 0.000, 0.000, 12:52:30.312
45, -3354.59, -3420.06, -4096.55, -3371.66, 0.000, 0.000, 0.000, 12:52:30.328
46, -2842.54, -2824.50, -3637.64, -2875.03, 0.000, 0.000, 0.000, 12:52:30.328
47, -3179.32, -3204.86, -3934.10, -3171.79, 0.000, 0.000, 0.000, 12:52:30.328
48, -3667.74, -3701.38, -4366.36, -3635.21, 0.000, 0.000, 0.000, 12:52:30.328
49, -3357.04, -3421.70, -4094.79, -3356.88, 0.000, 0.000, 0.000, 12:52:30.342
50, -2831.54, -2837.20, -3645.13, -2868.53, 0.000, 0.000, 0.000, 12:52:30.343
51, -3167.73, -3187.23, -3924.95, -3163.87, 0.000, 0.000, 0.000, 12:52:30.357
52, -3667.35, -3789.28, -4366.34, -3639.95, 0.000, 0.000, 0.000, 12:52:30.357
53, -3361.21, -3371.39, -4098.09, -3367.18, 0.000, 0.000, 0.000, 12:52:30.359
54, -2825.58, -2806.91, -3629.96, -2864.05, 0.000, 0.000, 0.000, 12:52:30.359
55, -3171.53, -3251.46, -3927.10, -3151.88, 0.000, 0.000, 0.000, 12:52:30.373
56, -3665.00, -3762.29, -4363.99, -3632.76, 0.000, 0.000, 0.000, 12:52:30.373
57, -3352.28, -3377.52, -4094.26, -3362.27, 0.000, 0.000, 0.000, 12:52:30.388
58, -2833.95, -2756.25, -3638.87, -2869.01, 0.000, 0.000, 0.000, 12:52:30.388
59, -3174.52, -3211.48, -3937.42, -3171.42, 0.000, 0.000, 0.000, 12:52:30.388
60, -3662.17, -3737.90, -4371.35, -3639.78, 0.000, 0.000, 0.000, 12:52:30.388
61, -3366.57, -3370.87, -4104.30, -3361.21, 0.000, 0.000, 0.000, 12:52:30.402
62, -2835.12, -2857.66, -3636.43, -2867.02, 0.000, 0.000, 0.000, 12:52:30.403
63, -3180.80, -3250.89, -3931.62, -3164.92, 0.000, 0.000, 0.000, 12:52:30.417
64, -3663.02, -3813.79, -4360.41, -3645.17, 0.000, 0.000, 0.000, 12:52:30.418
65, -3363.63, -3469.40, -4096.27, -3362.84, 0.000, 0.000, 0.000, 12:52:30.418
66, -2827.64, -2791.48, -3627.53, -2869.00, 0.000, 0.000, 0.000, 12:52:30.418
67, -3170.26, -3198.33, -3935.46, -3163.76, 0.000, 0.000, 0.000, 12:52:30.432
68, -3665.65, -3714.87, -4369.26, -3635.80, 0.000, 0.000, 0.000, 12:52:30.432
69, -3356.03, -3391.88, -4093.44, -3358.25, 0.000, 0.000, 0.000, 12:52:30.462
70, -2835.26, -2760.34, -3637.63, -2863.35, 0.000, 0.000, 0.000, 12:52:30.462
71, -3167.03, -3158.96, -3925.05, -3159.68, 0.000, 0.000, 0.000, 12:52:30.462
72, -3654.32, -3796.60, -4362.27, -3631.54, 0.000, 0.000, 0.000, 12:52:30.462
73, -3351.74, -3486.52, -4091.56, -3359.15, 0.000, 0.000, 0.000, 12:52:30.463
74, -2829.80, -2891.35, -3631.53, -2864.95, 0.000, 0.000, 0.000, 12:52:30.463
75, -3166.19, -3245.18, -3926.20, -3156.30, 0.000, 0.000, 0.000, 12:52:30.464
76, -3664.39, -3652.09, -4362.30, -3635.54, 0.000, 0.000, 0.000, 12:52:30.464
77, -3341.96, -3394.42, -4088.62, -3359.12, 0.000, 0.000, 0.000, 12:52:30.478
78, -2828.41, -2851.70, -3631.90, -2862.68, 0.000, 0.000, 0.000, 12:52:30.478
79, -3162.53, -3243.74, -3928.44, -3156.81, 0.000, 0.000, 0.000, 12:52:30.493
80, -3664.81, -3727.74, -4363.79, -3632.40, 0.000, 0.000, 0.000, 12:52:30.493
81, -3351.57, -3436.11, -4097.94, -3366.74, 0.000, 0.000, 0.000, 12:52:30.507
82, -2833.99, -2793.15, -3633.57, -2861.00, 0.000, 0.000, 0.000, 12:52:30.508
83, -3169.93, -3181.34, -3926.26, -3153.26, 0.000, 0.000, 0.000, 12:52:30.509
84, -3668.37, -3776.19, -4370.98, -3630.91, 0.000, 0.000, 0.000, 12:52:30.509
85, -3342.40, -3419.47, -4091.87, -3358.68, 0.000, 0.000, 0.000, 12:52:30.522
86, -2827.14, -2880.36, -3628.86, -2858.08, 0.000, 0.000, 0.000, 12:52:30.522
87, -3160.11, -3188.58, -3925.24, -3155.17, 0.000, 0.000, 0.000, 12:52:30.538
88, -3651.52, -3725.78, -4359.38, -3631.93, 0.000, 0.000, 0.000, 12:52:30.538
89, -3341.52, -3352.58, -4088.58, -3350.30, 0.000, 0.000, 0.000, 12:52:30.538
90, -2831.24, -2752.23, -3626.00, -2861.18, 0.000, 0.000, 0.000, 12:52:30.538
91, -3157.46, -3115.78, -3921.63, -3157.59, 0.000, 0.000, 0.000, 12:52:30.552
92, -3650.51, -3684.01, -4355.69, -3626.98, 0.000, 0.000, 0.000, 12:52:30.552
93, -3333.40, -3410.76, -4092.51, -3363.17, 0.000, 0.000, 0.000, 12:52:30.568
94, -2815.88, -2787.84, -3624.71, -2864.23, 0.000, 0.000, 0.000, 12:52:30.568
95, -3163.33, -3187.23, -3928.20, -3161.50, 0.000, 0.000, 0.000, 12:52:30.568
96, -3661.25, -3797.11, -4368.65, -3633.96, 0.000, 0.000, 0.000, 12:52:30.568
97, -3349.35, -3333.65, -4095.84, -3357.11, 0.000, 0.000, 0.000, 12:52:30.584
98, -2836.47, -2756.22, -3631.10, -2875.68, 0.000, 0.000, 0.000, 12:52:30.584
99, -3165.61, -3252.41, -3926.67, -3166.56, 0.000, 0.000, 0.000, 12:52:30.598
100, -3653.52, -3793.84, -4358.35, -3635.48, 0.000, 0.000, 0.000, 12:52:30.598
101, -3345.42, -3403.97, -4092.45, -3365.67, 0.000, 0.000, 0.000, 12:52:30.605
102, -2822.74, -2747.68, -3632.87, -2866.95, 0.000, 0.000, 0.000, 12:52:30.605
103, -3163.74, -3201.55, -3929.04, -3156.84, 0.000, 0.000, 0.000, 12:52:30.613
104, -3662.77, -3857.15, -4367.37, -3641.64, 0.000, 0.000, 0.000, 12:52:30.613
105, -3359.40, -3419.21, -4097.52, -3361.50, 0.000, 0.000, 0.000, 12:52:30.643
106, -2833.98, -2904.25, -3636.04, -2875.47, 0.000, 0.000, 0.000, 12:52:30.643
107, -3178.17, -3193.01, -3929.08, -3160.87, 0.000, 0.000, 0.000, 12:52:30.643
108, -3659.87, -3784.03, -4367.00, -3635.38, 0.000, 0.000, 0.000, 12:52:30.643
109, -3357.30, -3404.15, -4105.58, -3365.68, 0.000, 0.000, 0.000, 12:52:30.643
110, -2827.38, -2751.54, -3637.02, -2865.56, 0.000, 0.000, 0.000, 12:52:30.644
111, -3172.78, -3163.00, -3935.61, -3171.21, 0.000, 0.000, 0.000, 12:52:30.644
112, -3664.91, -3783.13, -4367.99, -3640.33, 0.000, 0.000, 0.000, 12:52:30.644
113, -3356.33, -3412.21, -4099.07, -3362.85, 0.000, 0.000, 0.000, 12:52:30.657
114, -2834.92, -2835.71, -3633.68, -2866.12, 0.000, 0.000, 0.000, 12:52:30.657
115, -3167.00, -3210.12, -3921.86, -3156.27, 0.000, 0.000, 0.000, 12:52:30.673
116, -3664.29, -3832.05, -4364.26, -3633.97, 0.000, 0.000, 0.000, 12:52:30.673
117, -3356.55, -3449.43, -4091.67, -3363.68, 0.000, 0.000, 0.000, 12:52:30.688
118, -2822.81, -2855.63, -3631.18, -2863.90, 0.000, 0.000, 0.000, 12:52:30.688
119, -3161.06, -3250.51, -3915.92, -3158.26, 0.000, 0.000, 0.000, 12:52:30.688
120, -3648.69, -3803.56, -4357.25, -3633.49, 0.000, 0.000, 0.000, 12:52:30.689
121, -3342.03, -3359.66, -4094.86, -3356.61, 0.000, 0.000, 0.000, 12:52:30.703
122, -2826.24, -2825.15, -3626.36, -2867.18, 0.000, 0.000, 0.000, 12:52:30.703
123, -3157.64, -3226.44, -3918.89, -3163.57, 0.000, 0.000, 0.000, 12:52:30.717
124, -3652.95, -3616.89, -4355.55, -3634.45, 0.000, 0.000, 0.000, 12:52:30.717
125, -3354.15, -3329.57, -4094.41, -3356.87, 0.000, 0.000, 0.000, 12:52:30.717
126, -2826.16, -2891.92, -3630.41, -2867.67, 0.000, 0.000, 0.000, 12:52:30.718
127, -3155.33, -3150.82, -3920.43, -3157.60, 0.000, 0.000, 0.000, 12:52:30.733
128, -3654.68, -3658.99, -4366.75, -3638.43, 0.000, 0.000, 0.000, 12:52:30.733
129, -3348.81, -3440.11, -4093.49, -3361.80, 0.000, 0.000, 0.000, 12:52:30.747
130, -2834.40, -2884.06, -3629.45, -2874.12, 0.000, 0.000, 0.000, 12:52:30.747
131, -3172.68, -3225.81, -3930.94, -3160.46, 0.000, 0.000, 0.000, 12:52:30.762
132, -3663.41, -3803.07, -4370.94, -3635.13, 0.000, 0.000, 0.000, 12:52:30.762
133, -3360.86, -3343.48, -4106.19, -3367.26, 0.000, 0.000, 0.000, 12:52:30.763
134, -2841.52, -2875.65, -3642.64, -2870.05, 0.000, 0.000, 0.000, 12:52:30.763
135, -3169.07, -3232.14, -3924.58, -3152.79, 0.000, 0.000, 0.000, 12:52:30.777
136, -3660.69, -3767.75, -4367.89, -3632.86, 0.000, 0.000, 0.000, 12:52:30.777
137, -3361.43, -3399.64, -4097.39, -3363.68, 0.000, 0.000, 0.000, 12:52:30.778
138, -2837.59, -2788.01, -3628.51, -2862.83, 0.000, 0.000, 0.000, 12:52:30.778
139, -3170.03, -3251.23, -3923.12, -3156.52, 0.000, 0.000, 0.000, 12:52:30.793
140, -3670.67, -3809.17, -4364.25, -3640.59, 0.000, 0.000, 0.000, 12:52:30.793
141, -3352.00, -3406.62, -4088.28, -3364.97, 0.000, 0.000, 0.000, 12:52:30.808
142, -2834.57, -2765.44, -3637.68, -2867.57, 0.000, 0.000, 0.000, 12:52:30.808
143, -3165.09, -3137.14, -3925.82, -3158.87, 0.000, 0.000, 0.000, 12:52:30.809
144, -3666.70, -3753.07, -4370.04, -3643.04, 0.000, 0.000, 0.000, 12:52:30.809
145, -3350.95, -3363.07, -4096.68, -3354.63, 0.000, 0.000, 0.000, 12:52:30.823
146, -2824.49, -2822.40, -3625.81, -2863.98, 0.000, 0.000, 0.000, 12:52:30.823
147, -3164.67, -3124.18, -3921.25, -3154.12, 0.000, 0.000, 0.000, 12:52:30.837
148, -3653.29, -3752.45, -4358.47, -3634.48, 0.000, 0.000, 0.000, 12:52:30.837
149, -3348.30, -3435.99, -4093.44, -3357.14, 0.000, 0.000, 0.000, 12:52:30.838
150, -2822.46, -2880.17, -3628.14, -2860.43, 0.000, 0.000, 0.000, 12:52:30.838
151, -3161.79, -3234.28, -3917.28, -3156.54, 0.000, 0.000, 0.000, 12:52:30.852
152, -3655.42, -3784.20, -4369.90, -3631.33, 0.000, 0.000, 0.000, 12:52:30.852
153, -3347.59, -3377.74, -4095.86, -3367.35, 0.000, 0.000, 0.000, 12:52:30.867
154, -2832.32, -2861.56, -3633.50, -2869.02, 0.000, 0.000, 0.000, 12:52:30.868
155, -3166.24, -3252.85, -3921.41, -3157.27, 0.000, 0.000, 0.000, 12:52:30.869
156, -3657.42, -3799.37, -4366.24, -3634.08, 0.000, 0.000, 0.000, 12:52:30.869
157, -3360.66, -3380.93, -4100.03, -3370.33, 0.000, 0.000, 0.000, 12:52:30.883
158, -2830.92, -2855.05, -3632.34, -2872.38, 0.000, 0.000, 0.000, 12:52:30.883
159, -3166.34, -3164.65, -3916.04, -3159.44, 0.000, 0.000, 0.000, 12:52:30.898
160, -3656.71, -3810.08, -4366.70, -3641.47, 0.000, 0.000, 0.000, 12:52:30.898
161, -3361.78, -3439.67, -4099.24, -3376.96, 0.000, 0.000, 0.000, 12:52:30.898
162, -2837.56, -2827.63, -3634.77, -2874.28, 0.000, 0.000, 0.000, 12:52:30.898
163, -3164.12, -3175.95, -3929.48, -3159.55, 0.000, 0.000, 0.000, 12:52:30.913
164, -3660.37, -3744.25, -4368.73, -3642.18, 0.000, 0.000, 0.000, 12:52:30.913
165, -3355.62, -3364.77, -4101.64, -3371.51, 0.000, 0.000, 0.000, 12:52:30.927
166, -2839.97, -2846.06, -3643.09, -2867.31, 0.000, 0.000, 0.000, 12:52:30.927
167, -3157.73, -3248.71, -3920.33, -3155.69, 0.000, 0.000, 0.000, 12:52:30.935
168, -3664.02, -3799.36, -4370.48, -3637.24, 0.000, 0.000, 0.000, 12:52:30.935
169, -3362.63, -3421.03, -4103.97, -3374.03, 0.000, 0.000, 0.000, 12:52:30.942
170, -2839.59, -2833.71, -3638.73, -2874.27, 0.000, 0.000, 0.000, 12:52:30.942
171, -3167.54, -3082.62, -3918.73, -3157.08, 0.000, 0.000, 0.000, 12:52:30.958
172, -3672.81, -3803.23, -4376.86, -3645.92, 0.000, 0.000, 0.000, 12:52:30.958
173, -3365.46, -3436.79, -4106.70, -3376.54, 0.000, 0.000, 0.000, 12:52:30.958
174, -2838.50, -2839.90, -3634.88, -2873.82, 0.000, 0.000, 0.000, 12:52:30.959
175, -3164.90, -3113.36, -3917.47, -3157.71, 0.000, 0.000, 0.000, 12:52:30.973
176, -3667.90, -3679.09, -4370.85, -3638.64, 0.000, 0.000, 0.000, 12:52:30.973
177, -3364.82, -3435.39, -4101.83, -3365.89, 0.000, 0.000, 0.000, 12:52:30.988
178, -2835.58, -2786.25, -3631.30, -2878.22, 0.000, 0.000, 0.000, 12:52:30.988
179, -3161.77, -3214.28, -3919.45, -3154.91, 0.000, 0.000, 0.000, 12:52:31.003
180, -3670.89, -3776.31, -4366.86, -3638.47, 0.000, 0.000, 0.000, 12:52:31.003
181, -3362.85, -3371.99, -4098.96, -3366.77, 0.000, 0.000, 0.000, 12:52:31.004
182, -2831.81, -2805.34, -3631.10, -2866.50, 0.000, 0.000, 0.000, 12:52:31.004
183, -3162.92, -3254.40, -3917.48, -3161.58, 0.000, 0.000, 0.000, 12:52:31.017
184, -3662.44, -3789.23, -4364.14, -3641.26, 0.000, 0.000, 0.000, 12:52:31.018
185, -3358.75, -3422.16, -4090.78, -3372.50, 0.000, 0.000, 0.000, 12:52:31.018
186, -2836.46, -2735.84, -3627.21, -2874.30, 0.000, 0.000, 0.000, 12:52:31.018
187, -3162.31, -3207.62, -3921.50, -3161.86, 0.000, 0.000, 0.000, 12:52:31.033
188, -3668.60, -3748.46, -4367.96, -3637.22, 0.000, 0.000, 0.000, 12:52:31.033
189, -3355.16, -3339.95, -4090.38, -3368.81, 0.000, 0.000, 0.000, 12:52:31.047
190, -2833.52, -2814.03, -3631.81, -2870.41, 0.000, 0.000, 0.000, 12:52:31.048
191, -3159.38, -3136.14, -3918.69, -3153.60, 0.000, 0.000, 0.000, 12:52:31.048
192, -3658.58, -3666.52, -4365.04, -3640.12, 0.000, 0.000, 0.000, 12:52:31.048
193, -3357.57, -3440.15, -4105.32, -3372.00, 0.000, 0.000, 0.000, 12:52:31.062
194, -2837.22, -2902.58, -3638.51, -2882.39, 0.000, 0.000, 0.000, 12:52:31.062
195, -3169.46, -3182.81, -3934.86, -3156.47, 0.000, 0.000, 0.000, 12:52:31.077
196, -3668.03, -3748.03, -4382.00, -3639.21, 0.000, 0.000, 0.000, 12:52:31.077
197, -3357.59, -3388.03, -4112.61, -3365.46, 0.000, 0.000, 0.000, 12:52:31.078
198, -2835.90, -2880.37, -3638.94, -2873.41, 0.000, 0.000, 0.000, 12:52:31.078
199, -3151.31, -3235.84, -3916.87, -3147.13, 0.000, 0.000, 0.000, 12:52:31.093
200, -3665.63, -3763.54, -4366.08, -3639.59, 0.000, 0.000, 0.000, 12:52:31.093
0, -3351.29, -3398.81, -4099.72, -3362.03, 0.000, 0.000, 0.000, 12:52:31.093
1, -2827.87, -2755.18, -3630.29, -2868.15, 0.000, 0.000, 0.000, 12:52:31.108
2, -3155.10, -3219.06, -3922.66, -3151.53, 0.000, 0.000, 0.000, 12:52:31.108
3, -3654.56, -3817.65, -4368.19, -3635.72, 0.000, 0.000, 0.000, 12:52:31.122
4, -3354.41, -3474.78, -4094.55, -3359.57, 0.000, 0.000, 0.000, 12:52:31.122
5, -2834.42, -2846.97, -3631.15, -2869.77, 0.000, 0.000, 0.000, 12:52:31.123
6, -3169.18, -3092.75, -3932.71, -3155.79, 0.000, 0.000, 0.000, 12:52:31.123
7, -3670.21, -3686.14, -4374.41, -3637.12, 0.000, 0.000, 0.000, 12:52:31.138
8, -3355.13, -3413.16, -4106.83, -3365.95, 0.000, 0.000, 0.000, 12:52:31.138
9, -2833.65, -2871.67, -3639.57, -2867.79, 0.000, 0.000, 0.000, 12:52:31.153
10, -3166.43, -3268.92, -3924.93, -3150.78, 0.000, 0.000, 0.000, 12:52:31.153
11, -3661.97, -3826.64, -4371.54, -3635.82, 0.000, 0.000, 0.000, 12:52:31.153
12, -3355.06, -3387.55, -4101.81, -3361.44, 0.000, 0.000, 0.000, 12:52:31.153
13, -2830.66, -2865.05, -3634.57, -2874.68, 0.000, 0.000, 0.000, 12:52:31.167
14, -3158.51, -3210.09, -3913.64, -3156.71, 0.000, 0.000, 0.000, 12:52:31.168
15, -3669.60, -3671.17, -4368.59, -3630.62, 0.000, 0.000, 0.000, 12:52:31.183
16, -3360.24, -3391.10, -4095.98, -3364.83, 0.000, 0.000, 0.000, 12:52:31.183
17, -2843.27, -2777.67, -3634.95, -2879.30, 0.000, 0.000, 0.000, 12:52:31.197
18, -3162.67, -3211.47, -3920.78, -3160.64, 0.000, 0.000, 0.000, 12:52:31.197
19, -3668.54, -3777.43, -4373.10, -3640.66, 0.000, 0.000, 0.000, 12:52:31.198
20, -3368.96, -3336.42, -4110.56, -3374.22, 0.000, 0.000, 0.000, 12:52:31.198
21, -2834.49, -2866.80, -3633.39, -2873.65, 0.000, 0.000, 0.000, 12:52:31.213
22, -3157.85, -3254.17, -3921.07, -3153.84, 0.000, 0.000, 0.000, 12:52:31.213
23, -3661.44, -3772.85, -4368.41, -3638.20, 0.000, 0.000, 0.000, 12:52:31.213
24, -3352.00, -3408.80, -4106.19, -3369.27, 0.000, 0.000, 0.000, 12:52:31.213
25, -2830.81, -2778.67, -3637.74, -2874.78, 0.000, 0.000, 0.000, 12:52:31.228
26, -3155.41, -3237.95, -3923.88, -3151.93, 0.000, 0.000, 0.000, 12:52:31.228
27, -3655.81, -3713.48, -4365.55, -3641.56, 0.000, 0.000, 0.000, 12:52:31.242
28, -3359.42, -3377.67, -4098.40, -3367.69, 0.000, 0.000, 0.000, 12:52:31.242
29, -2837.46, -2841.79, -3640.07, -2867.24, 0.000, 0.000, 0.000, 12:52:31.243
30, -3156.99, -3182.98, -3917.87, -3143.70, 0.000, 0.000, 0.000, 12:52:31.243
31, -3665.12, -3642.91, -4363.30, -3630.11, 0.000, 0.000, 0.000, 12:52:31.258
32, -3359.89, -3453.38, -4102.44, -3366.06, 0.000, 0.000, 0.000, 12:52:31.258
33, -2826.91, -2905.29, -3635.08, -2872.61, 0.000, 0.000, 0.000, 12:52:31.273
34, -3155.60, -3127.68, -3918.40, -3157.36, 0.000, 0.000, 0.000, 12:52:31.273
35, -3661.33, -3694.89, -4371.66, -3643.86, 0.000, 0.000, 0.000, 12:52:31.273
36, -3356.31, -3444.64, -4102.44, -3370.13, 0.000, 0.000, 0.000, 12:52:31.273
37, -2831.44, -2841.08, -3634.40, -2871.65, 0.000, 0.000, 0.000, 12:52:31.287
38, -3158.03, -3214.33, -3928.06, -3151.35, 0.000, 0.000, 0.000, 12:52:31.287
39, -3664.69, -3780.29, -4370.01, -3644.81, 0.000, 0.000, 0.000, 12:52:31.304
40, -3360.86, -3370.51, -4100.87, -3368.79, 0.000, 0.000, 0.000, 12:52:31.304
41, -2839.32, -2842.07, -3637.06, -2869.03, 0.000, 0.000, 0.000, 12:52:31.317
42, -3160.63, -3192.52, -3917.40, -3148.21, 0.000, 0.000, 0.000, 12:52:31.317
43, -3670.00, -3673.13, -4366.83, -3639.29, 0.000, 0.000, 0.000, 12:52:31.318
44, -3364.50, -3404.69, -4102.04, -3366.23, 0.000, 0.000, 0.000, 12:52:31.318
45, -2830.61, -2753.29, -3637.48, -2866.21, 0.000, 0.000, 0.000, 12:52:31.332
46, -3147.92, -3207.48, -3916.09, -3155.72, 0.000, 0.000, 0.000, 12:52:31.332
47, -3660.96, -3690.90, -4367.93, -3639.31, 0.000, 0.000, 0.000, 12:52:31.333
48, -3362.06, -3333.72, -4096.46, -3371.21, 0.000, 0.000, 0.000, 12:52:31.333
49, -2826.20, -2883.96, -3628.77, -2868.25, 0.000, 0.000, 0.000, 12:52:31.347
50, -3150.06, -3124.92, -3918.05, -3145.14, 0.000, 0.000, 0.000, 12:52:31.347
51, -3654.55, -3722.43, -4364.32, -3634.91, 0.000, 0.000, 0.000, 12:52:31.362
52, -3355.75, -3508.22, -4098.82, -3366.84, 0.000, 0.000, 0.000, 12:52:31.363
53, -2831.07, -2857.89, -3633.42, -2870.99, 0.000, 0.000, 0.000, 12:52:31.377
54, -3150.33, -3177.91, -3908.87, -3147.96, 0.000, 0.000, 0.000, 12:52:31.377
55, -3651.20, -3796.37, -4364.03, -3639.68, 0.000, 0.000, 0.000, 12:52:31.378
56, -3356.69, -3456.25, -4102.44, -3370.09, 0.000, 0.000, 0.000, 12:52:31.378
57, -2824.98, -2838.30, -3632.29, -2873.21, 0.000, 0.000, 0.000, 12:52:31.392
58, -3154.69, -3173.22, -3919.63, -3152.15, 0.000, 0.000, 0.000, 12:52:31.392
59, -3658.83, -3698.70, -4364.79, -3636.59, 0.000, 0.000, 0.000, 12:52:31.393
60, -3362.01, -3401.79, -4102.44, -3374.26, 0.000, 0.000, 0.000, 12:52:31.393
61, -2841.88, -2807.16, -3632.56, -2876.67, 0.000, 0.000, 0.000, 12:52:31.408
62, -3159.03, -3177.54, -3917.39, -3151.97, 0.000, 0.000, 0.000, 12:52:31.408
63, -3660.04, -3802.82, -4365.78, -3634.54, 0.000, 0.000, 0.000, 12:52:31.423
64, -3359.66, -3346.84, -4102.25, -3368.33, 0.000, 0.000, 0.000, 12:52:31.423
65, -2839.67, -2860.80, -3639.66, -2878.89, 0.000, 0.000, 0.000, 12:52:31.437
66, -3152.13, -3225.90, -3920.23, -3147.42, 0.000, 0.000, 0.000, 12:52:31.437
67, -3663.01, -3730.72, -4374.66, -3635.79, 0.000, 0.000, 0.000, 12:52:31.437
68, -3360.78, -3364.74, -4107.84, -3376.12, 0.000, 0.000, 0.000, 12:52:31.438
69, -2833.92, -2876.78, -3633.71, -2871.59, 0.000, 0.000, 0.000, 12:52:31.452
70, -3148.46, -3225.34, -3914.14, -3144.03, 0.000, 0.000, 0.000, 12:52:31.452
71, -3663.78, -3735.78, -4366.39, -3642.98, 0.000, 0.000, 0.000, 12:52:31.453
72, -3359.88, -3487.83, -4106.66, -3365.26, 0.000, 0.000, 0.000, 12:52:31.453
73, -2841.46, -2844.27, -3644.63, -2877.50, 0.000, 0.000, 0.000, 12:52:31.468
74, -3156.54, -3152.52, -3921.78, -3156.94, 0.000, 0.000, 0.000, 12:52:31.468
75, -3662.12, -3765.42, -4367.11, -3638.75, 0.000, 0.000, 0.000, 12:52:31.482
76, -3354.89, -3487.49, -4100.07, -3368.25, 0.000, 0.000, 0.000, 12:52:31.482
77, -2826.93, -2790.39, -3622.77, -2866.00, 0.000, 0.000, 0.000, 12:52:31.483
78, -3142.78, -3187.47, -3911.10, -3148.45, 0.000, 0.000, 0.000, 12:52:31.483
79, -3652.89, -3707.68, -4368.98, -3636.05, 0.000, 0.000, 0.000, 12:52:31.497
80, -3356.03, -3383.63, -4105.32, -3367.36, 0.000, 0.000, 0.000, 12:52:31.499
81, -2833.42, -2896.27, -3639.00, -2876.10, 0.000, 0.000, 0.000, 12:52:31.513
82, -3150.44, -3109.08, -3916.42, -3147.92, 0.000, 0.000, 0.000, 12:52:31.513
83, -3660.34, -3661.99, -4362.54, -3640.48, 0.000, 0.000, 0.000, 12:52:31.513
84, -3366.09, -3413.15, -4105.36, -3377.19, 0.000, 0.000, 0.000, 12:52:31.513
85, -2835.73, -2789.45, -3636.96, -2871.62, 0.000, 0.000, 0.000, 12:52:31.528
86, -3149.38, -3192.78, -3909.07, -3138.22, 0.000, 0.000, 0.000, 12:52:31.528
87, -3652.89, -3790.87, -4367.10, -3637.47, 0.000, 0.000, 0.000, 12:52:31.542
88, -3352.63, -3489.25, -4100.30, -3370.12, 0.000, 0.000, 0.000, 12:52:31.542
89, -2831.88, -2921.75, -3633.75, -2881.03, 0.000, 0.000, 0.000, 12:52:31.543
90, -3152.19, -3163.99, -3921.32, -3144.92, 0.000, 0.000, 0.000, 12:52:31.543
91, -3656.71, -3678.75, -4372.42, -3644.48, 0.000, 0.000, 0.000, 12:52:31.558
92, -3359.01, -3467.47, -4105.35, -3367.68, 0.000, 0.000, 0.000, 12:52:31.558
93, -2831.14, -2792.78, -3637.37, -2875.26, 0.000, 0.000, 0.000, 12:52:31.573
94, -3149.07, -3134.12, -3912.05, -3151.36, 0.000, 0.000, 0.000, 12:52:31.573
95, -3665.11, -3704.23, -4368.15, -3646.96, 0.000, 0.000, 0.000, 12:52:31.574
96, -3366.01, -3436.04, -4116.15, -3375.45, 0.000, 0.000, 0.000, 12:52:31.574
97, -2842.18, -2767.25, -3640.68, -2875.68, 0.000, 0.000, 0.000, 12:52:31.588
98, -3158.61, -3212.29, -3922.59, -3150.37, 0.000, 0.000, 0.000, 12:52:31.588
99, -3673.14, -3864.76, -4372.86, -3642.93, 0.000, 0.000, 0.000, 12:52:31.602
100, -3367.85, -3517.97, -4109.16, -3372.07, 0.000, 0.000, 0.000, 12:52:31.603
101, -2841.62, -2883.07, -3643.96, -2873.19, 0.000, 0.000, 0.000, 12:52:31.603
102, -3161.77, -3211.36, -3920.23, -3149.72, 0.000, 0.000, 0.000, 12:52:31.603
103, -3673.53, -3832.74, -4373.00, -3633.67, 0.000, 0.000, 0.000, 12:52:31.617
104, -3371.08, -3407.51, -4115.51, -3371.59, 0.000, 0.000, 0.000, 12:52:31.617
105, -2850.40, -2814.36, -3649.31, -2874.69, 0.000, 0.000, 0.000, 12:52:31.633
106, -3157.50, -3215.47, -3920.74, -3146.86, 0.000, 0.000, 0.000, 12:52:31.633
107, -3662.70, -3677.23, -4374.33, -3636.25, 0.000, 0.000, 0.000, 12:52:31.633
108, -3358.31, -3460.36, -4117.83, -3376.70, 0.000, 0.000, 0.000, 12:52:31.633
109, -2836.16, -2832.58, -3640.71, -2870.51, 0.000, 0.000, 0.000, 12:52:31.647
110, -3158.03, -3218.00, -3914.88, -3151.02, 0.000, 0.000, 0.000, 12:52:31.647
111, -3674.78, -3648.85, -4372.46, -3640.36, 0.000, 0.000, 0.000, 12:52:31.662
112, -3361.40, -3312.31, -4104.04, -3357.60, 0.000, 0.000, 0.000, 12:52:31.662
113, -2837.15, -2801.24, -3631.35, -2877.24, 0.000, 0.000, 0.000, 12:52:31.663
114, -3142.22, -3138.23, -3905.80, -3141.93, 0.000, 0.000, 0.000, 12:52:31.663
115, -3662.61, -3734.78, -4363.45, -3630.21, 0.000, 0.000, 0.000, 12:52:31.677
116, -3365.91, -3505.30, -4103.88, -3375.64, 0.000, 0.000, 0.000, 12:52:31.678
117, -2840.99, -2821.27, -3633.15, -2875.21, 0.000, 0.000, 0.000, 12:52:31.692
118, -3145.93, -3127.41, -3915.06, -3143.06, 0.000, 0.000, 0.000, 12:52:31.692
119, -3653.69, -3746.38, -4359.99, -3637.94, 0.000, 0.000, 0.000, 12:52:31.693
120, -3358.02, -3468.70, -4099.23, -3375.48, 0.000, 0.000, 0.000, 12:52:31.693
121, -2833.60, -2814.43, -3635.90, -2872.79, 0.000, 0.000, 0.000, 12:52:31.708
122, -3155.04, -3215.34, -3916.89, -3148.84, 0.000, 0.000, 0.000, 12:52:31.708
123, -3666.60, -3805.86, -4368.66, -3632.89, 0.000, 0.000, 0.000, 12:52:31.722
124, -3367.69, -3403.23, -4112.23, -3370.89, 0.000, 0.000, 0.000, 12:52:31.722
125, -2844.31, -2863.55, -3648.56, -2881.37, 0.000, 0.000, 0.000, 12:52:31.730
126, -3148.75, -3177.10, -3912.12, -3151.84, 0.000, 0.000, 0.000, 12:52:31.730
127, -3659.03, -3666.79, -4366.48, -3644.22, 0.000, 0.000, 0.000, 12:52:31.738
128, -3363.78, -3487.67, -4107.35, -3372.17, 0.000, 0.000, 0.000, 12:52:31.738
129, -2836.06, -2883.72, -3641.32, -2879.39, 0.000, 0.000, 0.000, 12:52:31.752
130, -3144.98, -3166.26, -3909.11, -3141.96, 0.000, 0.000, 0.000, 12:52:31.753
131, -3654.70, -3701.14, -4368.00, -3642.24, 0.000, 0.000, 0.000, 12:52:31.753
132, -3361.52, -3393.35, -4114.59, -3375.99, 0.000, 0.000, 0.000, 12:52:31.753
133, -2837.29, -2845.46, -3637.82, -2875.21, 0.000, 0.000, 0.000, 12:52:31.767
134, -3146.49, -3263.65, -3906.93, -3144.42, 0.000, 0.000, 0.000, 12:52:31.767
135, -3669.38, -3812.51, -4374.45, -3639.18, 0.000, 0.000, 0.000, 12:52:31.783
136, -3376.12, -3409.28, -4106.89, -3368.25, 0.000, 0.000, 0.000, 12:52:31.783
137, -2848.61, -2831.22, -3645.83, -2873.14, 0.000, 0.000, 0.000, 12:52:31.783
138, -3159.48, -3171.58, -3909.36, -3142.18, 0.000, 0.000, 0.000, 12:52:31.783
139, -3675.07, -3747.80, -4374.34, -3640.16, 0.000, 0.000, 0.000, 12:52:31.798
140, -3376.77, -3380.02, -4105.89, -3372.13, 0.000, 0.000, 0.000, 12:52:31.798
141, -2846.89, -2854.90, -3638.23, -2880.27, 0.000, 0.000, 0.000, 12:52:31.812
142, -3151.55, -3220.77, -3903.85, -3139.82, 0.000, 0.000, 0.000, 12:52:31.812
143, -3662.03, -3754.43, -4361.47, -3632.47, 0.000, 0.000, 0.000, 12:52:31.813
144, -3359.37, -3445.09, -4096.46, -3370.41, 0.000, 0.000, 0.000, 12:52:31.813
145, -2836.82, -2787.12, -3637.64, -2877.07, 0.000, 0.000, 0.000, 12:52:31.827
146, -3142.39, -3191.95, -3909.21, -3140.72, 0.000, 0.000, 0.000, 12:52:31.827
147, -3658.38, -3805.75, -4369.46, -3640.06, 0.000, 0.000, 0.000, 12:52:31.842
148, -3364.54, -3364.76, -4108.51, -3385.82, 0.000, 0.000, 0.000, 12:52:31.842
149, -2842.38, -2817.01, -3643.10, -2878.35, 0.000, 0.000, 0.000, 12:52:31.843
150, -3146.74, -3188.38, -3911.51, -3145.44, 0.000, 0.000, 0.000, 12:52:31.843
151, -3657.85, -3767.03, -4368.49, -3642.87, 0.000, 0.000, 0.000, 12:52:31.872
152, -3361.74, -3405.85, -4111.73, -3378.83, 0.000, 0.000, 0.000, 12:52:31.872
153, -2844.35, -2839.17, -3648.12, -2873.02, 0.000, 0.000, 0.000, 12:52:31.873
154, -3140.70, -3177.84, -3907.50, -3139.48, 0.000, 0.000, 0.000, 12:52:31.873
155, -3652.74, -3771.89, -4363.14, -3641.18, 0.000, 0.000, 0.000, 12:52:31.874
156, -3362.63, -3341.37, -4107.21, -3376.56, 0.000, 0.000, 0.000, 12:52:31.874
157, -2828.81, -2801.21, -3633.26, -2873.05, 0.000, 0.000, 0.000, 12:52:31.888
158, -3133.68, -3219.82, -3904.14, -3140.77, 0.000, 0.000, 0.000, 12:52:31.888
159, -3659.90, -3763.51, -4363.85, -3641.00, 0.000, 0.000, 0.000, 12:52:31.903
160, -3373.89, -3476.27, -4106.79, -3376.29, 0.000, 0.000, 0.000, 12:52:31.903
161, -2836.21, -2868.45, -3635.66, -2872.04, 0.000, 0.000, 0.000, 12:52:31.903
162, -3139.84, -3184.38, -3902.06, -3136.53, 0.000, 0.000, 0.000, 12:52:31.903
163, -3672.51, -3830.21, -4373.54, -3637.20, 0.000, 0.000, 0.000, 12:52:31.917
164, -3372.95, -3461.44, -4105.06, -3376.87, 0.000, 0.000, 0.000, 12:52:31.917
165, -2842.84, -2863.47, -3641.18, -2878.36, 0.000, 0.000, 0.000, 12:52:31.932
166, -3146.76, -3119.44, -3913.44, -3140.71, 0.000, 0.000, 0.000, 12:52:31.932
167, -3661.35, -3771.47, -4369.87, -3639.62, 0.000, 0.000, 0.000, 12:52:31.933
168, -3361.59, -3383.32, -4111.24, -3369.43, 0.000, 0.000, 0.000, 12:52:31.933
169, -2846.57, -2764.12, -3647.74, -2871.78, 0.000, 0.000, 0.000, 12:52:31.947
170, -3139.33, -3180.02, -3903.38, -3136.41, 0.000, 0.000, 0.000, 12:52:31.947
171, -3669.82, -3776.74, -4374.83, -3635.89, 0.000, 0.000, 0.000, 12:52:31.962
172, -3364.44, -3343.71, -4107.74, -3366.12, 0.000, 0.000, 0.000, 12:52:31.962
173, -2838.76, -2785.88, -3638.88, -2866.33, 0.000, 0.000, 0.000, 12:52:31.963
174, -3149.16, -3139.74, -3909.29, -3130.16, 0.000, 0.000, 0.000, 12:52:31.963
175, -3654.00, -3699.90, -4363.00, -3628.63, 0.000, 0.000, 0.000, 12:52:31.978
176, -3359.23, -3446.91, -4104.53, -3368.71, 0.000, 0.000, 0.000, 12:52:31.978
177, -2832.77, -2880.38, -3638.68, -2871.34, 0.000, 0.000, 0.000, 12:52:31.992
178, -3134.89, -3248.65, -3900.69, -3137.08, 0.000, 0.000, 0.000, 12:52:31.992
179, -3660.98, -3748.86, -4362.42, -3630.92, 0.000, 0.000, 0.000, 12:52:31.993
180, -3371.65, -3380.47, -4111.45, -3375.90, 0.000, 0.000, 0.000, 12:52:31.993
181, -2842.27, -2881.43, -3637.02, -2881.27, 0.000, 0.000, 0.000, 12:52:32.023
182, -3145.16, -3206.68, -3902.84, -3141.81, 0.000, 0.000, 0.000, 12:52:32.023
183, -3659.86, -3701.70, -4369.78, -3638.66, 0.000, 0.000, 0.000, 12:52:32.024
184, -3364.74, -3423.42, -4108.75, -3378.02, 0.000, 0.000, 0.000, 12:52:32.024
185, -2842.87, -2858.44, -3643.42, -2881.03, 0.000, 0.000, 0.000, 12:52:32.025
186, -3147.20, -3167.59, -3910.30, -3141.44, 0.000, 0.000, 0.000, 12:52:32.025
187, -3661.91, -3809.82, -4364.81, -3641.79, 0.000, 0.000, 0.000, 12:52:32.038
188, -3378.05, -3409.46, -4106.43, -3383.48, 0.000, 0.000, 0.000, 12:52:32.038
189, -2850.40, -2889.42, -3643.53, -2877.02, 0.000, 0.000, 0.000, 12:52:32.052
190, -3150.31, -3161.78, -3905.53, -3139.57, 0.000, 0.000, 0.000, 12:52:32.053
191, -3658.75, -3820.08, -4367.85, -3639.47, 0.000, 0.000, 0.000, 12:52:32.053
192, -3372.62, -3373.77, -4109.41, -3375.27, 0.000, 0.000, 0.000, 12:52:32.053
193, -2848.93, -2833.95, -3643.49, -2879.07, 0.000, 0.000, 0.000, 12:52:32.075
194, -3146.20, -3153.70, -3905.83, -3134.80, 0.000, 0.000, 0.000, 12:52:32.075
195, -3659.64, -3733.32, -4368.12, -3641.21, 0.000, 0.000, 0.000, 12:52:32.083
196, -3365.11, -3449.85, -4107.33, -3375.01, 0.000, 0.000, 0.000, 12:52:32.083
197, -2835.19, -2869.34, -3637.87, -2882.32, 0.000, 0.000, 0.000, 12:52:32.083
198, -3144.44, -3200.16, -3903.12, -3147.02, 0.000, 0.000, 0.000, 12:52:32.083
199, -3658.08, -3708.47, -4361.89, -3640.49, 0.000, 0.000, 0.000, 12:52:32.097
200, -3375.83, -3486.89, -4106.30, -3382.62, 0.000, 0.000, 0.000, 12:52:32.097
0, -2847.93, -2894.58, -3639.98, -2878.15, 0.000, 0.000, 0.000, 12:52:32.098
1, -3155.98, -3176.05, -3907.22, -3144.71, 0.000, 0.000, 0.000, 12:52:32.113
2, -3670.27, -3816.67, -4368.14, -3639.56, 0.000, 0.000, 0.000, 12:52:32.113
3, -3376.31, -3451.04, -4115.62, -3383.41, 0.000, 0.000, 0.000, 12:52:32.127
4, -2844.01, -2826.09, -3646.75, -2879.90, 0.000, 0.000, 0.000, 12:52:32.127
5, -3150.84, -3148.79, -3906.73, -3138.12, 0.000, 0.000, 0.000, 12:52:32.128
6, -3671.86, -3777.04, -4380.74, -3640.52, 0.000, 0.000, 0.000, 12:52:32.128
7, -3371.49, -3456.07, -4118.95, -3378.74, 0.000, 0.000, 0.000, 12:52:32.142
8, -2843.88, -2870.31, -3651.17, -2880.95, 0.000, 0.000, 0.000, 12:52:32.142
9, -3139.30, -3162.03, -3905.11, -3139.64, 0.000, 0.000, 0.000, 12:52:32.158
10, -3657.47, -3677.86, -4366.96, -3644.24, 0.000, 0.000, 0.000, 12:52:32.158
11, -3363.42, -3300.00, -4108.37, -3378.41, 0.000, 0.000, 0.000, 12:52:32.159
12, -2837.71, -2870.16, -3644.78, -2874.39, 0.000, 0.000, 0.000, 12:52:32.159
13, -3143.04, -3197.03, -3907.71, -3134.52, 0.000, 0.000, 0.000, 12:52:32.172
14, -3663.84, -3718.23, -4362.93, -3630.85, 0.000, 0.000, 0.000, 12:52:32.173
15, -3365.45, -3488.58, -4106.48, -3372.99, 0.000, 0.000, 0.000, 12:52:32.188
16, -2837.88, -2862.95, -3639.64, -2872.58, 0.000, 0.000, 0.000, 12:52:32.188
17, -3142.80, -3215.05, -3905.19, -3130.15, 0.000, 0.000, 0.000, 12:52:32.188
18, -3668.12, -3793.10, -4371.40, -3643.18, 0.000, 0.000, 0.000, 12:52:32.188
19, -3365.35, -3431.48, -4112.93, -3371.47, 0.000, 0.000, 0.000, 12:52:32.202
20, -2839.61, -2859.15, -3649.30, -2876.88, 0.000, 0.000, 0.000, 12:52:32.202
21, -3138.62, -3152.58, -3903.37, -3138.05, 0.000, 0.000, 0.000, 12:52:32.217
22, -3653.63, -3703.22, -4361.39, -3633.71, 0.000, 0.000, 0.000, 12:52:32.217
23, -3371.72, -3366.88, -4111.28, -3386.81, 0.000, 0.000, 0.000, 12:52:32.218
24, -2856.66, -2836.33, -3643.82, -2882.11, 0.000, 0.000, 0.000, 12:52:32.218
25, -3146.85, -3150.28, -3906.87, -3133.82, 0.000, 0.000, 0.000, 12:52:32.233
26, -3659.75, -3772.95, -4366.99, -3637.03, 0.000, 0.000, 0.000, 12:52:32.233
27, -3362.38, -3337.11, -4108.20, -3375.91, 0.000, 0.000, 0.000, 12:52:32.247
28, -2838.02, -2826.03, -3638.08, -2881.43, 0.000, 0.000, 0.000, 12:52:32.248
29, -3129.85, -3194.10, -3896.94, -3132.68, 0.000, 0.000, 0.000, 12:52:32.248
30, -3654.69, -3752.36, -4363.69, -3638.89, 0.000, 0.000, 0.000, 12:52:32.248
31, -3367.60, -3389.22, -4110.19, -3382.73, 0.000, 0.000, 0.000, 12:52:32.262
32, -2847.27, -2778.60, -3637.00, -2876.41, 0.000, 0.000, 0.000, 12:52:32.262
33, -3136.40, -3215.26, -3893.67, -3131.64, 0.000, 0.000, 0.000, 12:52:32.278
34, -3657.42, -3733.96, -4359.48, -3638.67, 0.000, 0.000, 0.000, 12:52:32.278
35, -3364.51, -3336.39, -4103.94, -3376.10, 0.000, 0.000, 0.000, 12:52:32.278
36, -2839.14, -2794.03, -3634.52, -2881.95, 0.000, 0.000, 0.000, 12:52:32.278
37, -3133.85, -3120.48, -3900.93, -3128.77, 0.000, 0.000, 0.000, 12:52:32.292
38, -3668.21, -3765.33, -4368.17, -3635.92, 0.000, 0.000, 0.000, 12:52:32.292
39, -3370.43, -3465.28, -4112.18, -3379.26, 0.000, 0.000, 0.000, 12:52:32.308
40, -2837.69, -2862.57, -3647.08, -2876.18, 0.000, 0.000, 0.000, 12:52:32.308
41, -3142.19, -3261.01, -3906.06, -3138.00, 0.000, 0.000, 0.000, 12:52:32.309
42, -3660.60, -3720.12, -4365.71, -3635.31, 0.000, 0.000, 0.000, 12:52:32.309
43, -3364.00, -3336.52, -4103.71, -3377.95, 0.000, 0.000, 0.000, 12:52:32.323
44, -2838.00, -2885.62, -3643.85, -2874.82, 0.000, 0.000, 0.000, 12:52:32.323
45, -3133.59, -3215.61, -3902.32, -3132.48, 0.000, 0.000, 0.000, 12:52:32.338
46, -3657.41, -3814.02, -4363.19, -3633.57, 0.000, 0.000, 0.000, 12:52:32.338
47, -3374.88, -3440.80, -4110.51, -3373.71, 0.000, 0.000, 0.000, 12:52:32.342
48, -2839.94, -2861.79, -3647.92, -2877.98, 0.000, 0.000, 0.000, 12:52:32.342
49, -3134.03, -3211.34, -3906.23, -3124.35, 0.000, 0.000, 0.000, 12:52:32.354
50, -3660.35, -3694.59, -4372.83, -3639.32, 0.000, 0.000, 0.000, 12:52:32.354
51, -3359.90, -3427.23, -4113.34, -3373.25, 0.000, 0.000, 0.000, 12:52:32.367
52, -2842.72, -2830.67, -3643.13, -2879.25, 0.000, 0.000, 0.000, 12:52:32.367
53, -3137.25, -3246.00, -3909.09, -3136.65, 0.000, 0.000, 0.000, 12:52:32.368
54, -3661.22, -3715.04, -4367.70, -3633.37, 0.000, 0.000, 0.000, 12:52:32.368
55, -3373.49, -3327.47, -4121.24, -3374.61, 0.000, 0.000, 0.000, 12:52:32.383
56, -2846.80, -2763.10, -3651.86, -2877.40, 0.000, 0.000, 0.000, 12:52:32.383
57, -3140.63, -3116.84, -3903.76, -3127.00, 0.000, 0.000, 0.000, 12:52:32.398
58, -3664.10, -3822.63, -4377.69, -3636.54, 0.000, 0.000, 0.000, 12:52:32.398
59, -3370.81, -3482.72, -4117.64, -3377.99, 0.000, 0.000, 0.000, 12:52:32.398
60, -2844.76, -2825.38, -3645.69, -2876.29, 0.000, 0.000, 0.000, 12:52:32.398
61, -3133.27, -3098.16, -3905.68, -3126.43, 0.000, 0.000, 0.000, 12:52:32.428
62, -3668.99, -3831.82, -4368.81, -3632.22, 0.000, 0.000, 0.000, 12:52:32.428
63, -3372.44, -3480.45, -4110.48, -3376.31, 0.000, 0.000, 0.000, 12:52:32.429
64, -2845.54, -2867.14, -3644.61, -2870.29, 0.000, 0.000, 0.000, 12:52:32.429
65, -3137.21, -3249.70, -3905.47, -3134.66, 0.000, 0.000, 0.000, 12:52:32.429
66, -3657.04, -3857.42, -4366.24, -3624.89, 0.000, 0.000, 0.000, 12:52:32.429
67, -3347.76, -3505.56, -4102.89, -3380.50, 0.000, 0.000, 0.000, 12:52:32.443
68, -2813.67, -2770.57, -3640.90, -2905.13, 0.000, 0.000, 0.000, 12:52:32.443
69, -3108.63, -3114.77, -3896.31, -3178.72, 0.000, 0.000, 0.000, 12:52:32.458
70, -3587.06, -3734.91, -4349.51, -3611.36, 0.000, 0.000, 0.000, 12:52:32.459
71, -3247.81, -3485.23, -4105.52, -3355.68, 0.000, 0.000, 0.000, 12:52:32.459
72, -2687.56, -2894.71, -3649.82, -2862.82, 0.000, 0.000, 0.000, 12:52:32.459
73, -2947.29, -3240.19, -3922.22, -3111.42, 0.000, 0.000, 0.000, 12:52:32.473
74, -3465.75, -3842.43, -4373.80, -3599.51, 0.000, 0.000, 0.000, 12:52:32.473
75, -3166.54, -3495.19, -4134.77, -3311.69, 0.000, 0.000, 0.000, 12:52:32.488
76, -2609.13, -2979.22, -3668.35, -2833.51, 0.000, 0.000, 0.000, 12:52:32.488
77, -2917.39, -3240.35, -3936.71, -3061.08, 0.000, 0.000, 0.000, 12:52:32.488
78, -3447.70, -3897.65, -4411.24, -3561.53, 0.000, 0.000, 0.000, 12:52:32.489
79, -3152.61, -3603.03, -4148.48, -3287.46, 0.000, 0.000, 0.000, 12:52:32.503
80, -2645.34, -2887.17, -3698.24, -2796.94, 0.000, 0.000, 0.000, 12:52:32.503
81, -2966.52, -3326.13, -3968.48, -3053.13, 0.000, 0.000, 0.000, 12:52:32.517
82, -3485.10, -3788.09, -4427.56, -3539.55, 0.000, 0.000, 0.000, 12:52:32.518
83, -3184.48, -3540.12, -4181.84, -3291.54, 0.000, 0.000, 0.000, 12:52:32.518
84, -2700.05, -3001.13, -3733.88, -2823.22, 0.000, 0.000, 0.000, 12:52:32.518
85, -3011.87, -3316.31, -3990.20, -3052.69, 0.000, 0.000, 0.000, 12:52:32.532
86, -3548.26, -3787.07, -4448.27, -3553.35, 0.000, 0.000, 0.000, 12:52:32.532
87, -3278.20, -3393.76, -4206.10, -3305.24, 0.000, 0.000, 0.000, 12:52:32.548
88, -2773.47, -2842.43, -3749.14, -2808.11, 0.000, 0.000, 0.000, 12:52:32.548
89, -3081.49, -3244.92, -3994.49, -3056.90, 0.000, 0.000, 0.000, 12:52:32.555
90, -3625.68, -3837.17, -4462.11, -3571.11, 0.000, 0.000, 0.000, 12:52:32.555
91, -3345.19, -3421.82, -4216.56, -3305.75, 0.000, 0.000, 0.000, 12:52:32.562
92, -2825.27, -2875.86, -3739.24, -2803.95, 0.000, 0.000, 0.000, 12:52:32.563
93, -3142.07, -3171.32, -3998.89, -3061.82, 0.000, 0.000, 0.000, 12:52:32.578
94, -3669.90, -3744.17, -4460.73, -3562.17, 0.000, 0.000, 0.000, 12:52:32.578
95, -3386.64, -3474.14, -4206.27, -3315.63, 0.000, 0.000, 0.000, 12:52:32.578
96, -2894.79, -2912.10, -3744.45, -2827.04, 0.000, 0.000, 0.000, 12:52:32.578
97, -3186.20, -3072.08, -3989.94, -3073.43, 0.000, 0.000, 0.000, 12:52:32.592
98, -3717.36, -3736.59, -4460.40, -3574.41, 0.000, 0.000, 0.000, 12:52:32.592
99, -3443.61, -3403.04, -4203.07, -3336.57, 0.000, 0.000, 0.000, 12:52:32.608
100, -2906.17, -2819.59, -3715.93, -2831.09, 0.000, 0.000, 0.000, 12:52:32.608
101, -3196.26, -3195.69, -3967.29, -3076.59, 0.000, 0.000, 0.000, 12:52:32.608
102, -3737.89, -3702.53, -4439.32, -3607.93, 0.000, 0.000, 0.000, 12:52:32.608
103, -3466.78, -3410.82, -4196.86, -3358.93, 0.000, 0.000, 0.000, 12:52:32.622
104, -2929.22, -2803.28, -3714.49, -2849.12, 0.000, 0.000, 0.000, 12:52:32.622
105, -3220.83, -3104.61, -3962.92, -3112.75, 0.000, 0.000, 0.000, 12:52:32.638
106, -3734.95, -3702.18, -4412.31, -3622.71, 0.000, 0.000, 0.000, 12:52:32.638
107, -3445.29, -3438.15, -4134.75, -3359.71, 0.000, 0.000, 0.000, 12:52:32.638
108, -2909.61, -2798.88, -3667.28, -2861.49, 0.000, 0.000, 0.000, 12:52:32.638
109, -3213.06, -3133.41, -3925.14, -3111.36, 0.000, 0.000, 0.000, 12:52:32.653
110, -3753.71, -3598.02, -4396.89, -3629.90, 0.000, 0.000, 0.000, 12:52:32.653
111, -3458.56, -3422.49, -4153.03, -3370.44, 0.000, 0.000, 0.000, 12:52:32.667
112, -2922.65, -2821.70, -3675.39, -2874.29, 0.000, 0.000, 0.000, 12:52:32.667
113, -3210.90, -3131.45, -3923.83, -3131.96, 0.000, 0.000, 0.000, 12:52:32.668
114, -3737.10, -3732.05, -4398.97, -3637.39, 0.000, 0.000, 0.000, 12:52:32.668
115, -3446.76, -3310.47, -4136.49, -3381.87, 0.000, 0.000, 0.000, 12:52:32.683
116, -2909.26, -2770.87, -3675.95, -2878.27, 0.000, 0.000, 0.000, 12:52:32.683
117, -3194.49, -3146.10, -3919.50, -3124.36, 0.000, 0.000, 0.000, 12:52:32.698
118, -3713.28, -3767.84, -4390.37, -3632.42, 0.000, 0.000, 0.000, 12:52:32.698
119, -3429.31, -3474.74, -4130.08, -3376.99, 0.000, 0.000, 0.000, 12:52:32.699
120, -2905.62, -2860.43, -3655.79, -2882.54, 0.000, 0.000, 0.000, 12:52:32.699
121, -3176.02, -3135.90, -3907.51, -3122.15, 0.000, 0.000, 0.000, 12:52:32.713
122, -3707.81, -3686.60, -4389.84, -3634.67, 0.000, 0.000, 0.000, 12:52:32.713
123, -3414.54, -3439.33, -4126.27, -3377.57, 0.000, 0.000, 0.000, 12:52:32.729
124, -2885.51, -2808.53, -3659.71, -2877.08, 0.000, 0.000, 0.000, 12:52:32.729
125, -3163.88, -3096.44, -3906.51, -3119.09, 0.000, 0.000, 0.000, 12:52:32.729
126, -3701.78, -3761.97, -4380.61, -3631.63, 0.000, 0.000, 0.000, 12:52:32.729
127, -3407.91, -3353.69, -4132.49, -3383.34, 0.000, 0.000, 0.000, 12:52:32.743
128, -2877.01, -2902.67, -3657.83, -2889.27, 0.000, 0.000, 0.000, 12:52:32.743
129, -3158.93, -3155.81, -3911.91, -3132.10, 0.000, 0.000, 0.000, 12:52:32.758
130, -3688.39, -3823.87, -4383.70, -3641.07, 0.000, 0.000, 0.000, 12:52:32.758
131, -3409.94, -3404.56, -4140.79, -3391.89, 0.000, 0.000, 0.000, 12:52:32.758
132, -2868.45, -2790.44, -3663.84, -2880.23, 0.000, 0.000, 0.000, 12:52:32.758
133, -3160.81, -3219.85, -3912.36, -3125.28, 0.000, 0.000, 0.000, 12:52:32.788
134, -3692.29, -3781.91, -4385.52, -3641.80, 0.000, 0.000, 0.000, 12:52:32.788
135, -3401.58, -3527.13, -4138.30, -3375.79, 0.000, 0.000, 0.000, 12:52:32.788
136, -2868.57, -2857.38, -3660.29, -2880.65, 0.000, 0.000, 0.000, 12:52:32.788
137, -3144.06, -3162.44, -3902.79, -3120.63, 0.000, 0.000, 0.000, 12:52:32.789
138, -3679.24, -3791.59, -4379.51, -3638.91, 0.000, 0.000, 0.000, 12:52:32.789
139, -3397.15, -3498.03, -4134.04, -3382.43, 0.000, 0.000, 0.000, 12:52:32.802
140, -2895.43, -2938.63, -3691.97, -2902.56, 0.000, 0.000, 0.000, 12:52:32.803
141, -3152.92, -3107.83, -3902.49, -3134.17, 0.000, 0.000, 0.000, 12:52:32.818
142, -3651.18, -3693.31, -4333.60, -3633.72, 0.000, 0.000, 0.000, 12:52:32.818
143, -3367.88, -3405.38, -4088.50, -3391.33, 0.000, 0.000, 0.000, 12:52:32.819
144, -2853.90, -2829.21, -3634.22, -2902.65, 0.000, 0.000, 0.000, 12:52:32.819
145, -3123.41, -3069.32, -3873.58, -3145.46, 0.000, 0.000, 0.000, 12:52:32.839
146, -3667.16, -3726.05, -4353.89, -3654.79, 0.000, 0.000, 0.000, 12:52:32.839
147, -3385.57, -3435.47, -4110.31, -3391.62, 0.000, 0.000, 0.000, 12:52:32.847
148, -2852.85, -2827.54, -3646.00, -2897.59, 0.000, 0.000, 0.000, 12:52:32.847
149, -3139.09, -3172.45, -3895.78, -3143.99, 0.000, 0.000, 0.000, 12:52:32.848
150, -3666.64, -3726.45, -4362.58, -3646.76, 0.000, 0.000, 0.000, 12:52:32.848
151, -3381.56, -3439.67, -4122.35, -3394.06, 0.000, 0.000, 0.000, 12:52:32.862
152, -2854.14, -2863.20, -3647.36, -2892.63, 0.000, 0.000, 0.000, 12:52:32.862
153, -3137.92, -3156.56, -3894.11, -3134.07, 0.000, 0.000, 0.000, 12:52:32.878
154, -3676.01, -3781.11, -4367.47, -3638.16, 0.000, 0.000, 0.000, 12:52:32.878
155, -3380.00, -3418.45, -4119.29, -3379.34, 0.000, 0.000, 0.000, 12:52:32.878
156, -2852.31, -2844.00, -3653.98, -2878.19, 0.000, 0.000, 0.000, 12:52:32.878
157, -3141.10, -3206.75, -3899.73, -3127.81, 0.000, 0.000, 0.000, 12:52:32.892
158, -3674.87, -3807.18, -4378.84, -3641.72, 0.000, 0.000, 0.000, 12:52:32.892
159, -3382.17, -3439.89, -4121.82, -3386.29, 0.000, 0.000, 0.000, 12:52:32.908
160, -2858.51, -2843.97, -3652.89, -2893.03, 0.000, 0.000, 0.000, 12:52:32.908
161, -3131.05, -3203.78, -3894.18, -3127.84, 0.000, 0.000, 0.000, 12:52:32.908
162, -3664.55, -3773.37, -4371.72, -3637.21, 0.000, 0.000, 0.000, 12:52:32.908
163, -3391.66, -3434.45, -4130.36, -3380.48, 0.000, 0.000, 0.000, 12:52:32.922
164, -2852.88, -2856.69, -3654.39, -2885.34, 0.000, 0.000, 0.000, 12:52:32.922
165, -3124.48, -3186.36, -3903.73, -3127.33, 0.000, 0.000, 0.000, 12:52:32.938
166, -3660.77, -3741.43, -4375.38, -3637.65, 0.000, 0.000, 0.000, 12:52:32.938
167, -3383.58, -3441.19, -4125.45, -3382.90, 0.000, 0.000, 0.000, 12:52:32.938
168, -2848.33, -2851.81, -3653.25, -2881.19, 0.000, 0.000, 0.000, 12:52:32.938
169, -3133.99, -3170.67, -3898.94, -3122.77, 0.000, 0.000, 0.000, 12:52:32.953
170, -3651.21, -3815.23, -4366.03, -3633.94, 0.000, 0.000, 0.000, 12:52:32.953
171, -3366.55, -3349.90, -4126.72, -3382.15, 0.000, 0.000, 0.000, 12:52:32.967
172, -2855.61, -2817.71, -3655.21, -2877.61, 0.000, 0.000, 0.000, 12:52:32.968
173, -3131.23, -3098.74, -3897.85, -3119.62, 0.000, 0.000, 0.000, 12:52:32.968
174, -3669.30, -3842.76, -4383.56, -3634.85, 0.000, 0.000, 0.000, 12:52:32.968
175, -3381.86, -3461.97, -4131.27, -3384.24, 0.000, 0.000, 0.000, 12:52:32.983
176, -2846.15, -2795.18, -3654.36, -2874.69, 0.000, 0.000, 0.000, 12:52:32.983
177, -3128.90, -3219.40, -3903.66, -3124.13, 0.000, 0.000, 0.000, 12:52:32.997
178, -3662.97, -3788.33, -4368.67, -3630.80, 0.000, 0.000, 0.000, 12:52:32.997
179, -3377.84, -3468.56, -4124.38, -3380.76, 0.000, 0.000, 0.000, 12:52:32.998
180, -2852.54, -2843.76, -3652.66, -2882.73, 0.000, 0.000, 0.000, 12:52:32.998
181, -3139.05, -3216.00, -3896.20, -3119.59, 0.000, 0.000, 0.000, 12:52:33.012
182, -3659.47, -3749.76, -4375.45, -3637.05, 0.000, 0.000, 0.000, 12:52:33.012
183, -3381.72, -3476.34, -4124.36, -3387.90, 0.000, 0.000, 0.000, 12:52:33.027
184, -2846.59, -2896.67, -3651.98, -2880.96, 0.000, 0.000, 0.000, 12:52:33.028
185, -3123.73, -3210.41, -3891.97, -3119.99, 0.000, 0.000, 0.000, 12:52:33.029
186, -3657.43, -3798.70, -4367.93, -3631.86, 0.000, 0.000, 0.000, 12:52:33.029
187, -3370.33, -3460.26, -4110.21, -3385.71, 0.000, 0.000, 0.000, 12:52:33.042
188, -2856.90, -2885.73, -3657.63, -2901.92, 0.000, 0.000, 0.000, 12:52:33.042
189, -3138.66, -3153.50, -3913.15, -3126.97, 0.000, 0.000, 0.000, 12:52:33.057
190, -3648.17, -3729.19, -4374.90, -3606.86, 0.000, 0.000, 0.000, 12:52:33.058
191, -3355.22, -3435.26, -4134.12, -3356.54, 0.000, 0.000, 0.000, 12:52:33.058
192, -2839.01, -2896.38, -3681.62, -2861.51, 0.000, 0.000, 0.000, 12:52:33.058
193, -3116.01, -3075.98, -3928.35, -3093.77, 0.000, 0.000, 0.000, 12:52:33.073
194, -3653.90, -3789.35, -4403.73, -3604.33, 0.000, 0.000, 0.000, 12:52:33.073
195, -3362.31, -3403.25, -4150.81, -3347.86, 0.000, 0.000, 0.000, 12:52:33.088
196, -2843.32, -2769.54, -3684.19, -2847.80, 0.000, 0.000, 0.000, 12:52:33.088
197, -3124.07, -3229.42, -3926.87, -3096.89, 0.000, 0.000, 0.000, 12:52:33.088
198, -3652.40, -3816.93, -4396.80, -3606.66, 0.000, 0.000, 0.000, 12:52:33.088
199, -3372.78, -3500.96, -4141.86, -3356.69, 0.000, 0.000, 0.000, 12:52:33.102
200, -2844.72, -2883.16, -3672.39, -2867.19, 0.000, 0.000, 0.000, 12:52:33.103
0, -3129.80, -3206.50, -3910.52, -3101.52, 0.000, 0.000, 0.000, 12:52:33.103
1, -3662.58, -3745.28, -4399.23, -3620.29, 0.000, 0.000, 0.000, 12:52:33.133
2, -3375.17, -3345.13, -4138.74, -3368.38, 0.000, 0.000, 0.000, 12:52:33.133
3, -2852.45, -2802.72, -3665.99, -2869.03, 0.000, 0.000, 0.000, 12:52:33.133
4, -3140.79, -3177.80, -3915.62, -3108.06, 0.000, 0.000, 0.000, 12:52:33.133
5, -3666.62, -3677.45, -4388.99, -3625.77, 0.000, 0.000, 0.000, 12:52:33.134
6, -3383.03, -3413.58, -4142.08, -3375.50, 0.000, 0.000, 0.000, 12:52:33.134
7, -2843.56, -2858.43, -3663.57, -2868.21, 0.000, 0.000, 0.000, 12:52:33.148
8, -3127.48, -3078.67, -3908.23, -3110.52, 0.000, 0.000, 0.000, 12:52:33.148
9, -3676.67, -3699.62, -4392.49, -3629.41, 0.000, 0.000, 0.000, 12:52:33.162
10, -3395.73, -3450.85, -4139.30, -3381.37, 0.000, 0.000, 0.000, 12:52:33.162
11, -2857.48, -2890.34, -3670.35, -2874.56, 0.000, 0.000, 0.000, 12:52:33.163
12, -3132.02, -3165.48, -3913.76, -3117.26, 0.000, 0.000, 0.000, 12:52:33.163
13, -3662.79, -3835.65, -4386.73, -3633.83, 0.000, 0.000, 0.000, 12:52:33.178
14, -3375.04, -3461.59, -4128.87, -3375.54, 0.000, 0.000, 0.000, 12:52:33.178
15, -2849.14, -2822.80, -3659.50, -2872.40, 0.000, 0.000, 0.000, 12:52:33.192
16, -3120.08, -3172.93, -3903.80, -3105.50, 0.000, 0.000, 0.000, 12:52:33.192
17, -3656.40, -3817.72, -4379.83, -3625.29, 0.000, 0.000, 0.000, 12:52:33.193
18, -3373.85, -3436.42, -4131.93, -3369.63, 0.000, 0.000, 0.000, 12:52:33.193
19, -2842.93, -2771.34, -3655.74, -2871.62, 0.000, 0.000, 0.000, 12:52:33.214
20, -3115.46, -3180.35, -3900.97, -3111.50, 0.000, 0.000, 0.000, 12:52:33.214
21, -3651.69, -3649.81, -4381.10, -3629.18, 0.000, 0.000, 0.000, 12:52:33.223
22, -3373.90, -3416.84, -4129.69, -3372.40, 0.000, 0.000, 0.000, 12:52:33.223
23, -2839.60, -2859.56, -3655.67, -2874.16, 0.000, 0.000, 0.000, 12:52:33.223
24, -3120.04, -3157.20, -3900.45, -3115.03, 0.000, 0.000, 0.000, 12:52:33.223
25, -3652.20, -3846.03, -4378.45, -3627.64, 0.000, 0.000, 0.000, 12:52:33.237
26, -3368.18, -3440.18, -4124.37, -3373.42, 0.000, 0.000, 0.000, 12:52:33.237
27, -2838.64, -2926.34, -3649.81, -2866.00, 0.000, 0.000, 0.000, 12:52:33.267
28, -3105.65, -3236.75, -3895.56, -3119.44, 0.000, 0.000, 0.000, 12:52:33.268
29, -3633.99, -3712.31, -4372.46, -3627.39, 0.000, 0.000, 0.000, 12:52:33.269
30, -3344.85, -3479.59, -4114.68, -3367.16, 0.000, 0.000, 0.000, 12:52:33.269
31, -2804.97, -2822.60, -3651.63, -2869.92, 0.000, 0.000, 0.000, 12:52:33.269
32, -3066.23, -3207.47, -3892.36, -3103.94, 0.000, 0.000, 0.000, 12:52:33.269
33, -3591.55, -3709.23, -4381.70, -3634.69, 0.000, 0.000, 0.000, 12:52:33.270
34, -3274.02, -3473.82, -4122.09, -3380.21, 0.000, 0.000, 0.000, 12:52:33.270
35, -2711.27, -2916.74, -3650.78, -2866.28, 0.000, 0.000, 0.000, 12:52:33.283
36, -2957.15, -3172.22, -3894.43, -3099.94, 0.000, 0.000, 0.000, 12:52:33.283
37, -3493.24, -3831.78, -4373.65, -3621.98, 0.000, 0.000, 0.000, 12:52:33.297
38, -3179.06, -3512.37, -4122.83, -3364.45, 0.000, 0.000, 0.000, 12:52:33.297
39, -2671.50, -2901.82, -3656.30, -2868.32, 0.000, 0.000, 0.000, 12:52:33.313
40, -2949.97, -3273.73, -3895.98, -3107.01, 0.000, 0.000, 0.000, 12:52:33.313
41, -3503.82, -3899.72, -4378.85, -3626.15, 0.000, 0.000, 0.000, 12:52:33.313
42, -3243.62, -3500.07, -4132.43, -3372.10, 0.000, 0.000, 0.000, 12:52:33.313
43, -2732.86, -2932.87, -3649.84, -2869.04, 0.000, 0.000, 0.000, 12:52:33.328
44, -3020.76, -3239.17, -3902.31, -3115.16, 0.000, 0.000, 0.000, 12:52:33.328
45, -3578.28, -3722.57, -4385.57, -3632.92, 0.000, 0.000, 0.000, 12:52:33.342
46, -3322.62, -3424.98, -4142.94, -3377.32, 0.000, 0.000, 0.000, 12:52:33.342
47, -2786.50, -2891.45, -3653.57, -2875.58, 0.000, 0.000, 0.000, 12:52:33.358
48, -3071.30, -3228.11, -3895.21, -3121.16, 0.000, 0.000, 0.000, 12:52:33.358
49, -3626.29, -3765.43, -4377.29, -3637.27, 0.000, 0.000, 0.000, 12:52:33.358
50, -3367.79, -3337.75, -4137.06, -3385.98, 0.000, 0.000, 0.000, 12:52:33.358
51, -2838.63, -2785.36, -3651.93, -2880.12, 0.000, 0.000, 0.000, 12:52:33.372
52, -3127.74, -3121.75, -3904.15, -3128.79, 0.000, 0.000, 0.000, 12:52:33.372
53, -3675.83, -3746.92, -4380.26, -3639.43, 0.000, 0.000, 0.000, 12:52:33.373
54, -3398.62, -3465.30, -4129.06, -3396.21, 0.000, 0.000, 0.000, 12:52:33.373
55, -2883.01, -2788.71, -3669.31, -2892.02, 0.000, 0.000, 0.000, 12:52:33.402
56, -3161.19, -3206.16, -3908.59, -3123.59, 0.000, 0.000, 0.000, 12:52:33.402
57, -3706.77, -3762.42, -4390.67, -3645.00, 0.000, 0.000, 0.000, 12:52:33.417
58, -3421.75, -3464.77, -4138.93, -3390.77, 0.000, 0.000, 0.000, 12:52:33.417
59, -2895.97, -2804.95, -3665.72, -2879.61, 0.000, 0.000, 0.000, 12:52:33.418
60, -3179.67, -3134.71, -3901.94, -3127.76, 0.000, 0.000, 0.000, 12:52:33.418
61, -3734.16, -3830.95, -4387.27, -3646.90, 0.000, 0.000, 0.000, 12:52:33.418
62, -3439.66, -3457.27, -4133.40, -3389.29, 0.000, 0.000, 0.000, 12:52:33.419
63, -2900.24, -2832.42, -3658.27, -2888.70, 0.000, 0.000, 0.000, 12:52:33.419
64, -3176.02, -3174.84, -3900.18, -3126.95, 0.000, 0.000, 0.000, 12:52:33.419
65, -3703.47, -3753.09, -4374.18, -3639.87, 0.000, 0.000, 0.000, 12:52:33.433
66, -3421.27, -3467.21, -4128.96, -3389.48, 0.000, 0.000, 0.000, 12:52:33.433
67, -2883.92, -2805.18, -3651.43, -2879.09, 0.000, 0.000, 0.000, 12:52:33.448
68, -3164.79, -3112.59, -3890.14, -3120.74, 0.000, 0.000, 0.000, 12:52:33.448
69, -3703.28, -3771.28, -4371.15, -3635.54, 0.000, 0.000, 0.000, 12:52:33.462
70, -3411.82, -3398.47, -4124.72, -3384.81, 0.000, 0.000, 0.000, 12:52:33.463
71, -2880.79, -2727.18, -3646.40, -2886.37, 0.000, 0.000, 0.000, 12:52:33.463
72, -3157.11, -3085.12, -3892.60, -3114.75, 0.000, 0.000, 0.000, 12:52:33.463
73, -3695.15, -3672.20, -4365.85, -3636.39, 0.000, 0.000, 0.000, 12:52:33.477
74, -3407.38, -3470.05, -4114.69, -3381.67, 0.000, 0.000, 0.000, 12:52:33.477
75, -2874.33, -2831.12, -3646.61, -2878.58, 0.000, 0.000, 0.000, 12:52:33.492
76, -3147.29, -3041.57, -3885.11, -3113.63, 0.000, 0.000, 0.000, 12:52:33.492
77, -3690.87, -3761.42, -4372.67, -3637.48, 0.000, 0.000, 0.000, 12:52:33.493
78, -3407.31, -3445.78, -4125.89, -3389.25, 0.000, 0.000, 0.000, 12:52:33.493
79, -2879.99, -2850.09, -3650.37, -2886.99, 0.000, 0.000, 0.000, 12:52:33.508
80, -3153.73, -3139.03, -3892.05, -3115.21, 0.000, 0.000, 0.000, 12:52:33.508
81, -3695.19, -3820.00, -4380.12, -3632.48, 0.000, 0.000, 0.000, 12:52:33.523
82, -3412.54, -3358.71, -4133.32, -3378.55, 0.000, 0.000, 0.000, 12:52:33.523
83, -2879.79, -2836.99, -3656.49, -2876.74, 0.000, 0.000, 0.000, 12:52:33.523
84, -3151.74, -3173.35, -3895.62, -3118.75, 0.000, 0.000, 0.000, 12:52:33.524
85, -3685.27, -3683.08, -4363.27, -3641.84, 0.000, 0.000, 0.000, 12:52:33.538
86, -3406.28, -3464.60, -4123.08, -3391.13, 0.000, 0.000, 0.000, 12:52:33.538
87, -2868.60, -2779.35, -3651.20, -2881.99, 0.000, 0.000, 0.000, 12:52:33.553
88, -3140.79, -3109.12, -3892.70, -3113.79, 0.000, 0.000, 0.000, 12:52:33.553
89, -3681.59, -3731.39, -4376.30, -3635.92, 0.000, 0.000, 0.000, 12:52:33.553
90, -3400.87, -3447.31, -4133.73, -3389.10, 0.000, 0.000, 0.000, 12:52:33.553
91, -2874.38, -2902.07, -3657.81, -2879.35, 0.000, 0.000, 0.000, 12:52:33.567
92, -3137.70, -3108.45, -3891.62, -3115.41, 0.000, 0.000, 0.000, 12:52:33.567
93, -3676.34, -3756.74, -4379.94, -3640.84, 0.000, 0.000, 0.000, 12:52:33.582
94, -3396.87, -3377.60, -4130.32, -3386.07, 0.000, 0.000, 0.000, 12:52:33.582
95, -2859.81, -2887.00, -3653.18, -2873.18, 0.000, 0.000, 0.000, 12:52:33.583
96, -3140.41, -3186.10, -3898.65, -3114.38, 0.000, 0.000, 0.000, 12:52:33.583
97, -3683.17, -3672.55, -4376.24, -3641.57, 0.000, 0.000, 0.000, 12:52:33.597
98, -3404.47, -3483.92, -4137.15, -3392.35, 0.000, 0.000, 0.000, 12:52:33.597
99, -2864.45, -2881.79, -3654.97, -2873.40, 0.000, 0.000, 0.000, 12:52:33.612
100, -3136.53, -3185.22, -3895.06, -3103.33, 0.000, 0.000, 0.000, 12:52:33.612
101, -3696.19, -3762.82, -4390.58, -3630.04, 0.000, 0.000, 0.000, 12:52:33.613
102, -3397.81, -3494.81, -4133.55, -3376.56, 0.000, 0.000, 0.000, 12:52:33.613
103, -2861.01, -2807.29, -3661.71, -2870.12, 0.000, 0.000, 0.000, 12:52:33.657
104, -3140.61, -3117.52, -3904.75, -3103.06, 0.000, 0.000, 0.000, 12:52:33.657
105, -3680.03, -3667.54, -4382.98, -3626.67, 0.000, 0.000, 0.000, 12:52:33.658
106, -3393.76, -3409.10, -4127.63, -3381.02, 0.000, 0.000, 0.000, 12:52:33.658
107, -2861.00, -2792.11, -3657.89, -2872.21, 0.000, 0.000, 0.000, 12:52:33.658
108, -3133.47, -3200.31, -3894.20, -3106.41, 0.000, 0.000, 0.000, 12:52:33.658
109, -3680.23, -3738.82, -4372.50, -3631.35, 0.000, 0.000, 0.000, 12:52:33.659
110, -3390.02, -3373.65, -4125.98, -3382.18, 0.000, 0.000, 0.000, 12:52:33.659
111, -2866.97, -2850.29, -3662.75, -2889.04, 0.000, 0.000, 0.000, 12:52:33.659
112, -3125.41, -3158.42, -3897.75, -3106.75, 0.000, 0.000, 0.000, 12:52:33.660
113, -3668.99, -3712.11, -4377.60, -3633.68, 0.000, 0.000, 0.000, 12:52:33.673
114, -3382.10, -3457.42, -4132.44, -3382.78, 0.000, 0.000, 0.000, 12:52:33.673
115, -2853.25, -2813.51, -3656.01, -2876.62, 0.000, 0.000, 0.000, 12:52:33.688
116, -3123.19, -3115.10, -3890.62, -3117.58, 0.000, 0.000, 0.000, 12:52:33.688
117, -3671.06, -3750.51, -4373.85, -3631.18, 0.000, 0.000, 0.000, 12:52:33.703
118, -3376.75, -3423.94, -4125.34, -3377.86, 0.000, 0.000, 0.000, 12:52:33.703
119, -2849.50, -2893.75, -3654.14, -2878.92, 0.000, 0.000, 0.000, 12:52:33.703
120, -3125.91, -3136.06, -3891.90, -3114.27, 0.000, 0.000, 0.000, 12:52:33.704
121, -3658.62, -3782.42, -4375.04, -3629.36, 0.000, 0.000, 0.000, 12:52:33.732
122, -3381.55, -3455.59, -4123.56, -3377.63, 0.000, 0.000, 0.000, 12:52:33.733
123, -2852.89, -2843.90, -3658.36, -2875.38, 0.000, 0.000, 0.000, 12:52:33.733
124, -3122.63, -3170.90, -3896.38, -3107.62, 0.000, 0.000, 0.000, 12:52:33.733
125, -3661.75, -3686.33, -4375.59, -3634.14, 0.000, 0.000, 0.000, 12:52:33.734
126, -3374.44, -3456.00, -4133.08, -3379.38, 0.000, 0.000, 0.000, 12:52:33.734
127, -2853.53, -2813.01, -3658.27, -2875.41, 0.000, 0.000, 0.000, 12:52:33.748
128, -3121.32, -3218.42, -3898.31, -3117.70, 0.000, 0.000, 0.000, 12:52:33.748
129, -3665.80, -3811.41, -4380.13, -3638.75, 0.000, 0.000, 0.000, 12:52:33.763
130, -3376.68, -3355.15, -4125.33, -3383.81, 0.000, 0.000, 0.000, 12:52:33.763
131, -2846.32, -2910.79, -3652.81, -2877.72, 0.000, 0.000, 0.000, 12:52:33.763
132, -3122.97, -3137.79, -3888.15, -3110.57, 0.000, 0.000, 0.000, 12:52:33.763
133, -3661.32, -3803.87, -4379.25, -3627.56, 0.000, 0.000, 0.000, 12:52:33.777
134, -3370.70, -3486.71, -4131.49, -3370.62, 0.000, 0.000, 0.000, 12:52:33.778
135, -2846.25, -2922.57, -3661.92, -2870.24, 0.000, 0.000, 0.000, 12:52:33.793
136, -3119.47, -3176.94, -3899.07, -3107.97, 0.000, 0.000, 0.000, 12:52:33.793
137, -3669.38, -3722.99, -4383.93, -3634.24, 0.000, 0.000, 0.000, 12:52:33.793
138, -3369.91, -3330.14, -4129.50, -3382.28, 0.000, 0.000, 0.000, 12:52:33.793
139, -2836.56, -2795.23, -3648.21, -2878.90, 0.000, 0.000, 0.000, 12:52:33.808
140, -3110.57, -3180.40, -3887.54, -3105.07, 0.000, 0.000, 0.000, 12:52:33.808
141, -3663.42, -3726.84, -4382.16, -3633.25, 0.000, 0.000, 0.000, 12:52:33.822
142, -3373.96, -3363.74, -4129.88, -3377.73, 0.000, 0.000, 0.000, 12:52:33.822
143, -2845.55, -2771.92, -3650.75, -2876.00, 0.000, 0.000, 0.000, 12:52:33.823
144, -3108.24, -3170.28, -3888.80, -3107.58, 0.000, 0.000, 0.000, 12:52:33.823
145, -3654.35, -3812.54, -4378.58, -3632.88, 0.000, 0.000, 0.000, 12:52:33.838
146, -3378.14, -3376.68, -4128.29, -3380.88, 0.000, 0.000, 0.000, 12:52:33.838
147, -2836.74, -2866.76, -3649.21, -2875.74, 0.000, 0.000, 0.000, 12:52:33.853
148, -3110.20, -3102.76, -3895.37, -3104.40, 0.000, 0.000, 0.000, 12:52:33.853
149, -3653.49, -3823.94, -4375.53, -3632.10, 0.000, 0.000, 0.000, 12:52:33.854
150, -3369.45, -3434.46, -4128.37, -3380.10, 0.000, 0.000, 0.000, 12:52:33.854
151, -2842.74, -2923.74, -3652.89, -2876.36, 0.000, 0.000, 0.000, 12:52:33.868
152, -3110.99, -3078.07, -3892.91, -3110.33, 0.000, 0.000, 0.000, 12:52:33.868
153, -3658.09, -3840.37, -4381.87, -3627.69, 0.000, 0.000, 0.000, 12:52:33.898
154, -3380.61, -3520.32, -4131.39, -3387.58, 0.000, 0.000, 0.000, 12:52:33.898
155, -2848.78, -2793.48, -3652.05, -2879.56, 0.000, 0.000, 0.000, 12:52:33.898
156, -3116.03, -3105.10, -3895.60, -3115.43, 0.000, 0.000, 0.000, 12:52:33.898
157, -3663.02, -3833.72, -4381.03, -3633.25, 0.000, 0.000, 0.000, 12:52:33.899
158, -3381.38, -3501.15, -4126.67, -3381.51, 0.000, 0.000, 0.000, 12:52:33.899
159, -2841.64, -2848.52, -3653.87, -2880.83, 0.000, 0.000, 0.000, 12:52:33.900
160, -3115.18, -3213.18, -3894.94, -3114.88, 0.000, 0.000, 0.000, 12:52:33.900
161, -3656.73, -3706.46, -4375.94, -3634.25, 0.000, 0.000, 0.000, 12:52:33.913
162, -3379.51, -3503.96, -4130.98, -3378.81, 0.000, 0.000, 0.000, 12:52:33.913
163, -2846.08, -2830.96, -3655.59, -2881.03, 0.000, 0.000, 0.000, 12:52:33.927
164, -3116.69, -3098.68, -3898.48, -3114.90, 0.000, 0.000, 0.000, 12:52:33.927
165, -3667.89, -3840.04, -4384.09, -3633.22, 0.000, 0.000, 0.000, 12:52:33.942
166, -3381.95, -3408.31, -4129.04, -3393.96, 0.000, 0.000, 0.000, 12:52:33.942
167, -2842.37, -2905.07, -3654.81, -2885.34, 0.000, 0.000, 0.000, 12:52:33.943
168, -3119.84, -3219.73, -3902.31, -3113.76, 0.000, 0.000, 0.000, 12:52:33.943
169, -3665.19, -3723.19, -4385.19, -3631.85, 0.000, 0.000, 0.000, 12:52:33.958
170, -3378.44, -3343.93, -4131.22, -3381.20, 0.000, 0.000, 0.000, 12:52:33.958
171, -2843.76, -2835.65, -3662.46, -2879.55, 0.000, 0.000, 0.000, 12:52:33.988
172, -3115.30, -3171.83, -3894.55, -3108.26, 0.000, 0.000, 0.000, 12:52:33.988
173, -3662.47, -3757.83, -4377.08, -3632.63, 0.000, 0.000, 0.000, 12:52:33.988
174, -3377.75, -3440.71, -4127.06, -3384.88, 0.000, 0.000, 0.000, 12:52:33.988
175, -2842.09, -2889.15, -3656.64, -2882.64, 0.000, 0.000, 0.000, 12:52:33.989
176, -3120.24, -3111.62, -3894.66, -3111.23, 0.000, 0.000, 0.000, 12:52:33.989
177, -3652.18, -3774.00, -4374.27, -3636.92, 0.000, 0.000, 0.000, 12:52:33.989
178, -3378.06, -3398.26, -4129.93, -3385.61, 0.000, 0.000, 0.000, 12:52:33.990
179, -2850.13, -2801.16, -3652.53, -2880.94, 0.000, 0.000, 0.000, 12:52:34.003
180, -3119.88, -3176.98, -3895.55, -3116.13, 0.000, 0.000, 0.000, 12:52:34.003
181, -3656.18, -3747.52, -4375.93, -3634.53, 0.000, 0.000, 0.000, 12:52:34.018
182, -3376.17, -3487.32, -4126.71, -3383.73, 0.000, 0.000, 0.000, 12:52:34.018
183, -2841.86, -2863.57, -3662.20, -2881.75, 0.000, 0.000, 0.000, 12:52:34.032
184, -3117.31, -3174.55, -3893.03, -3109.54, 0.000, 0.000, 0.000, 12:52:34.032
185, -3657.63, -3714.46, -4372.03, -3636.62, 0.000, 0.000, 0.000, 12:52:34.033
186, -3371.10, -3411.56, -4132.02, -3380.91, 0.000, 0.000, 0.000, 12:52:34.033
187, -2844.40, -2891.65, -3659.57, -2878.55, 0.000, 0.000, 0.000, 12:52:34.047
188, -3112.88, -3204.84, -3893.09, -3114.15, 0.000, 0.000, 0.000, 12:52:34.047
189, -3659.47, -3735.36, -4369.50, -3629.29, 0.000, 0.000, 0.000, 12:52:34.062
190, -3371.14, -3438.74, -4129.80, -3381.86, 0.000, 0.000, 0.000, 12:52:34.062
191, -2844.70, -2885.34, -3658.34, -2878.37, 0.000, 0.000, 0.000, 12:52:34.063
192, -3114.47, -3137.29, -3892.78, -3109.91, 0.000, 0.000, 0.000, 12:52:34.063
193, -3666.41, -3662.37, -4377.49, -3647.00, 0.000, 0.000, 0.000, 12:52:34.078
194, -3384.11, -3342.78, -4133.79, -3381.64, 0.000, 0.000, 0.000, 12:52:34.078
195, -2846.86, -2808.13, -3657.83, -2875.12, 0.000, 0.000, 0.000, 12:52:34.093
196, -3116.16, -3232.96, -3896.20, -3108.56, 0.000, 0.000, 0.000, 12:52:34.093
197, -3663.36, -3789.34, -4377.18, -3630.81, 0.000, 0.000, 0.000, 12:52:34.093
198, -3390.75, -3520.22, -4127.94, -3383.34, 0.000, 0.000, 0.000, 12:52:34.093
199, -2854.88, -2900.42, -3664.05, -2876.45, 0.000, 0.000, 0.000, 12:52:34.108
200, -3119.34, -3153.60, -3894.49, -3106.66, 0.000, 0.000, 0.000, 12:52:34.108
0, -3659.28, -3698.95, -4377.99, -3625.39, 0.000, 0.000, 0.000, 12:52:34.108
1, -3369.39, -3346.06, -4134.05, -3384.10, 0.000, 0.000, 0.000, 12:52:34.122
2, -2840.90, -2802.24, -3659.36, -2877.78, 0.000, 0.000, 0.000, 12:52:34.122
3, -3113.10, -3155.52, -3892.66, -3118.97, 0.000, 0.000, 0.000, 12:52:34.138
4, -3650.84, -3764.56, -4370.16, -3637.24, 0.000, 0.000, 0.000, 12:52:34.138
5, -3375.28, -3432.81, -4128.35, -3388.06, 0.000, 0.000, 0.000, 12:52:34.138
6, -2854.05, -2857.30, -3661.21, -2871.61, 0.000, 0.000, 0.000, 12:52:34.138
7, -3129.91, -3112.84, -3895.42, -3113.53, 0.000, 0.000, 0.000, 12:52:34.153
8, -3660.89, -3802.44, -4381.29, -3627.21, 0.000, 0.000, 0.000, 12:52:34.153
9, -3381.40, -3483.45, -4127.39, -3378.98, 0.000, 0.000, 0.000, 12:52:34.168
10, -2844.41, -2929.97, -3653.22, -2875.48, 0.000, 0.000, 0.000, 12:52:34.168
11, -3113.37, -3217.94, -3890.49, -3111.42, 0.000, 0.000, 0.000, 12:52:34.168
12, -3649.25, -3821.02, -4370.24, -3625.71, 0.000, 0.000, 0.000, 12:52:34.168
13, -3384.42, -3518.75, -4137.65, -3382.61, 0.000, 0.000, 0.000, 12:52:34.197
14, -2860.24, -2826.71, -3664.52, -2884.88, 0.000, 0.000, 0.000, 12:52:34.197
15, -3104.84, -3140.84, -3882.34, -3107.99, 0.000, 0.000, 0.000, 12:52:34.198
16, -3644.81, -3719.12, -4368.22, -3636.24, 0.000, 0.000, 0.000, 12:52:34.198
17, -3357.15, -3346.66, -4115.77, -3389.50, 0.000, 0.000, 0.000, 12:52:34.199
18, -2816.60, -2755.53, -3631.13, -2884.81, 0.000, 0.000, 0.000, 12:52:34.199
19, -3095.26, -3066.28, -3882.72, -3111.63, 0.000, 0.000, 0.000, 12:52:34.212
20, -3655.09, -3702.55, -4363.91, -3628.69, 0.000, 0.000, 0.000, 12:52:34.213
21, -3376.95, -3513.71, -4117.63, -3385.65, 0.000, 0.000, 0.000, 12:52:34.227
22, -2842.22, -2928.19, -3643.20, -2885.74, 0.000, 0.000, 0.000, 12:52:34.227
23, -3112.96, -3073.73, -3889.19, -3116.63, 0.000, 0.000, 0.000, 12:52:34.228
24, -3668.40, -3789.27, -4371.06, -3648.41, 0.000, 0.000, 0.000, 12:52:34.228
25, -3377.41, -3431.91, -4119.59, -3387.24, 0.000, 0.000, 0.000, 12:52:34.242
26, -2837.26, -2786.58, -3644.54, -2882.08, 0.000, 0.000, 0.000, 12:52:34.242
27, -3115.89, -3080.68, -3881.14, -3111.52, 0.000, 0.000, 0.000, 12:52:34.258
28, -3655.63, -3856.49, -4367.58, -3634.86, 0.000, 0.000, 0.000, 12:52:34.258
29, -3389.26, -3550.86, -4122.04, -3392.57, 0.000, 0.000, 0.000, 12:52:34.258
30, -2850.48, -2894.60, -3639.90, -2886.12, 0.000, 0.000, 0.000, 12:52:34.258
31, -3128.85, -3207.14, -3882.40, -3120.82, 0.000, 0.000, 0.000, 12:52:34.288
32, -3669.71, -3709.59, -4372.69, -3639.39, 0.000, 0.000, 0.000, 12:52:34.288
33, -3385.58, -3512.13, -4121.03, -3391.05, 0.000, 0.000, 0.000, 12:52:34.288
34, -2851.25, -2813.23, -3644.38, -2885.70, 0.000, 0.000, 0.000, 12:52:34.288
35, -3119.08, -3087.73, -3884.21, -3119.48, 0.000, 0.000, 0.000, 12:52:34.289
36, -3652.47, -3750.37, -4370.97, -3640.95, 0.000, 0.000, 0.000, 12:52:34.289
37, -3373.42, -3490.82, -4120.64, -3380.48, 0.000, 0.000, 0.000, 12:52:34.303
38, -2846.67, -2847.12, -3647.42, -2882.42, 0.000, 0.000, 0.000, 12:52:34.303
39, -3107.65, -3054.77, -3877.96, -3106.22, 0.000, 0.000, 0.000, 12:52:34.318
40, -3646.26, -3697.76, -4364.33, -3634.73, 0.000, 0.000, 0.000, 12:52:34.318
41, -3371.47, -3522.25, -4118.62, -3379.02, 0.000, 0.000, 0.000, 12:52:34.318
42, -2839.71, -2845.53, -3641.51, -2879.94, 0.000, 0.000, 0.000, 12:52:34.318
43, -3115.12, -3092.55, -3883.49, -3106.57, 0.000, 0.000, 0.000, 12:52:34.332
44, -3655.35, -3684.73, -4370.77, -3629.13, 0.000, 0.000, 0.000, 12:52:34.332
45, -3370.53, -3416.17, -4116.11, -3369.39, 0.000, 0.000, 0.000, 12:52:34.348
46, -2837.68, -2867.45, -3643.86, -2871.50, 0.000, 0.000, 0.000, 12:52:34.348
47, -3109.97, -3100.43, -3878.14, -3108.32, 0.000, 0.000, 0.000, 12:52:34.349
48, -3644.98, -3755.31, -4363.48, -3627.92, 0.000, 0.000, 0.000, 12:52:34.349
49, -3371.49, -3435.59, -4116.24, -3380.07, 0.000, 0.000, 0.000, 12:52:34.378
50, -2837.28, -2868.00, -3645.67, -2884.84, 0.000, 0.000, 0.000, 12:52:34.378
51, -3116.54, -3145.29, -3888.17, -3119.11, 0.000, 0.000, 0.000, 12:52:34.378
52, -3659.31, -3800.98, -4371.94, -3630.37, 0.000, 0.000, 0.000, 12:52:34.379
53, -3377.87, -3511.95, -4121.13, -3385.26, 0.000, 0.000, 0.000, 12:52:34.379
54, -2837.60, -2874.38, -3648.00, -2879.85, 0.000, 0.000, 0.000, 12:52:34.379
55, -3111.99, -3101.36, -3887.65, -3100.98, 0.000, 0.000, 0.000, 12:52:34.392
56, -3659.80, -3749.10, -4368.90, -3630.10, 0.000, 0.000, 0.000, 12:52:34.392
57, -3379.44, -3448.04, -4121.92, -3380.10, 0.000, 0.000, 0.000, 12:52:34.407
58, -2853.55, -2844.90, -3651.89, -2884.22, 0.000, 0.000, 0.000, 12:52:34.407
59, -3116.01, -3227.82, -3888.03, -3112.65, 0.000, 0.000, 0.000, 12:52:34.407
60, -3666.15, -3746.08, -4371.52, -3633.53, 0.000, 0.000, 0.000, 12:52:34.407
61, -3372.34, -3433.50, -4122.93, -3371.35, 0.000, 0.000, 0.000, 12:52:34.423
62, -2848.46, -2831.47, -3654.47, -2872.37, 0.000, 0.000, 0.000, 12:52:34.423
63, -3109.23, -3236.59, -3887.80, -3107.92, 0.000, 0.000, 0.000, 12:52:34.438
64, -3657.78, -3732.24, -4370.33, -3628.80, 0.000, 0.000, 0.000, 12:52:34.438
65, -3371.72, -3416.62, -4129.13, -3384.63, 0.000, 0.000, 0.000, 12:52:34.438
66, -2837.17, -2808.63, -3650.96, -2883.48, 0.000, 0.000, 0.000, 12:52:34.438
67, -3116.74, -3120.46, -3896.37, -3113.68, 0.000, 0.000, 0.000, 12:52:34.453
68, -3660.22, -3818.20, -4368.11, -3638.68, 0.000, 0.000, 0.000, 12:52:34.453
69, -3382.34, -3456.19, -4123.64, -3389.10, 0.000, 0.000, 0.000, 12:52:34.467
70, -2843.21, -2873.75, -3655.40, -2885.61, 0.000, 0.000, 0.000, 12:52:34.467
71, -3114.99, -3189.12, -3894.91, -3116.04, 0.000, 0.000, 0.000, 12:52:34.468
72, -3653.67, -3834.99, -4374.23, -3633.44, 0.000, 0.000, 0.000, 12:52:34.468
73, -3375.59, -3454.53, -4136.12, -3386.90, 0.000, 0.000, 0.000, 12:52:34.483
74, -2844.11, -2879.57, -3650.47, -2885.06, 0.000, 0.000, 0.000, 12:52:34.483
75, -3111.64, -3161.95, -3890.01, -3111.20, 0.000, 0.000, 0.000, 12:52:34.498
76, -3665.48, -3708.38, -4373.94, -3636.24, 0.000, 0.000, 0.000, 12:52:34.498
77, -3377.55, -3372.84, -4125.03, -3380.46, 0.000, 0.000, 0.000, 12:52:34.498
78, -2849.65, -2920.90, -3653.22, -2884.01, 0.000, 0.000, 0.000, 12:52:34.498
79, -3126.93, -3221.69, -3891.33, -3113.70, 0.000, 0.000, 0.000, 12:52:34.513
80, -3670.16, -3741.44, -4380.03, -3639.44, 0.000, 0.000, 0.000, 12:52:34.513
81, -3386.99, -3355.95, -4138.58, -3397.57, 0.000, 0.000, 0.000, 12:52:34.527
82, -2864.29, -2902.16, -3664.43, -2890.61, 0.000, 0.000, 0.000, 12:52:34.528
83, -3112.05, -3220.01, -3891.20, -3091.71, 0.000, 0.000, 0.000, 12:52:34.528
84, -3669.71, -3786.58, -4387.93, -3625.23, 0.000, 0.000, 0.000, 12:52:34.528
85, -3403.70, -3530.32, -4156.82, -3378.13, 0.000, 0.000, 0.000, 12:52:34.549
86, -2863.34, -2914.11, -3677.71, -2873.66, 0.000, 0.000, 0.000, 12:52:34.551
87, -3127.89, -3207.30, -3906.95, -3106.03, 0.000, 0.000, 0.000, 12:52:34.558
88, -3662.97, -3719.95, -4381.71, -3626.66, 0.000, 0.000, 0.000, 12:52:34.558
89, -3372.30, -3322.17, -4137.21, -3376.74, 0.000, 0.000, 0.000, 12:52:34.558
90, -2849.21, -2810.60, -3656.39, -2868.93, 0.000, 0.000, 0.000, 12:52:34.558
91, -3118.34, -3101.99, -3899.76, -3103.33, 0.000, 0.000, 0.000, 12:52:34.572
92, -3663.04, -3799.79, -4382.88, -3627.75, 0.000, 0.000, 0.000, 12:52:34.572
93, -3383.96, -3438.53, -4135.21, -3374.32, 0.000, 0.000, 0.000, 12:52:34.588
94, -2845.01, -2795.84, -3660.10, -2883.78, 0.000, 0.000, 0.000, 12:52:34.588
95, -3117.91, -3205.68, -3899.98, -3108.25, 0.000, 0.000, 0.000, 12:52:34.588
96, -3664.50, -3727.52, -4377.39, -3634.29, 0.000, 0.000, 0.000, 12:52:34.588
97, -3381.43, -3456.54, -4133.04, -3377.73, 0.000, 0.000, 0.000, 12:52:34.603
98, -2846.34, -2786.02, -3655.43, -2879.41, 0.000, 0.000, 0.000, 12:52:34.603
99, -3119.48, -3169.13, -3897.39, -3114.74, 0.000, 0.000, 0.000, 12:52:34.617
100, -3659.90, -3699.90, -4381.62, -3637.79, 0.000, 0.000, 0.000, 12:52:34.617
101, -3373.94, -3471.27, -4131.61, -3387.18, 0.000, 0.000, 0.000, 12:52:34.618
102, -2852.16, -2835.61, -3662.62, -2876.29, 0.000, 0.000, 0.000, 12:52:34.618
103, -3121.59, -3222.21, -3908.49, -3103.96, 0.000, 0.000, 0.000, 12:52:34.632
104, -3663.54, -3725.56, -4389.05, -3632.60, 0.000, 0.000, 0.000, 12:52:34.632
105, -3383.84, -3515.08, -4138.38, -3377.89, 0.000, 0.000, 0.000, 12:52:34.647
106, -2844.89, -2831.03, -3656.05, -2877.59, 0.000, 0.000, 0.000, 12:52:34.647
107, -3116.45, -3061.44, -3889.94, -3105.66, 0.000, 0.000, 0.000, 12:52:34.648
108, -3659.87, -3705.70, -4375.66, -3632.30, 0.000, 0.000, 0.000, 12:52:34.648
109, -3382.30, -3523.66, -4130.74, -3378.66, 0.000, 0.000, 0.000, 12:52:34.663
110, -2841.05, -2920.24, -3654.04, -2875.92, 0.000, 0.000, 0.000, 12:52:34.663
111, -3111.96, -3108.25, -3889.58, -3103.90, 0.000, 0.000, 0.000, 12:52:34.677
112, -3651.11, -3697.47, -4377.82, -3622.62, 0.000, 0.000, 0.000, 12:52:34.677
113, -3380.70, -3490.73, -4132.52, -3380.06, 0.000, 0.000, 0.000, 12:52:34.678
114, -2854.67, -2827.37, -3657.10, -2883.91, 0.000, 0.000, 0.000, 12:52:34.678
115, -3116.76, -3203.97, -3895.71, -3106.88, 0.000, 0.000, 0.000, 12:52:34.693
116, -3663.71, -3768.77, -4376.10, -3627.24, 0.000, 0.000, 0.000, 12:52:34.693
117, -3378.06, -3350.81, -4131.86, -3381.07, 0.000, 0.000, 0.000, 12:52:34.708
118, -2843.88, -2877.33, -3657.78, -2875.31, 0.000, 0.000, 0.000, 12:52:34.708
119, -3107.11, -3149.87, -3894.94, -3102.34, 0.000, 0.000, 0.000, 12:52:34.709
120, -3666.92, -3711.53, -4395.16, -3627.91, 0.000, 0.000, 0.000, 12:52:34.709
121, -3384.79, -3465.25, -4135.92, -3381.66, 0.000, 0.000, 0.000, 12:52:34.722
122, -2843.60, -2888.90, -3657.84, -2876.05, 0.000, 0.000, 0.000, 12:52:34.722
123, -3116.39, -3174.42, -3892.01, -3112.40, 0.000, 0.000, 0.000, 12:52:34.738
124, -3663.19, -3791.60, -4379.65, -3632.40, 0.000, 0.000, 0.000, 12:52:34.738
125, -3378.83, -3428.64, -4135.94, -3374.97, 0.000, 0.000, 0.000, 12:52:34.739
126, -2846.48, -2803.96, -3657.41, -2883.11, 0.000, 0.000, 0.000, 12:52:34.739
127, -3104.97, -3224.49, -3888.16, -3105.63, 0.000, 0.000, 0.000, 12:52:34.752
128, -3644.98, -3771.62, -4371.42, -3629.49, 0.000, 0.000, 0.000, 12:52:34.753
129, -3368.93, -3480.43, -4125.47, -3377.66, 0.000, 0.000, 0.000, 12:52:34.767
130, -2834.64, -2871.21, -3651.90, -2876.16, 0.000, 0.000, 0.000, 12:52:34.767
131, -3104.78, -3107.93, -3883.99, -3110.28, 0.000, 0.000, 0.000, 12:52:34.769
132, -3651.16, -3711.80, -4378.70, -3633.44, 0.000, 0.000, 0.000, 12:52:34.769
133, -3377.84, -3382.88, -4135.11, -3391.15, 0.000, 0.000, 0.000, 12:52:34.783
134, -2844.28, -2857.54, -3670.81, -2885.25, 0.000, 0.000, 0.000, 12:52:34.783
135, -3114.76, -3119.28, -3899.65, -3123.49, 0.000, 0.000, 0.000, 12:52:34.797
136, -3658.04, -3762.88, -4385.45, -3637.51, 0.000, 0.000, 0.000, 12:52:34.798
137, -3382.72, -3452.94, -4138.42, -3390.52, 0.000, 0.000, 0.000, 12:52:34.798
138, -2845.18, -2865.49, -3672.34, -2882.13, 0.000, 0.000, 0.000, 12:52:34.798
139, -3110.51, -3156.96, -3897.00, -3104.86, 0.000, 0.000, 0.000, 12:52:34.812
140, -3657.93, -3710.57, -4385.27, -3631.24, 0.000, 0.000, 0.000, 12:52:34.812
141, -3375.15, -3434.41, -4139.51, -3384.81, 0.000, 0.000, 0.000, 12:52:34.827
142, -2842.66, -2809.75, -3659.40, -2878.04, 0.000, 0.000, 0.000, 12:52:34.827
143, -3109.08, -3171.23, -3894.61, -3107.61, 0.000, 0.000, 0.000, 12:52:34.828
144, -3654.62, -3679.27, -4372.67, -3628.75, 0.000, 0.000, 0.000, 12:52:34.828
145, -3371.19, -3376.39, -4129.47, -3380.11, 0.000, 0.000, 0.000, 12:52:34.842
146, -2831.49, -2858.12, -3656.52, -2882.72, 0.000, 0.000, 0.000, 12:52:34.842
147, -3096.28, -3192.41, -3891.53, -3105.62, 0.000, 0.000, 0.000, 12:52:34.858
148, -3656.66, -3852.38, -4383.02, -3643.62, 0.000, 0.000, 0.000, 12:52:34.858
149, -3365.85, -3551.43, -4135.15, -3377.03, 0.000, 0.000, 0.000, 12:52:34.858
150, -2828.92, -2908.63, -3657.87, -2876.78, 0.000, 0.000, 0.000, 12:52:34.858
151, -3086.51, -3225.28, -3902.13, -3104.00, 0.000, 0.000, 0.000, 12:52:34.873
152, -3625.49, -3794.87, -4383.37, -3625.76, 0.000, 0.000, 0.000, 12:52:34.873
153, -3332.11, -3465.65, -4137.90, -3371.98, 0.000, 0.000, 0.000, 12:52:34.888
154, -2796.54, -2854.94, -3650.54, -2869.91, 0.000, 0.000, 0.000, 12:52:34.888
155, -3042.57, -3145.63, -3888.45, -3096.80, 0.000, 0.000, 0.000, 12:52:34.888
156, -3585.97, -3789.15, -4372.57, -3622.27, 0.000, 0.000, 0.000, 12:52:34.889
157, -3286.55, -3474.49, -4124.76, -3377.84, 0.000, 0.000, 0.000, 12:52:34.903
158, -2748.54, -2885.53, -3655.20, -2868.20, 0.000, 0.000, 0.000, 12:52:34.903
159, -2998.49, -3131.12, -3882.71, -3098.33, 0.000, 0.000, 0.000, 12:52:34.918
160, -3543.79, -3756.84, -4381.51, -3620.91, 0.000, 0.000, 0.000, 12:52:34.918
161, -3256.93, -3476.61, -4132.53, -3368.82, 0.000, 0.000, 0.000, 12:52:34.919
162, -2727.55, -2972.47, -3657.36, -2870.41, 0.000, 0.000, 0.000, 12:52:34.919
163, -2993.45, -3228.80, -3892.59, -3105.53, 0.000, 0.000, 0.000, 12:52:34.933
164, -3545.51, -3785.75, -4385.97, -3618.18, 0.000, 0.000, 0.000, 12:52:34.933
165, -3270.16, -3453.04, -4131.67, -3371.93, 0.000, 0.000, 0.000, 12:52:34.947
166, -2748.68, -2904.94, -3665.98, -2865.45, 0.000, 0.000, 0.000, 12:52:34.947
167, -3034.54, -3202.31, -3899.20, -3101.01, 0.000, 0.000, 0.000, 12:52:34.948
168, -3600.19, -3755.71, -4385.30, -3629.48, 0.000, 0.000, 0.000, 12:52:34.948
169, -3320.55, -3518.04, -4136.64, -3383.58, 0.000, 0.000, 0.000, 12:52:34.962
170, -2807.73, -2818.75, -3658.36, -2877.33, 0.000, 0.000, 0.000, 12:52:34.962
171, -3087.83, -3105.06, -3895.84, -3112.52, 0.000, 0.000, 0.000, 12:52:34.978
172, -3653.71, -3828.49, -4384.23, -3637.23, 0.000, 0.000, 0.000, 12:52:34.978
173, -3379.69, -3405.73, -4138.78, -3385.24, 0.000, 0.000, 0.000, 12:52:34.978
174, -2844.51, -2844.27, -3657.64, -2872.97, 0.000, 0.000, 0.000, 12:52:34.978
175, -3121.84, -3176.09, -3893.20, -3113.34, 0.000, 0.000, 0.000, 12:52:35.009
176, -3684.43, -3723.07, -4393.19, -3639.63, 0.000, 0.000, 0.000, 12:52:35.009
177, -3400.95, -3394.81, -4134.43, -3390.40, 0.000, 0.000, 0.000, 12:52:35.009
178, -2885.48, -2898.25, -3656.94, -2881.96, 0.000, 0.000, 0.000, 12:52:35.010
179, -3156.79, -3112.62, -3897.37, -3112.08, 0.000, 0.000, 0.000, 12:52:35.015
180, -3706.21, -3679.12, -4383.89, -3645.15, 0.000, 0.000, 0.000, 12:52:35.015
181, -3431.85, -3488.00, -4142.42, -3404.05, 0.000, 0.000, 0.000, 12:52:35.022
182, -2893.52, -2830.15, -3665.01, -2891.75, 0.000, 0.000, 0.000, 12:52:35.023
183, -3157.85, -3138.53, -3900.56, -3118.83, 0.000, 0.000, 0.000, 12:52:35.038
184, -3708.74, -3776.04, -4389.26, -3639.86, 0.000, 0.000, 0.000, 12:52:35.038
185, -3428.58, -3347.95, -4138.43, -3393.43, 0.000, 0.000, 0.000, 12:52:35.039
186, -2900.42, -2788.92, -3671.08, -2887.45, 0.000, 0.000, 0.000, 12:52:35.039
187, -3165.57, -3175.75, -3900.92, -3112.41, 0.000, 0.000, 0.000, 12:52:35.082
188, -3717.66, -3804.82, -4391.05, -3639.38, 0.000, 0.000, 0.000, 12:52:35.083
189, -3427.89, -3498.62, -4130.97, -3383.12, 0.000, 0.000, 0.000, 12:52:35.083
190, -2885.60, -2868.71, -3656.86, -2886.88, 0.000, 0.000, 0.000, 12:52:35.083
191, -3158.33, -3142.68, -3890.19, -3113.26, 0.000, 0.000, 0.000, 12:52:35.084
192, -3715.86, -3687.93, -4387.34, -3640.01, 0.000, 0.000, 0.000, 12:52:35.084
193, -3426.78, -3445.17, -4135.67, -3386.75, 0.000, 0.000, 0.000, 12:52:35.084
194, -2887.74, -2782.48, -3660.59, -2884.31, 0.000, 0.000, 0.000, 12:52:35.084
195, -3153.88, -3088.53, -3895.10, -3101.74, 0.000, 0.000, 0.000, 12:52:35.085
196, -3698.66, -3723.58, -4380.30, -3640.66, 0.000, 0.000, 0.000, 12:52:35.085
197, -3418.91, -3350.27, -4130.20, -3394.39, 0.000, 0.000, 0.000, 12:52:35.097
198, -2879.15, -2817.22, -3654.27, -2888.74, 0.000, 0.000, 0.000, 12:52:35.098
199, -3139.47, -3135.28, -3889.75, -3111.39, 0.000, 0.000, 0.000, 12:52:35.113
200, -3697.73, -3854.51, -4381.10, -3643.06, 0.000, 0.000, 0.000, 12:52:35.113
0, -3414.65, -3463.72, -4139.33, -3394.38, 0.000, 0.000, 0.000, 12:52:35.113
1, -2883.86, -2879.76, -3665.26, -2889.23, 0.000, 0.000, 0.000, 12:52:35.127
2, -3147.08, -3141.99, -3894.64, -3113.01, 0.000, 0.000, 0.000, 12:52:35.127
3, -3681.93, -3697.52, -4380.42, -3634.43, 0.000, 0.000, 0.000, 12:52:35.143
4, -3400.71, -3430.09, -4129.71, -3389.66, 0.000, 0.000, 0.000, 12:52:35.143
5, -2866.14, -2825.85, -3655.33, -2885.23, 0.000, 0.000, 0.000, 12:52:35.144
6, -3131.09, -3212.19, -3889.36, -3109.18, 0.000, 0.000, 0.000, 12:52:35.144
7, -3688.86, -3666.55, -4382.84, -3635.14, 0.000, 0.000, 0.000, 12:52:35.158
8, -3407.11, -3405.92, -4135.65, -3389.75, 0.000, 0.000, 0.000, 12:52:35.158
9, -2868.57, -2832.92, -3656.28, -2886.68, 0.000, 0.000, 0.000, 12:52:35.173
10, -3132.96, -3176.12, -3889.63, -3108.91, 0.000, 0.000, 0.000, 12:52:35.173
11, -3675.24, -3801.57, -4379.55, -3633.52, 0.000, 0.000, 0.000, 12:52:35.173
12, -3398.04, -3440.08, -4122.05, -3383.47, 0.000, 0.000, 0.000, 12:52:35.173
13, -2860.69, -2894.58, -3651.97, -2878.69, 0.000, 0.000, 0.000, 12:52:35.188
14, -3127.15, -3067.03, -3888.55, -3101.41, 0.000, 0.000, 0.000, 12:52:35.189
15, -3679.64, -3646.30, -4376.70, -3626.98, 0.000, 0.000, 0.000, 12:52:35.202
16, -3388.77, -3479.78, -4125.71, -3376.45, 0.000, 0.000, 0.000, 12:52:35.202
17, -2851.70, -2922.65, -3652.57, -2875.34, 0.000, 0.000, 0.000, 12:52:35.203
18, -3122.77, -3206.41, -3891.47, -3104.31, 0.000, 0.000, 0.000, 12:52:35.203
19, -3673.30, -3809.93, -4380.33, -3635.80, 0.000, 0.000, 0.000, 12:52:35.217
20, -3396.47, -3508.19, -4130.92, -3391.12, 0.000, 0.000, 0.000, 12:52:35.217
21, -2863.28, -2866.70, -3659.92, -2888.98, 0.000, 0.000, 0.000, 12:52:35.233
22, -3125.82, -3037.73, -3888.60, -3102.07, 0.000, 0.000, 0.000, 12:52:35.233
23, -3682.73, -3775.63, -4384.63, -3640.24, 0.000, 0.000, 0.000, 12:52:35.233
24, -3393.16, -3449.69, -4137.20, -3384.99, 0.000, 0.000, 0.000, 12:52:35.233
25, -2857.96, -2833.63, -3658.24, -2879.30, 0.000, 0.000, 0.000, 12:52:35.248
26, -3114.39, -3156.74, -3891.72, -3096.92, 0.000, 0.000, 0.000, 12:52:35.248
27, -3667.93, -3640.42, -4389.37, -3632.73, 0.000, 0.000, 0.000, 12:52:35.262
28, -3389.55, -3431.54, -4136.93, -3387.93, 0.000, 0.000, 0.000, 12:52:35.262
29, -2851.87, -2933.83, -3659.69, -2879.82, 0.000, 0.000, 0.000, 12:52:35.263
30, -3116.82, -3194.56, -3889.33, -3108.16, 0.000, 0.000, 0.000, 12:52:35.263
31, -3676.09, -3733.19, -4376.90, -3636.67, 0.000, 0.000, 0.000, 12:52:35.278
32, -3392.74, -3468.96, -4137.27, -3382.84, 0.000, 0.000, 0.000, 12:52:35.278
33, -2857.44, -2821.59, -3664.05, -2886.81, 0.000, 0.000, 0.000, 12:52:35.293
34, -3119.30, -3191.15, -3888.57, -3107.47, 0.000, 0.000, 0.000, 12:52:35.293
35, -3663.15, -3737.40, -4379.62, -3630.36, 0.000, 0.000, 0.000, 12:52:35.300
36, -3391.37, -3442.65, -4144.43, -3384.29, 0.000, 0.000, 0.000, 12:52:35.301
37, -2860.59, -2772.17, -3665.53, -2881.83, 0.000, 0.000, 0.000, 12:52:35.308
38, -3123.07, -3125.40, -3902.33, -3103.04, 0.000, 0.000, 0.000, 12:52:35.308
39, -3680.20, -3754.42, -4393.36, -3633.70, 0.000, 0.000, 0.000, 12:52:35.322
40, -3384.78, -3484.23, -4132.64, -3382.98, 0.000, 0.000, 0.000, 12:52:35.322
41, -2860.80, -2856.38, -3660.73, -2888.47, 0.000, 0.000, 0.000, 12:52:35.323
42, -3123.74, -3144.48, -3897.34, -3106.85, 0.000, 0.000, 0.000, 12:52:35.324
43, -3666.31, -3739.78, -4380.79, -3629.10, 0.000, 0.000, 0.000, 12:52:35.338
44, -3390.98, -3500.67, -4138.62, -3384.19, 0.000, 0.000, 0.000, 12:52:35.338
45, -2851.77, -2850.93, -3660.58, -2888.54, 0.000, 0.000, 0.000, 12:52:35.353
46, -3114.55, -3153.08, -3891.59, -3103.48, 0.000, 0.000, 0.000, 12:52:35.353
47, -3664.30, -3718.62, -4376.16, -3636.63, 0.000, 0.000, 0.000, 12:52:35.353
48, -3387.22, -3424.57, -4131.73, -3385.93, 0.000, 0.000, 0.000, 12:52:35.353
49, -2854.33, -2820.14, -3662.28, -2883.21, 0.000, 0.000, 0.000, 12:52:35.368
50, -3114.67, -3180.33, -3885.27, -3104.02, 0.000, 0.000, 0.000, 12:52:35.368
51, -3665.27, -3768.09, -4372.98, -3627.78, 0.000, 0.000, 0.000, 12:52:35.382
52, -3393.13, -3458.87, -4135.37, -3387.03, 0.000, 0.000, 0.000, 12:52:35.382
53, -2853.97, -2849.41, -3671.50, -2886.41, 0.000, 0.000, 0.000, 12:52:35.383
54, -3105.69, -3216.99, -3889.15, -3107.91, 0.000, 0.000, 0.000, 12:52:35.383
55, -3647.48, -3770.02, -4371.19, -3627.32, 0.000, 0.000, 0.000, 12:52:35.398
56, -3371.48, -3369.76, -4130.20, -3376.21, 0.000, 0.000, 0.000, 12:52:35.398
57, -2853.91, -2803.20, -3665.35, -2887.28, 0.000, 0.000, 0.000, 12:52:35.413
58, -3119.82, -3178.35, -3892.65, -3105.35, 0.000, 0.000, 0.000, 12:52:35.413
59, -3654.15, -3800.87, -4373.03, -3624.30, 0.000, 0.000, 0.000, 12:52:35.413
60, -3378.80, -3430.59, -4134.68, -3391.71, 0.000, 0.000, 0.000, 12:52:35.413
61, -2864.74, -2935.80, -3671.05, -2896.55, 0.000, 0.000, 0.000, 12:52:35.427
62, -3112.66, -3081.13, -3896.59, -3107.46, 0.000, 0.000, 0.000, 12:52:35.427
63, -3650.90, -3753.55, -4373.56, -3631.14, 0.000, 0.000, 0.000, 12:52:35.443
64, -3393.32, -3462.98, -4132.38, -3384.53, 0.000, 0.000, 0.000, 12:52:35.443
65, -2866.26, -2810.85, -3673.48, -2889.99, 0.000, 0.000, 0.000, 12:52:35.443
66, -3114.94, -3122.02, -3894.31, -3108.71, 0.000, 0.000, 0.000, 12:52:35.443
67, -3657.64, -3776.77, -4369.45, -3632.88, 0.000, 0.000, 0.000, 12:52:35.458
68, -3381.93, -3344.83, -4128.06, -3386.04, 0.000, 0.000, 0.000, 12:52:35.458
69, -2858.73, -2930.01, -3668.29, -2892.28, 0.000, 0.000, 0.000, 12:52:35.472
70, -3115.91, -3236.20, -3888.41, -3112.63, 0.000, 0.000, 0.000, 12:52:35.475
71, -3644.40, -3804.51, -4361.90, -3615.79, 0.000, 0.000, 0.000, 12:52:35.475
72, -3378.76, -3340.45, -4131.07, -3385.74, 0.000, 0.000, 0.000, 12:52:35.475
73, -2871.97, -2867.43, -3680.68, -2898.30, 0.000, 0.000, 0.000, 12:52:35.488
74, -3125.72, -3094.19, -3898.77, -3119.96, 0.000, 0.000, 0.000, 12:52:35.488
75, -3643.00, -3760.23, -4362.59, -3629.18, 0.000, 0.000, 0.000, 12:52:35.503
76, -3373.65, -3374.15, -4123.11, -3378.76, 0.000, 0.000, 0.000, 12:52:35.503
77, -2861.64, -2889.78, -3676.14, -2895.49, 0.000, 0.000, 0.000, 12:52:35.503
78, -3123.37, -3186.52, -3906.24, -3112.64, 0.000, 0.000, 0.000, 12:52:35.503
79, -3654.94, -3803.87, -4369.71, -3621.07, 0.000, 0.000, 0.000, 12:52:35.518
80, -3375.01, -3354.68, -4130.60, -3375.29, 0.000, 0.000, 0.000, 12:52:35.518
81, -2866.26, -2840.58, -3677.82, -2896.15, 0.000, 0.000, 0.000, 12:52:35.532
82, -3124.94, -3176.16, -3902.54, -3111.77, 0.000, 0.000, 0.000, 12:52:35.532
83, -3640.59, -3660.97, -4364.12, -3611.55, 0.000, 0.000, 0.000, 12:52:35.533
84, -3369.74, -3344.69, -4121.74, -3371.58, 0.000, 0.000, 0.000, 12:52:35.533
85, -2866.70, -2935.55, -3685.08, -2898.04, 0.000, 0.000, 0.000, 12:52:35.547
86, -3124.92, -3131.67, -3904.68, -3110.39, 0.000, 0.000, 0.000, 12:52:35.547
87, -3640.39, -3838.65, -4361.27, -3617.03, 0.000, 0.000, 0.000, 12:52:35.563
88, -3367.18, -3531.57, -4120.04, -3364.15, 0.000, 0.000, 0.000, 12:52:35.563
89, -2865.26, -2958.67, -3676.33, -2897.38, 0.000, 0.000, 0.000, 12:52:35.563
90, -3120.33, -3161.09, -3897.33, -3109.25, 0.000, 0.000, 0.000, 12:52:35.563
91, -3626.01, -3801.27, -4352.71, -3604.11, 0.000, 0.000, 0.000, 12:52:35.578
92, -3349.31, -3461.64, -4110.97, -3363.96, 0.000, 0.000, 0.000, 12:52:35.578
93, -2845.28, -2928.43, -3675.32, -2895.66, 0.000, 0.000, 0.000, 12:52:35.592
94, -3082.01, -3204.54, -3897.39, -3109.29, 0.000, 0.000, 0.000, 12:52:35.592
95, -3588.83, -3682.42, -4339.56, -3594.79, 0.000, 0.000, 0.000, 12:52:35.593
96, -3297.08, -3379.87, -4121.04, -3371.02, 0.000, 0.000, 0.000, 12:52:35.593
97, -2764.99, -2861.85, -3674.18, -2891.71, 0.000, 0.000, 0.000, 12:52:35.608
98, -2987.02, -3160.45, -3890.13, -3103.02, 0.000, 0.000, 0.000, 12:52:35.608
99, -3474.76, -3845.07, -4351.25, -3596.01, 0.000, 0.000, 0.000, 12:52:35.638
100, -3177.96, -3490.42, -4120.40, -3363.08, 0.000, 0.000, 0.000, 12:52:35.638
101, -2685.28, -2971.56, -3688.17, -2890.90, 0.000, 0.000, 0.000, 12:52:35.638
102, -2927.97, -3200.22, -3900.99, -3107.29, 0.000, 0.000, 0.000, 12:52:35.638
103, -3441.92, -3720.79, -4345.19, -3592.84, 0.000, 0.000, 0.000, 12:52:35.640
104, -3196.35, -3534.58, -4120.36, -3357.05, 0.000, 0.000, 0.000, 12:52:35.640
105, -2721.14, -2954.04, -3681.31, -2888.49, 0.000, 0.000, 0.000, 12:52:35.653
106, -2982.50, -3177.00, -3903.08, -3102.49, 0.000, 0.000, 0.000, 12:52:35.653
107, -3524.63, -3848.80, -4362.60, -3601.87, 0.000, 0.000, 0.000, 12:52:35.653
108, -3274.67, -3526.98, -4128.69, -3363.31, 0.000, 0.000, 0.000, 12:52:35.653
109, -2810.24, -2883.11, -3701.78, -2900.58, 0.000, 0.000, 0.000, 12:52:35.668
110, -3088.15, -3209.86, -3916.83, -3118.84, 0.000, 0.000, 0.000, 12:52:35.668
111, -3607.62, -3760.17, -4356.89, -3606.58, 0.000, 0.000, 0.000, 12:52:35.683
112, -3351.15, -3535.49, -4134.45, -3379.58, 0.000, 0.000, 0.000, 12:52:35.683
113, -2884.68, -2964.66, -3700.47, -2916.53, 0.000, 0.000, 0.000, 12:52:35.683
114, -3136.72, -3210.62, -3913.48, -3125.79, 0.000, 0.000, 0.000, 12:52:35.683
115, -3652.90, -3653.16, -4349.30, -3612.98, 0.000, 0.000, 0.000, 12:52:35.697
116, -3403.61, -3389.64, -4121.38, -3379.94, 0.000, 0.000, 0.000, 12:52:35.697
117, -2929.43, -2818.64, -3691.86, -2913.73, 0.000, 0.000, 0.000, 12:52:35.712
118, -3178.43, -3151.87, -3905.33, -3127.95, 0.000, 0.000, 0.000, 12:52:35.713
119, -3685.67, -3721.74, -4353.66, -3614.47, 0.000, 0.000, 0.000, 12:52:35.713
120, -3433.70, -3381.48, -4123.78, -3381.33, 0.000, 0.000, 0.000, 12:52:35.713
121, -2946.72, -2814.46, -3695.08, -2927.10, 0.000, 0.000, 0.000, 12:52:35.734
122, -3194.35, -3219.76, -3910.91, -3134.22, 0.000, 0.000, 0.000, 12:52:35.734
123, -3703.07, -3642.35, -4349.73, -3614.48, 0.000, 0.000, 0.000, 12:52:35.742
124, -3435.86, -3322.43, -4124.50, -3377.03, 0.000, 0.000, 0.000, 12:52:35.742
125, -2949.08, -2810.82, -3698.38, -2921.72, 0.000, 0.000, 0.000, 12:52:35.742
126, -3185.32, -3074.58, -3898.15, -3128.23, 0.000, 0.000, 0.000, 12:52:35.743
127, -3695.16, -3740.37, -4348.02, -3613.27, 0.000, 0.000, 0.000, 12:52:35.758
128, -3436.05, -3500.43, -4123.65, -3386.76, 0.000, 0.000, 0.000, 12:52:35.758
129, -2949.42, -2900.45, -3695.02, -2918.96, 0.000, 0.000, 0.000, 12:52:35.772
130, -3187.03, -3077.82, -3894.13, -3124.83, 0.000, 0.000, 0.000, 12:52:35.773
131, -3694.17, -3707.78, -4351.33, -3616.26, 0.000, 0.000, 0.000, 12:52:35.774
132, -3427.95, -3433.33, -4120.11, -3376.35, 0.000, 0.000, 0.000, 12:52:35.774
133, -2940.01, -2907.99, -3692.92, -2916.93, 0.000, 0.000, 0.000, 12:52:35.788
134, -3167.96, -3217.03, -3897.48, -3117.16, 0.000, 0.000, 0.000, 12:52:35.788
135, -3668.28, -3714.14, -4346.32, -3601.52, 0.000, 0.000, 0.000, 12:52:35.803
136, -3412.38, -3451.97, -4122.48, -3376.31, 0.000, 0.000, 0.000, 12:52:35.803
137, -2922.02, -2886.09, -3693.71, -2911.20, 0.000, 0.000, 0.000, 12:52:35.803
138, -3157.73, -3154.24, -3895.64, -3107.77, 0.000, 0.000, 0.000, 12:52:35.803
139, -3662.24, -3660.94, -4344.30, -3607.38, 0.000, 0.000, 0.000, 12:52:35.818
140, -3403.58, -3453.43, -4119.90, -3376.64, 0.000, 0.000, 0.000, 12:52:35.818
141, -2916.77, -2927.90, -3686.92, -2914.60, 0.000, 0.000, 0.000, 12:52:35.833
142, -3155.58, -3089.90, -3905.46, -3122.07, 0.000, 0.000, 0.000, 12:52:35.833
143, -3660.86, -3735.68, -4349.55, -3602.88, 0.000, 0.000, 0.000, 12:52:35.833
144, -3401.97, -3420.35, -4121.38, -3375.97, 0.000, 0.000, 0.000, 12:52:35.833
145, -2912.22, -2853.59, -3694.35, -2912.33, 0.000, 0.000, 0.000, 12:52:35.847
146, -3149.41, -3106.93, -3900.94, -3113.12, 0.000, 0.000, 0.000, 12:52:35.847
147, -3656.80, -3723.34, -4350.11, -3604.32, 0.000, 0.000, 0.000, 12:52:35.862
148, -3399.79, -3463.45, -4130.03, -3377.96, 0.000, 0.000, 0.000, 12:52:35.862
149, -2918.28, -2897.39, -3703.27, -2921.87, 0.000, 0.000, 0.000, 12:52:35.863
150, -3148.82, -3117.62, -3908.84, -3109.46, 0.000, 0.000, 0.000, 12:52:35.863
151, -3651.83, -3624.58, -4346.70, -3599.11, 0.000, 0.000, 0.000, 12:52:35.877
152, -3388.93, -3405.74, -4121.79, -3366.86, 0.000, 0.000, 0.000, 12:52:35.878
153, -2901.03, -2904.48, -3693.19, -2918.18, 0.000, 0.000, 0.000, 12:52:35.892
154, -3139.92, -3191.62, -3899.36, -3119.13, 0.000, 0.000, 0.000, 12:52:35.892
155, -3651.85, -3701.61, -4344.57, -3610.67, 0.000, 0.000, 0.000, 12:52:35.893
156, -3374.88, -3417.96, -4108.41, -3376.05, 0.000, 0.000, 0.000, 12:52:35.893
157, -2890.21, -2929.54, -3691.02, -2916.55, 0.000, 0.000, 0.000, 12:52:35.908
158, -3131.99, -3131.63, -3902.12, -3121.31, 0.000, 0.000, 0.000, 12:52:35.908
159, -3632.99, -3722.38, -4344.52, -3607.19, 0.000, 0.000, 0.000, 12:52:35.923
160, -3380.83, -3456.12, -4124.50, -3367.55, 0.000, 0.000, 0.000, 12:52:35.923
161, -2902.14, -2906.35, -3697.34, -2913.04, 0.000, 0.000, 0.000, 12:52:35.924
162, -3133.97, -3102.68, -3908.80, -3119.27, 0.000, 0.000, 0.000, 12:52:35.924
163, -3640.89, -3795.63, -4349.19, -3608.63, 0.000, 0.000, 0.000, 12:52:35.938
164, -3388.87, -3498.20, -4124.70, -3371.61, 0.000, 0.000, 0.000, 12:52:35.938
165, -2901.29, -2919.83, -3706.04, -2917.40, 0.000, 0.000, 0.000, 12:52:35.952
166, -3130.55, -3224.19, -3897.97, -3121.92, 0.000, 0.000, 0.000, 12:52:35.953
167, -3637.08, -3786.68, -4336.58, -3604.05, 0.000, 0.000, 0.000, 12:52:35.953
168, -3373.58, -3493.80, -4119.54, -3379.40, 0.000, 0.000, 0.000, 12:52:35.953
169, -2896.24, -2865.83, -3695.48, -2926.01, 0.000, 0.000, 0.000, 12:52:35.968
170, -3139.44, -3105.30, -3906.56, -3120.41, 0.000, 0.000, 0.000, 12:52:35.968
171, -3641.68, -3722.10, -4346.02, -3605.82, 0.000, 0.000, 0.000, 12:52:35.982
172, -3378.84, -3439.07, -4119.73, -3380.71, 0.000, 0.000, 0.000, 12:52:35.982
173, -2889.02, -2894.77, -3695.69, -2920.55, 0.000, 0.000, 0.000, 12:52:35.983
174, -3116.80, -3108.88, -3891.97, -3117.86, 0.000, 0.000, 0.000, 12:52:35.983
175, -3616.88, -3700.04, -4335.23, -3595.66, 0.000, 0.000, 0.000, 12:52:35.998
176, -3367.32, -3364.65, -4116.84, -3377.44, 0.000, 0.000, 0.000, 12:52:35.998
177, -2888.41, -2908.48, -3693.04, -2920.86, 0.000, 0.000, 0.000, 12:52:36.012
178, -3118.59, -3165.44, -3897.69, -3113.06, 0.000, 0.000, 0.000, 12:52:36.013
179, -3628.13, -3741.95, -4347.53, -3599.38, 0.000, 0.000, 0.000, 12:52:36.013
180, -3366.89, -3347.18, -4120.56, -3376.51, 0.000, 0.000, 0.000, 12:52:36.013
181, -2880.73, -2900.68, -3698.15, -2920.00, 0.000, 0.000, 0.000, 12:52:36.027
182, -3118.07, -3188.30, -3892.94, -3120.31, 0.000, 0.000, 0.000, 12:52:36.027
183, -3621.73, -3691.47, -4340.63, -3602.93, 0.000, 0.000, 0.000, 12:52:36.043
184, -3374.64, -3422.12, -4124.17, -3378.58, 0.000, 0.000, 0.000, 12:52:36.043
185, -2901.24, -2908.27, -3704.46, -2922.24, 0.000, 0.000, 0.000, 12:52:36.050
186, -3126.84, -3177.00, -3906.92, -3121.24, 0.000, 0.000, 0.000, 12:52:36.050
187, -3634.94, -3698.47, -4346.05, -3602.35, 0.000, 0.000, 0.000, 12:52:36.057
188, -3370.73, -3433.29, -4118.64, -3373.00, 0.000, 0.000, 0.000, 12:52:36.058
189, -2895.95, -2929.09, -3701.47, -2914.75, 0.000, 0.000, 0.000, 12:52:36.073
190, -3121.15, -3135.56, -3900.76, -3115.13, 0.000, 0.000, 0.000, 12:52:36.073
191, -3623.51, -3782.69, -4343.59, -3601.27, 0.000, 0.000, 0.000, 12:52:36.074
192, -3370.49, -3477.19, -4121.00, -3378.06, 0.000, 0.000, 0.000, 12:52:36.074
193, -2886.95, -2888.38, -3693.64, -2922.30, 0.000, 0.000, 0.000, 12:52:36.089
194, -3119.76, -3100.14, -3896.70, -3120.53, 0.000, 0.000, 0.000, 12:52:36.089
195, -3627.58, -3698.36, -4345.74, -3608.13, 0.000, 0.000, 0.000, 12:52:36.103
196, -3371.91, -3451.56, -4122.01, -3382.09, 0.000, 0.000, 0.000, 12:52:36.103
197, -2893.28, -2944.10, -3702.90, -2920.09, 0.000, 0.000, 0.000, 12:52:36.118
198, -3119.34, -3239.29, -3901.70, -3118.23, 0.000, 0.000, 0.000, 12:52:36.118
199, -3625.50, -3788.05, -4349.49, -3595.75, 0.000, 0.000, 0.000, 12:52:36.118
200, -3379.93, -3430.38, -4131.44, -3377.36, 0.000, 0.000, 0.000, 12:52:36.118
0, -2886.29, -2919.50, -3700.81, -2919.48, 0.000, 0.000, 0.000, 12:52:36.119
1, -3116.59, -3139.18, -3897.11, -3115.28, 0.000, 0.000, 0.000, 12:52:36.132
2, -3622.06, -3785.99, -4336.74, -3602.35, 0.000, 0.000, 0.000, 12:52:36.132
3, -3379.52, -3467.19, -4125.77, -3380.41, 0.000, 0.000, 0.000, 12:52:36.162
4, -2903.41, -2946.23, -3706.51, -2921.36, 0.000, 0.000, 0.000, 12:52:36.162
5, -3124.54, -3097.13, -3906.40, -3110.55, 0.000, 0.000, 0.000, 12:52:36.162
6, -3620.01, -3717.57, -4340.93, -3592.39, 0.000, 0.000, 0.000, 12:52:36.162
7, -3368.72, -3429.21, -4117.80, -3376.55, 0.000, 0.000, 0.000, 12:52:36.163
8, -2885.50, -2866.13, -3696.18, -2919.34, 0.000, 0.000, 0.000, 12:52:36.164
9, -3112.33, -3072.51, -3893.89, -3110.35, 0.000, 0.000, 0.000, 12:52:36.164
10, -3621.34, -3639.15, -4342.35, -3599.13, 0.000, 0.000, 0.000, 12:52:36.164
11, -3366.05, -3422.49, -4130.91, -3373.17, 0.000, 0.000, 0.000, 12:52:36.177
12, -2884.37, -2920.18, -3697.38, -2920.22, 0.000, 0.000, 0.000, 12:52:36.178
13, -3121.26, -3130.43, -3900.79, -3107.85, 0.000, 0.000, 0.000, 12:52:36.192
14, -3626.80, -3725.87, -4343.76, -3604.08, 0.000, 0.000, 0.000, 12:52:36.193
15, -3379.54, -3439.60, -4131.75, -3373.22, 0.000, 0.000, 0.000, 12:52:36.207
16, -2887.07, -2906.02, -3695.72, -2920.92, 0.000, 0.000, 0.000, 12:52:36.208
17, -3121.14, -3225.13, -3899.55, -3112.38, 0.000, 0.000, 0.000, 12:52:36.208
18, -3624.86, -3686.97, -4346.18, -3602.09, 0.000, 0.000, 0.000, 12:52:36.208
19, -3380.93, -3377.73, -4120.09, -3369.07, 0.000, 0.000, 0.000, 12:52:36.222
20, -2884.69, -2942.72, -3696.55, -2915.47, 0.000, 0.000, 0.000, 12:52:36.222
21, -3112.20, -3212.72, -3897.12, -3114.50, 0.000, 0.000, 0.000, 12:52:36.237
22, -3628.41, -3730.97, -4350.03, -3601.94, 0.000, 0.000, 0.000, 12:52:36.237
23, -3376.74, -3418.10, -4134.86, -3378.01, 0.000, 0.000, 0.000, 12:52:36.238
24, -2888.32, -2826.98, -3690.19, -2923.50, 0.000, 0.000, 0.000, 12:52:36.238
25, -3117.69, -3051.60, -3886.75, -3115.02, 0.000, 0.000, 0.000, 12:52:36.253
26, -3631.58, -3759.63, -4344.48, -3606.20, 0.000, 0.000, 0.000, 12:52:36.253
27, -3375.58, -3439.98, -4124.29, -3378.85, 0.000, 0.000, 0.000, 12:52:36.268
28, -2893.23, -2954.50, -3699.09, -2925.28, 0.000, 0.000, 0.000, 12:52:36.268
29, -3116.28, -3207.63, -3894.59, -3118.35, 0.000, 0.000, 0.000, 12:52:36.268
30, -3621.72, -3798.85, -4342.93, -3598.51, 0.000, 0.000, 0.000, 12:52:36.268
31, -3380.69, -3479.90, -4128.93, -3379.59, 0.000, 0.000, 0.000, 12:52:36.283
32, -2888.87, -2830.29, -3696.26, -2921.82, 0.000, 0.000, 0.000, 12:52:36.283
33, -3109.48, -3060.78, -3891.21, -3115.42, 0.000, 0.000, 0.000, 12:52:36.297
34, -3629.30, -3790.47, -4347.26, -3607.09, 0.000, 0.000, 0.000, 12:52:36.297
35, -3375.12, -3442.62, -4127.99, -3378.35, 0.000, 0.000, 0.000, 12:52:36.312
36, -2893.89, -2954.58, -3694.74, -2912.72, 0.000, 0.000, 0.000, 12:52:36.312
37, -3107.24, -3214.94, -3892.38, -3107.28, 0.000, 0.000, 0.000, 12:52:36.321
38, -3627.55, -3779.04, -4343.58, -3597.62, 0.000, 0.000, 0.000, 12:52:36.321
39, -3365.73, -3417.48, -4128.25, -3382.56, 0.000, 0.000, 0.000, 12:52:36.327
40, -2885.06, -2936.04, -3692.57, -2922.27, 0.000, 0.000, 0.000, 12:52:36.327
41, -3108.37, -3052.25, -3890.89, -3107.15, 0.000, 0.000, 0.000, 12:52:36.328
42, -3626.66, -3691.33, -4343.58, -3602.75, 0.000, 0.000, 0.000, 12:52:36.328
43, -3372.20, -3354.69, -4130.45, -3376.26, 0.000, 0.000, 0.000, 12:52:36.343
44, -2893.73, -2909.48, -3690.72, -2915.65, 0.000, 0.000, 0.000, 12:52:36.343
45, -3108.17, -3128.13, -3882.70, -3106.12, 0.000, 0.000, 0.000, 12:52:36.358
46, -3629.61, -3729.05, -4349.71, -3607.35, 0.000, 0.000, 0.000, 12:52:36.358
47, -3375.55, -3445.62, -4129.46, -3379.98, 0.000, 0.000, 0.000, 12:52:36.372
48, -2880.02, -2827.46, -3691.57, -2911.63, 0.000, 0.000, 0.000, 12:52:36.372
49, -3105.12, -3168.87, -3893.70, -3108.36, 0.000, 0.000, 0.000, 12:52:36.388
50, -3639.52, -3773.30, -4357.53, -3607.20, 0.000, 0.000, 0.000, 12:52:36.388
51, -3368.94, -3507.07, -4129.22, -3381.24, 0.000, 0.000, 0.000, 12:52:36.388
52, -2862.83, -2877.13, -3678.97, -2906.03, 0.000, 0.000, 0.000, 12:52:36.388
53, -3086.01, -3157.01, -3880.32, -3103.52, 0.000, 0.000, 0.000, 12:52:36.389
54, -3581.59, -3747.82, -4351.28, -3605.06, 0.000, 0.000, 0.000, 12:52:36.391
55, -3304.45, -3436.85, -4126.54, -3369.59, 0.000, 0.000, 0.000, 12:52:36.402
56, -2786.07, -2924.67, -3681.11, -2897.62, 0.000, 0.000, 0.000, 12:52:36.402
57, -2973.18, -3195.14, -3882.20, -3089.65, 0.000, 0.000, 0.000, 12:52:36.418
58, -3473.58, -3886.75, -4362.35, -3597.06, 0.000, 0.000, 0.000, 12:52:36.418
59, -3198.69, -3628.82, -4134.11, -3369.17, 0.000, 0.000, 0.000, 12:52:36.418
60, -2689.68, -2955.47, -3686.65, -2906.51, 0.000, 0.000, 0.000, 12:52:36.419
61, -2908.97, -3260.08, -3877.98, -3087.13, 0.000, 0.000, 0.000, 12:52:36.433
62, -3449.43, -3836.60, -4344.58, -3603.17, 0.000, 0.000, 0.000, 12:52:36.433
63, -3194.61, -3507.03, -4121.80, -3372.03, 0.000, 0.000, 0.000, 12:52:36.462
64, -2712.55, -3004.63, -3678.04, -2904.67, 0.000, 0.000, 0.000, 12:52:36.463
65, -2958.29, -3130.56, -3879.77, -3098.40, 0.000, 0.000, 0.000, 12:52:36.463
66, -3503.93, -3822.53, -4354.28, -3606.65, 0.000, 0.000, 0.000, 12:52:36.463
67, -3257.00, -3425.91, -4120.23, -3376.58, 0.000, 0.000, 0.000, 12:52:36.464
68, -2786.43, -2919.70, -3689.51, -2917.19, 0.000, 0.000, 0.000, 12:52:36.464
69, -3028.13, -3118.54, -3881.06, -3092.87, 0.000, 0.000, 0.000, 12:52:36.464
70, -3560.75, -3835.27, -4345.79, -3596.36, 0.000, 0.000, 0.000, 12:52:36.464
71, -3338.18, -3516.98, -4138.34, -3386.08, 0.000, 0.000, 0.000, 12:52:36.478
72, -2855.14, -2955.46, -3698.89, -2916.92, 0.000, 0.000, 0.000, 12:52:36.478
73, -3104.41, -3149.30, -3889.95, -3099.99, 0.000, 0.000, 0.000, 12:52:36.492
74, -3642.08, -3744.36, -4362.20, -3616.52, 0.000, 0.000, 0.000, 12:52:36.493
75, -3389.23, -3390.31, -4131.17, -3394.88, 0.000, 0.000, 0.000, 12:52:36.507
76, -2915.84, -2909.68, -3690.17, -2920.92, 0.000, 0.000, 0.000, 12:52:36.507
77, -3151.76, -3193.07, -3884.87, -3104.59, 0.000, 0.000, 0.000, 12:52:36.508
78, -3682.19, -3666.54, -4351.79, -3620.73, 0.000, 0.000, 0.000, 12:52:36.508
79, -3434.19, -3387.81, -4130.81, -3394.66, 0.000, 0.000, 0.000, 12:52:36.523
80, -2932.93, -2881.09, -3680.94, -2916.63, 0.000, 0.000, 0.000, 12:52:36.523
81, -3162.70, -3083.21, -3878.30, -3104.32, 0.000, 0.000, 0.000, 12:52:36.537
82, -3710.78, -3660.44, -4354.91, -3614.80, 0.000, 0.000, 0.000, 12:52:36.537
83, -3460.61, -3387.45, -4132.25, -3396.62, 0.000, 0.000, 0.000, 12:52:36.538
84, -2961.26, -2940.08, -3690.98, -2925.11, 0.000, 0.000, 0.000, 12:52:36.538
85, -3183.22, -3082.36, -3875.98, -3110.84, 0.000, 0.000, 0.000, 12:52:36.552
86, -3719.23, -3679.94, -4353.70, -3611.54, 0.000, 0.000, 0.000, 12:52:36.552
87, -3457.53, -3474.14, -4127.54, -3394.43, 0.000, 0.000, 0.000, 12:52:36.568
88, -2963.07, -2877.63, -3694.12, -2924.04, 0.000, 0.000, 0.000, 12:52:36.568
89, -3172.28, -3165.73, -3882.02, -3105.97, 0.000, 0.000, 0.000, 12:52:36.569
90, -3702.13, -3729.42, -4345.90, -3615.35, 0.000, 0.000, 0.000, 12:52:36.569
91, -3457.76, -3409.27, -4136.56, -3391.16, 0.000, 0.000, 0.000, 12:52:36.583
92, -2951.63, -2864.17, -3692.93, -2919.44, 0.000, 0.000, 0.000, 12:52:36.583
93, -3168.99, -3108.00, -3887.35, -3106.49, 0.000, 0.000, 0.000, 12:52:36.598
94, -3703.79, -3768.06, -4362.44, -3614.83, 0.000, 0.000, 0.000, 12:52:36.598
95, -3442.21, -3475.14, -4137.02, -3394.77, 0.000, 0.000, 0.000, 12:52:36.598
96, -2945.30, -2775.66, -3690.76, -2916.73, 0.000, 0.000, 0.000, 12:52:36.598
97, -3155.14, -3073.89, -3885.96, -3099.74, 0.000, 0.000, 0.000, 12:52:36.643
98, -3683.44, -3776.68, -4357.18, -3608.10, 0.000, 0.000, 0.000, 12:52:36.643
99, -3420.97, -3488.48, -4133.75, -3393.27, 0.000, 0.000, 0.000, 12:52:36.643
100, -2924.76, -2877.36, -3688.24, -2924.55, 0.000, 0.000, 0.000, 12:52:36.643
