%OpenBCI Raw EEG Data
%
%Sample Rate = 200.0 Hz
%First Column = SampleIndex
%Last Column = Timestamp 
%Other Columns = EEG data in microvolts followed by Accel Data (in G) interleaved with Aux Data
0, -1005.41, -1058.03, -1651.28, -891.09, 0.000, 0.000, 0.000, 12:46:44.305
1, -570.00, -563.09, -1236.10, -433.85, 0.000, 0.000, 0.000, 12:46:44.320
2, -863.77, -863.70, -1528.59, -724.01, 0.000, 0.000, 0.000, 12:46:44.320
3, -1386.30, -1447.41, -2024.38, -1268.67, 0.000, 0.000, 0.000, 12:46:44.334
4, -1010.24, -1050.67, -1647.98, -889.08, 0.000, 0.000, 0.000, 12:46:44.335
5, -574.87, -567.31, -1229.87, -439.25, 0.000, 0.000, 0.000, 12:46:44.335
6, -860.34, -849.61, -1520.74, -724.59, 0.000, 0.000, 0.000, 12:46:44.335
7, -1396.97, -1446.21, -2021.53, -1271.63, 0.000, 0.000, 0.000, 12:46:44.349
8, -1013.87, -1048.49, -1644.98, -891.45, 0.000, 0.000, 0.000, 12:46:44.349
9, -571.77, -558.24, -1223.55, -438.18, 0.000, 0.000, 0.000, 12:46:44.363
10, -859.78, -852.70, -1525.95, -723.43, 0.000, 0.000, 0.000, 12:46:44.363
11, -1381.33, -1438.63, -2019.99, -1268.02, 0.000, 0.000, 0.000, 12:46:44.364
12, -1000.86, -1048.59, -1643.85, -891.13, 0.000, 0.000, 0.000, 12:46:44.364
13, -566.33, -564.84, -1234.76, -447.81, 0.000, 0.000, 0.000, 12:46:44.412
14, -847.23, -844.38, -1518.26, -716.83, 0.000, 0.000, 0.000, 12:46:44.412
15, -1373.60, -1437.89, -2020.60, -1269.76, 0.000, 0.000, 0.000, 12:46:44.413
16, -1000.98, -1053.26, -1642.06, -890.56, 0.000, 0.000, 0.000, 12:46:44.413
17, -560.54, -559.25, -1228.69, -437.72, 0.000, 0.000, 0.000, 12:46:44.414
18, -842.87, -842.48, -1514.11, -719.68, 0.000, 0.000, 0.000, 12:46:44.414
19, -1376.19, -1441.79, -2016.73, -1278.41, 0.000, 0.000, 0.000, 12:46:44.415
20, -1006.35, -1051.03, -1640.00, -900.63, 0.000, 0.000, 0.000, 12:46:44.415
21, -564.53, -560.78, -1223.88, -442.34, 0.000, 0.000, 0.000, 12:46:44.444
22, -834.01, -833.67, -1506.56, -716.81, 0.000, 0.000, 0.000, 12:46:44.445
23, -1372.49, -1440.45, -2020.68, -1266.10, 0.000, 0.000, 0.000, 12:46:44.450
24, -1018.94, -1058.17, -1652.44, -900.04, 0.000, 0.000, 0.000, 12:46:44.451
25, -564.49, -559.91, -1225.24, -435.81, 0.000, 0.000, 0.000, 12:46:44.451
26, -829.37, -835.11, -1507.58, -704.92, 0.000, 0.000, 0.000, 12:46:44.452
27, -1372.95, -1445.65, -2024.64, -1266.89, 0.000, 0.000, 0.000, 12:46:44.473
28, -1007.19, -1054.45, -1650.77, -891.74, 0.000, 0.000, 0.000, 12:46:44.473
29, -577.85, -564.43, -1235.28, -441.92, 0.000, 0.000, 0.000, 12:46:44.473
30, -837.03, -830.78, -1511.30, -707.82, 0.000, 0.000, 0.000, 12:46:44.473
31, -1380.61, -1440.04, -2022.82, -1269.83, 0.000, 0.000, 0.000, 12:46:44.475
32, -1024.13, -1065.60, -1655.14, -902.24, 0.000, 0.000, 0.000, 12:46:44.475
33, -563.14, -561.88, -1230.95, -440.03, 0.000, 0.000, 0.000, 12:46:44.483
34, -829.25, -827.44, -1511.20, -704.27, 0.000, 0.000, 0.000, 12:46:44.484
35, -1374.78, -1435.99, -2027.64, -1274.03, 0.000, 0.000, 0.000, 12:46:44.484
36, -1014.52, -1055.92, -1655.95, -893.25, 0.000, 0.000, 0.000, 12:46:44.484
37, -573.85, -564.96, -1234.04, -433.91, 0.000, 0.000, 0.000, 12:46:44.513
38, -831.73, -821.92, -1508.42, -701.55, 0.000, 0.000, 0.000, 12:46:44.513
39, -1375.93, -1434.21, -2022.72, -1276.27, 0.000, 0.000, 0.000, 12:46:44.516
40, -1017.93, -1058.98, -1656.70, -902.40, 0.000, 0.000, 0.000, 12:46:44.516
41, -571.64, -563.83, -1234.39, -442.70, 0.000, 0.000, 0.000, 12:46:44.516
42, -827.00, -822.34, -1504.48, -700.10, 0.000, 0.000, 0.000, 12:46:44.516
43, -1375.31, -1438.03, -2019.78, -1267.96, 0.000, 0.000, 0.000, 12:46:44.544
44, -1015.75, -1061.87, -1660.15, -899.01, 0.000, 0.000, 0.000, 12:46:44.544
45, -567.87, -566.97, -1229.62, -436.95, 0.000, 0.000, 0.000, 12:46:44.544
46, -817.31, -818.27, -1498.28, -697.53, 0.000, 0.000, 0.000, 12:46:44.544
47, -1381.06, -1437.69, -2024.19, -1273.59, 0.000, 0.000, 0.000, 12:46:44.545
48, -1017.30, -1062.41, -1656.43, -906.50, 0.000, 0.000, 0.000, 12:46:44.545
49, -573.70, -561.66, -1226.51, -445.35, 0.000, 0.000, 0.000, 12:46:44.558
50, -825.69, -814.42, -1491.72, -688.65, 0.000, 0.000, 0.000, 12:46:44.559
51, -1389.31, -1435.35, -2023.22, -1260.71, 0.000, 0.000, 0.000, 12:46:44.573
52, -1022.48, -1056.26, -1660.74, -908.35, 0.000, 0.000, 0.000, 12:46:44.574
53, -586.40, -569.79, -1247.46, -458.87, 0.000, 0.000, 0.000, 12:46:44.574
54, -821.33, -842.86, -1491.00, -666.24, 0.000, 0.000, 0.000, 12:46:44.574
55, -1344.17, -1455.93, -2034.45, -1243.91, 0.000, 0.000, 0.000, 12:46:44.618
56, -966.21, -1082.26, -1675.45, -911.86, 0.000, 0.000, 0.000, 12:46:44.619
57, -484.23, -589.75, -1246.29, -442.88, 0.000, 0.000, 0.000, 12:46:44.619
58, -699.42, -863.87, -1515.25, -684.80, 0.000, 0.000, 0.000, 12:46:44.619
59, -1253.08, -1504.88, -2050.31, -1286.84, 0.000, 0.000, 0.000, 12:46:44.633
60, -858.99, -1142.80, -1688.73, -919.85, 0.000, 0.000, 0.000, 12:46:44.634
61, -387.80, -656.76, -1274.30, -450.63, 0.000, 0.000, 0.000, 12:46:44.634
62, -611.98, -917.12, -1526.31, -699.13, 0.000, 0.000, 0.000, 12:46:44.635
63, -1168.25, -1570.53, -2065.93, -1289.38, 0.000, 0.000, 0.000, 12:46:44.635
64, -786.21, -1201.63, -1710.53, -916.50, 0.000, 0.000, 0.000, 12:46:44.635
65, -334.72, -717.61, -1288.91, -466.14, 0.000, 0.000, 0.000, 12:46:44.645
66, -563.10, -958.93, -1543.38, -712.86, 0.000, 0.000, 0.000, 12:46:44.645
67, -1135.50, -1595.96, -2084.58, -1299.02, 0.000, 0.000, 0.000, 12:46:44.649
68, -783.14, -1214.68, -1715.05, -914.03, 0.000, 0.000, 0.000, 12:46:44.649
69, -333.90, -716.43, -1291.40, -447.29, 0.000, 0.000, 0.000, 12:46:44.663
70, -582.68, -961.03, -1540.83, -683.20, 0.000, 0.000, 0.000, 12:46:44.666
71, -1172.87, -1590.85, -2093.12, -1269.80, 0.000, 0.000, 0.000, 12:46:44.666
72, -835.10, -1219.73, -1725.11, -895.18, 0.000, 0.000, 0.000, 12:46:44.666
73, -386.95, -705.88, -1294.24, -435.23, 0.000, 0.000, 0.000, 12:46:44.679
74, -642.18, -942.43, -1538.81, -662.02, 0.000, 0.000, 0.000, 12:46:44.679
75, -1221.06, -1565.85, -2086.73, -1266.43, 0.000, 0.000, 0.000, 12:46:44.694
76, -881.41, -1185.84, -1721.31, -896.94, 0.000, 0.000, 0.000, 12:46:44.695
77, -429.48, -670.38, -1281.02, -416.55, 0.000, 0.000, 0.000, 12:46:44.697
78, -672.17, -894.58, -1532.41, -657.99, 0.000, 0.000, 0.000, 12:46:44.697
79, -1262.85, -1545.43, -2086.99, -1263.70, 0.000, 0.000, 0.000, 12:46:44.738
80, -925.30, -1164.11, -1719.22, -893.09, 0.000, 0.000, 0.000, 12:46:44.738
81, -475.25, -648.82, -1283.33, -406.93, 0.000, 0.000, 0.000, 12:46:44.738
82, -717.63, -887.73, -1532.47, -657.86, 0.000, 0.000, 0.000, 12:46:44.739
83, -1320.75, -1515.27, -2075.42, -1258.69, 0.000, 0.000, 0.000, 12:46:44.739
84, -959.12, -1126.33, -1707.60, -883.49, 0.000, 0.000, 0.000, 12:46:44.739
85, -508.27, -615.83, -1269.42, -408.44, 0.000, 0.000, 0.000, 12:46:44.740
86, -760.29, -841.48, -1518.32, -642.68, 0.000, 0.000, 0.000, 12:46:44.740
87, -1357.48, -1485.79, -2071.36, -1255.94, 0.000, 0.000, 0.000, 12:46:44.740
88, -1017.52, -1116.09, -1712.11, -896.19, 0.000, 0.000, 0.000, 12:46:44.741
89, -555.09, -595.97, -1267.27, -424.79, 0.000, 0.000, 0.000, 12:46:44.753
90, -792.73, -820.95, -1507.28, -653.95, 0.000, 0.000, 0.000, 12:46:44.753
91, -1394.34, -1467.56, -2061.75, -1268.59, 0.000, 0.000, 0.000, 12:46:44.768
92, -1039.96, -1086.74, -1694.92, -906.14, 0.000, 0.000, 0.000, 12:46:44.768
93, -596.53, -575.05, -1258.78, -440.26, 0.000, 0.000, 0.000, 12:46:44.784
94, -816.74, -788.16, -1483.98, -665.50, 0.000, 0.000, 0.000, 12:46:44.785
95, -1422.54, -1442.13, -2045.69, -1281.50, 0.000, 0.000, 0.000, 12:46:44.785
96, -1071.37, -1068.64, -1679.04, -912.14, 0.000, 0.000, 0.000, 12:46:44.786
97, -609.35, -552.80, -1243.60, -437.98, 0.000, 0.000, 0.000, 12:46:44.798
98, -828.77, -759.48, -1472.28, -653.24, 0.000, 0.000, 0.000, 12:46:44.799
99, -1433.17, -1426.59, -2035.42, -1276.68, 0.000, 0.000, 0.000, 12:46:44.813
100, -1081.52, -1050.65, -1670.77, -913.63, 0.000, 0.000, 0.000, 12:46:44.814
101, -613.78, -544.19, -1242.83, -440.65, 0.000, 0.000, 0.000, 12:46:44.814
102, -835.87, -753.39, -1472.74, -665.58, 0.000, 0.000, 0.000, 12:46:44.814
103, -1438.40, -1418.14, -2034.62, -1283.31, 0.000, 0.000, 0.000, 12:46:44.828
104, -1071.37, -1046.04, -1675.05, -929.34, 0.000, 0.000, 0.000, 12:46:44.829
105, -609.74, -551.55, -1241.10, -456.74, 0.000, 0.000, 0.000, 12:46:44.843
106, -822.92, -755.32, -1468.68, -670.80, 0.000, 0.000, 0.000, 12:46:44.843
107, -1447.60, -1420.55, -2034.69, -1285.19, 0.000, 0.000, 0.000, 12:46:44.845
108, -1086.12, -1058.40, -1677.17, -929.35, 0.000, 0.000, 0.000, 12:46:44.846
109, -612.53, -548.58, -1239.79, -460.79, 0.000, 0.000, 0.000, 12:46:44.859
110, -817.61, -754.58, -1459.49, -665.19, 0.000, 0.000, 0.000, 12:46:44.859
111, -1425.01, -1424.93, -2030.45, -1292.94, 0.000, 0.000, 0.000, 12:46:44.873
112, -1067.51, -1060.68, -1674.67, -931.60, 0.000, 0.000, 0.000, 12:46:44.873
113, -607.93, -550.16, -1238.76, -444.83, 0.000, 0.000, 0.000, 12:46:44.874
114, -816.30, -753.72, -1458.43, -655.91, 0.000, 0.000, 0.000, 12:46:44.874
115, -1436.61, -1428.82, -2029.62, -1289.64, 0.000, 0.000, 0.000, 12:46:44.889
116, -1065.96, -1063.81, -1676.93, -937.38, 0.000, 0.000, 0.000, 12:46:44.889
117, -599.13, -551.23, -1241.85, -452.60, 0.000, 0.000, 0.000, 12:46:44.903
118, -792.22, -754.04, -1452.14, -647.72, 0.000, 0.000, 0.000, 12:46:44.904
119, -1420.33, -1438.17, -2036.58, -1284.61, 0.000, 0.000, 0.000, 12:46:44.904
120, -1060.55, -1066.45, -1681.01, -931.12, 0.000, 0.000, 0.000, 12:46:44.905
121, -591.20, -558.87, -1238.29, -454.69, 0.000, 0.000, 0.000, 12:46:44.918
122, -790.31, -753.09, -1446.01, -654.24, 0.000, 0.000, 0.000, 12:46:44.918
123, -1412.16, -1435.36, -2023.73, -1289.27, 0.000, 0.000, 0.000, 12:46:44.932
124, -1057.09, -1076.78, -1677.11, -928.20, 0.000, 0.000, 0.000, 12:46:44.933
125, -586.00, -562.64, -1237.28, -449.90, 0.000, 0.000, 0.000, 12:46:44.941
126, -784.58, -755.87, -1450.04, -653.83, 0.000, 0.000, 0.000, 12:46:44.941
127, -1425.52, -1453.75, -2044.65, -1288.29, 0.000, 0.000, 0.000, 12:46:44.952
128, -1068.29, -1100.11, -1689.79, -926.00, 0.000, 0.000, 0.000, 12:46:44.952
129, -576.42, -547.40, -1224.58, -451.59, 0.000, 0.000, 0.000, 12:46:44.963
130, -770.14, -732.89, -1431.86, -669.34, 0.000, 0.000, 0.000, 12:46:44.964
131, -1397.27, -1425.92, -2007.00, -1315.92, 0.000, 0.000, 0.000, 12:46:44.964
132, -1053.39, -1070.63, -1659.06, -973.58, 0.000, 0.000, 0.000, 12:46:44.965
133, -580.87, -557.75, -1215.10, -493.57, 0.000, 0.000, 0.000, 12:46:44.993
134, -772.16, -743.27, -1417.38, -684.87, 0.000, 0.000, 0.000, 12:46:44.994
135, -1402.87, -1432.96, -2003.38, -1323.70, 0.000, 0.000, 0.000, 12:46:44.994
136, -1056.21, -1077.31, -1655.85, -961.18, 0.000, 0.000, 0.000, 12:46:44.994
137, -594.29, -571.36, -1226.53, -483.55, 0.000, 0.000, 0.000, 12:46:44.995
138, -780.12, -740.08, -1423.39, -667.53, 0.000, 0.000, 0.000, 12:46:44.995
139, -1413.90, -1431.24, -2019.67, -1310.91, 0.000, 0.000, 0.000, 12:46:45.008
140, -1075.91, -1079.01, -1670.16, -955.94, 0.000, 0.000, 0.000, 12:46:45.008
141, -588.77, -562.60, -1233.83, -471.53, 0.000, 0.000, 0.000, 12:46:45.023
142, -779.83, -744.40, -1434.35, -655.39, 0.000, 0.000, 0.000, 12:46:45.023
143, -1422.11, -1436.78, -2022.75, -1299.68, 0.000, 0.000, 0.000, 12:46:45.023
144, -1059.83, -1077.45, -1667.08, -939.32, 0.000, 0.000, 0.000, 12:46:45.024
145, -589.19, -563.39, -1231.65, -449.19, 0.000, 0.000, 0.000, 12:46:45.068
146, -774.53, -734.07, -1438.89, -637.36, 0.000, 0.000, 0.000, 12:46:45.068
147, -1395.88, -1428.99, -2022.98, -1293.01, 0.000, 0.000, 0.000, 12:46:45.068
148, -1059.90, -1084.04, -1682.51, -944.74, 0.000, 0.000, 0.000, 12:46:45.069
149, -592.57, -566.70, -1241.74, -462.75, 0.000, 0.000, 0.000, 12:46:45.069
150, -761.61, -738.40, -1436.30, -638.58, 0.000, 0.000, 0.000, 12:46:45.069
151, -1411.32, -1438.81, -2033.34, -1292.96, 0.000, 0.000, 0.000, 12:46:45.070
152, -1061.89, -1079.08, -1682.00, -949.65, 0.000, 0.000, 0.000, 12:46:45.070
153, -601.57, -563.93, -1242.24, -465.34, 0.000, 0.000, 0.000, 12:46:45.071
154, -760.40, -722.83, -1432.07, -641.26, 0.000, 0.000, 0.000, 12:46:45.071
155, -1399.88, -1424.66, -2028.57, -1290.10, 0.000, 0.000, 0.000, 12:46:45.083
156, -1063.59, -1083.95, -1691.87, -953.63, 0.000, 0.000, 0.000, 12:46:45.083
157, -592.87, -564.17, -1242.93, -470.92, 0.000, 0.000, 0.000, 12:46:45.098
158, -755.66, -717.03, -1429.80, -636.92, 0.000, 0.000, 0.000, 12:46:45.099
159, -1402.71, -1424.16, -2022.69, -1288.72, 0.000, 0.000, 0.000, 12:46:45.113
160, -1057.82, -1077.84, -1687.37, -942.76, 0.000, 0.000, 0.000, 12:46:45.113
161, -587.79, -569.42, -1244.99, -461.65, 0.000, 0.000, 0.000, 12:46:45.113
162, -756.62, -724.07, -1430.41, -631.19, 0.000, 0.000, 0.000, 12:46:45.114
163, -1413.01, -1425.59, -2024.58, -1287.80, 0.000, 0.000, 0.000, 12:46:45.128
164, -1056.03, -1071.91, -1684.75, -948.31, 0.000, 0.000, 0.000, 12:46:45.128
165, -589.34, -562.56, -1245.76, -478.47, 0.000, 0.000, 0.000, 12:46:45.158
166, -753.39, -717.79, -1420.10, -630.30, 0.000, 0.000, 0.000, 12:46:45.158
167, -1401.52, -1430.58, -2024.64, -1284.91, 0.000, 0.000, 0.000, 12:46:45.159
168, -1062.53, -1090.11, -1689.24, -945.73, 0.000, 0.000, 0.000, 12:46:45.159
169, -594.83, -580.18, -1248.97, -474.05, 0.000, 0.000, 0.000, 12:46:45.159
170, -746.22, -723.97, -1424.82, -630.20, 0.000, 0.000, 0.000, 12:46:45.160
171, -1395.99, -1432.25, -2031.63, -1291.36, 0.000, 0.000, 0.000, 12:46:45.160
172, -1067.22, -1089.12, -1695.24, -950.16, 0.000, 0.000, 0.000, 12:46:45.160
173, -590.72, -574.78, -1254.16, -471.56, 0.000, 0.000, 0.000, 12:46:45.174
174, -742.83, -726.00, -1425.62, -630.95, 0.000, 0.000, 0.000, 12:46:45.174
175, -1396.60, -1439.75, -2031.03, -1289.63, 0.000, 0.000, 0.000, 12:46:45.188
176, -1048.64, -1097.04, -1691.26, -942.27, 0.000, 0.000, 0.000, 12:46:45.188
177, -582.78, -586.68, -1265.96, -464.18, 0.000, 0.000, 0.000, 12:46:45.203
178, -729.88, -738.67, -1433.58, -619.38, 0.000, 0.000, 0.000, 12:46:45.203
179, -1381.52, -1444.58, -2033.03, -1278.81, 0.000, 0.000, 0.000, 12:46:45.204
180, -1054.13, -1105.91, -1694.84, -942.37, 0.000, 0.000, 0.000, 12:46:45.204
181, -580.98, -588.30, -1260.32, -473.00, 0.000, 0.000, 0.000, 12:46:45.218
182, -742.27, -727.03, -1426.12, -618.20, 0.000, 0.000, 0.000, 12:46:45.218
183, -1384.27, -1436.68, -2033.73, -1274.72, 0.000, 0.000, 0.000, 12:46:45.233
184, -1059.49, -1102.19, -1706.14, -951.31, 0.000, 0.000, 0.000, 12:46:45.233
185, -592.63, -590.54, -1269.82, -479.01, 0.000, 0.000, 0.000, 12:46:45.234
186, -725.55, -722.37, -1419.69, -618.83, 0.000, 0.000, 0.000, 12:46:45.234
187, -1390.32, -1433.82, -2032.03, -1278.31, 0.000, 0.000, 0.000, 12:46:45.248
188, -1061.86, -1102.54, -1704.55, -953.29, 0.000, 0.000, 0.000, 12:46:45.249
189, -600.33, -590.70, -1264.94, -480.71, 0.000, 0.000, 0.000, 12:46:45.294
190, -735.97, -716.31, -1423.09, -618.65, 0.000, 0.000, 0.000, 12:46:45.294
191, -1397.82, -1439.62, -2037.51, -1278.02, 0.000, 0.000, 0.000, 12:46:45.295
192, -1066.07, -1103.94, -1711.91, -946.32, 0.000, 0.000, 0.000, 12:46:45.295
193, -593.70, -612.25, -1270.26, -477.86, 0.000, 0.000, 0.000, 12:46:45.296
194, -734.07, -730.71, -1422.79, -611.59, 0.000, 0.000, 0.000, 12:46:45.296
195, -1380.91, -1454.81, -2024.89, -1268.58, 0.000, 0.000, 0.000, 12:46:45.296
196, -1060.81, -1110.95, -1707.85, -952.08, 0.000, 0.000, 0.000, 12:46:45.296
197, -584.06, -607.07, -1266.17, -477.51, 0.000, 0.000, 0.000, 12:46:45.297
198, -680.01, -739.90, -1410.44, -609.28, 0.000, 0.000, 0.000, 12:46:45.298
199, -1340.28, -1462.76, -2028.42, -1271.76, 0.000, 0.000, 0.000, 12:46:45.308
200, -991.48, -1141.04, -1710.04, -949.49, 0.000, 0.000, 0.000, 12:46:45.308
0, -504.87, -661.59, -1274.58, -478.23, 0.000, 0.000, 0.000, 12:46:45.309
1, -603.43, -769.43, -1421.63, -615.62, 0.000, 0.000, 0.000, 12:46:45.323
2, -1238.94, -1514.38, -2051.21, -1287.82, 0.000, 0.000, 0.000, 12:46:45.323
3, -886.56, -1210.61, -1729.85, -957.03, 0.000, 0.000, 0.000, 12:46:45.346
4, -414.43, -720.34, -1293.92, -483.73, 0.000, 0.000, 0.000, 12:46:45.346
5, -540.90, -834.38, -1433.64, -613.05, 0.000, 0.000, 0.000, 12:46:45.346
6, -1210.43, -1550.02, -2059.26, -1290.38, 0.000, 0.000, 0.000, 12:46:45.347
7, -903.07, -1225.42, -1734.84, -964.75, 0.000, 0.000, 0.000, 12:46:45.354
8, -464.25, -703.66, -1296.70, -491.83, 0.000, 0.000, 0.000, 12:46:45.354
9, -597.26, -807.06, -1436.31, -612.52, 0.000, 0.000, 0.000, 12:46:45.383
10, -1279.53, -1518.55, -2038.90, -1269.75, 0.000, 0.000, 0.000, 12:46:45.383
11, -969.51, -1178.42, -1722.42, -951.87, 0.000, 0.000, 0.000, 12:46:45.383
12, -509.02, -657.57, -1287.53, -479.55, 0.000, 0.000, 0.000, 12:46:45.384
13, -651.40, -749.92, -1420.65, -603.95, 0.000, 0.000, 0.000, 12:46:45.384
14, -1339.62, -1456.92, -2039.57, -1269.80, 0.000, 0.000, 0.000, 12:46:45.385
15, -1035.58, -1137.24, -1717.94, -944.42, 0.000, 0.000, 0.000, 12:46:45.391
16, -588.92, -612.39, -1280.38, -480.48, 0.000, 0.000, 0.000, 12:46:45.391
17, -725.75, -712.12, -1422.49, -600.00, 0.000, 0.000, 0.000, 12:46:45.398
18, -1404.77, -1436.03, -2038.69, -1266.99, 0.000, 0.000, 0.000, 12:46:45.399
19, -1095.79, -1103.41, -1717.91, -943.50, 0.000, 0.000, 0.000, 12:46:45.413
20, -639.04, -591.47, -1278.88, -481.34, 0.000, 0.000, 0.000, 12:46:45.415
21, -759.69, -694.38, -1412.08, -599.40, 0.000, 0.000, 0.000, 12:46:45.429
22, -1439.78, -1416.23, -2031.05, -1269.77, 0.000, 0.000, 0.000, 12:46:45.429
23, -1124.51, -1088.96, -1712.87, -950.58, 0.000, 0.000, 0.000, 12:46:45.430
24, -661.02, -577.76, -1277.92, -492.21, 0.000, 0.000, 0.000, 12:46:45.430
25, -769.05, -681.34, -1416.55, -593.13, 0.000, 0.000, 0.000, 12:46:45.444
26, -1454.53, -1405.95, -2032.08, -1263.24, 0.000, 0.000, 0.000, 12:46:45.444
27, -1144.96, -1100.57, -1714.93, -953.42, 0.000, 0.000, 0.000, 12:46:45.458
28, -668.22, -591.96, -1270.57, -491.29, 0.000, 0.000, 0.000, 12:46:45.458
29, -764.53, -688.31, -1396.50, -598.49, 0.000, 0.000, 0.000, 12:46:45.459
30, -1440.13, -1413.27, -2011.65, -1255.92, 0.000, 0.000, 0.000, 12:46:45.459
31, -1129.56, -1085.87, -1706.47, -956.13, 0.000, 0.000, 0.000, 12:46:45.473
32, -647.85, -593.69, -1265.34, -480.26, 0.000, 0.000, 0.000, 12:46:45.474
33, -735.19, -697.94, -1392.61, -580.45, 0.000, 0.000, 0.000, 12:46:45.487
34, -1395.43, -1426.95, -2034.01, -1265.81, 0.000, 0.000, 0.000, 12:46:45.488
35, -1068.87, -1122.17, -1707.06, -948.57, 0.000, 0.000, 0.000, 12:46:45.488
36, -558.16, -644.84, -1268.61, -482.33, 0.000, 0.000, 0.000, 12:46:45.488
37, -646.19, -728.16, -1409.25, -611.93, 0.000, 0.000, 0.000, 12:46:45.503
38, -1295.76, -1507.79, -2052.04, -1276.01, 0.000, 0.000, 0.000, 12:46:45.503
39, -965.29, -1201.73, -1733.76, -957.75, 0.000, 0.000, 0.000, 12:46:45.520
40, -466.61, -703.59, -1290.12, -479.64, 0.000, 0.000, 0.000, 12:46:45.520
41, -575.00, -789.44, -1423.43, -595.28, 0.000, 0.000, 0.000, 12:46:45.521
42, -1260.20, -1529.22, -2050.13, -1280.41, 0.000, 0.000, 0.000, 12:46:45.521
43, -956.20, -1207.83, -1732.18, -951.05, 0.000, 0.000, 0.000, 12:46:45.534
44, -485.02, -691.65, -1294.53, -470.63, 0.000, 0.000, 0.000, 12:46:45.534
45, -601.36, -781.88, -1420.98, -574.43, 0.000, 0.000, 0.000, 12:46:45.549
46, -1328.71, -1542.35, -2070.02, -1283.35, 0.000, 0.000, 0.000, 12:46:45.549
47, -1000.10, -1205.10, -1727.51, -952.14, 0.000, 0.000, 0.000, 12:46:45.549
48, -526.14, -648.78, -1280.18, -463.46, 0.000, 0.000, 0.000, 12:46:45.549
49, -640.04, -734.38, -1400.02, -576.86, 0.000, 0.000, 0.000, 12:46:45.563
50, -1376.50, -1511.79, -2065.65, -1279.73, 0.000, 0.000, 0.000, 12:46:45.563
51, -1063.23, -1165.21, -1737.66, -956.76, 0.000, 0.000, 0.000, 12:46:45.578
52, -581.40, -616.72, -1269.57, -462.57, 0.000, 0.000, 0.000, 12:46:45.578
53, -693.12, -685.31, -1390.51, -563.95, 0.000, 0.000, 0.000, 12:46:45.579
54, -1437.64, -1473.68, -2068.40, -1299.18, 0.000, 0.000, 0.000, 12:46:45.579
55, -1113.06, -1127.96, -1730.18, -978.68, 0.000, 0.000, 0.000, 12:46:45.594
56, -623.28, -572.33, -1256.59, -474.04, 0.000, 0.000, 0.000, 12:46:45.594
57, -739.57, -651.06, -1379.06, -564.44, 0.000, 0.000, 0.000, 12:46:45.608
58, -1481.06, -1446.76, -2069.91, -1297.81, 0.000, 0.000, 0.000, 12:46:45.608
59, -1160.33, -1108.29, -1730.57, -967.93, 0.000, 0.000, 0.000, 12:46:45.611
60, -640.08, -549.00, -1249.00, -467.30, 0.000, 0.000, 0.000, 12:46:45.611
61, -746.18, -622.19, -1366.85, -562.78, 0.000, 0.000, 0.000, 12:46:45.638
62, -1508.59, -1444.18, -2074.10, -1305.82, 0.000, 0.000, 0.000, 12:46:45.638
63, -1171.77, -1104.25, -1725.30, -980.31, 0.000, 0.000, 0.000, 12:46:45.639
64, -655.22, -534.82, -1242.02, -465.24, 0.000, 0.000, 0.000, 12:46:45.640
65, -745.98, -616.23, -1361.82, -552.82, 0.000, 0.000, 0.000, 12:46:45.641
66, -1514.34, -1450.37, -2072.92, -1310.09, 0.000, 0.000, 0.000, 12:46:45.641
67, -1175.16, -1111.73, -1731.65, -977.84, 0.000, 0.000, 0.000, 12:46:45.653
68, -651.11, -541.86, -1241.16, -457.80, 0.000, 0.000, 0.000, 12:46:45.653
69, -750.63, -617.37, -1362.18, -558.48, 0.000, 0.000, 0.000, 12:46:45.668
70, -1529.24, -1463.83, -2085.99, -1324.57, 0.000, 0.000, 0.000, 12:46:45.669
71, -1178.16, -1115.26, -1733.97, -975.48, 0.000, 0.000, 0.000, 12:46:45.669
72, -638.12, -540.68, -1238.54, -466.04, 0.000, 0.000, 0.000, 12:46:45.669
73, -727.55, -619.52, -1353.80, -546.61, 0.000, 0.000, 0.000, 12:46:45.684
74, -1514.45, -1461.61, -2085.21, -1312.83, 0.000, 0.000, 0.000, 12:46:45.685
75, -1170.12, -1124.03, -1736.99, -979.60, 0.000, 0.000, 0.000, 12:46:45.713
76, -632.16, -540.96, -1243.79, -455.90, 0.000, 0.000, 0.000, 12:46:45.714
77, -710.21, -611.64, -1344.95, -542.92, 0.000, 0.000, 0.000, 12:46:45.714
78, -1506.14, -1469.95, -2085.84, -1326.85, 0.000, 0.000, 0.000, 12:46:45.714
79, -1166.95, -1136.16, -1740.55, -989.70, 0.000, 0.000, 0.000, 12:46:45.715
80, -621.78, -556.59, -1247.56, -460.99, 0.000, 0.000, 0.000, 12:46:45.716
81, -700.67, -625.29, -1354.67, -538.27, 0.000, 0.000, 0.000, 12:46:45.716
82, -1502.00, -1483.95, -2090.79, -1316.22, 0.000, 0.000, 0.000, 12:46:45.716
83, -1164.09, -1146.05, -1744.85, -994.74, 0.000, 0.000, 0.000, 12:46:45.728
84, -622.54, -572.79, -1251.48, -467.81, 0.000, 0.000, 0.000, 12:46:45.729
85, -697.65, -629.12, -1345.25, -541.10, 0.000, 0.000, 0.000, 12:46:45.753
86, -1495.61, -1490.11, -2093.12, -1329.29, 0.000, 0.000, 0.000, 12:46:45.753
87, -1158.30, -1161.86, -1755.13, -998.75, 0.000, 0.000, 0.000, 12:46:45.758
88, -618.96, -564.81, -1245.60, -469.42, 0.000, 0.000, 0.000, 12:46:45.758
89, -691.46, -621.85, -1343.73, -540.50, 0.000, 0.000, 0.000, 12:46:45.759
90, -1483.35, -1488.96, -2093.72, -1321.25, 0.000, 0.000, 0.000, 12:46:45.759
91, -1154.68, -1159.43, -1758.79, -998.97, 0.000, 0.000, 0.000, 12:46:45.773
92, -614.07, -578.58, -1252.52, -470.70, 0.000, 0.000, 0.000, 12:46:45.773
93, -672.19, -623.24, -1340.58, -536.28, 0.000, 0.000, 0.000, 12:46:45.788
94, -1480.11, -1502.60, -2105.19, -1328.94, 0.000, 0.000, 0.000, 12:46:45.789
95, -1164.52, -1180.34, -1765.60, -1007.19, 0.000, 0.000, 0.000, 12:46:45.789
96, -605.43, -585.01, -1255.86, -460.56, 0.000, 0.000, 0.000, 12:46:45.789
97, -669.50, -625.80, -1342.32, -535.19, 0.000, 0.000, 0.000, 12:46:45.803
98, -1471.33, -1499.28, -2099.77, -1326.45, 0.000, 0.000, 0.000, 12:46:45.804
99, -1144.52, -1173.27, -1759.29, -1000.41, 0.000, 0.000, 0.000, 12:46:45.849
100, -600.50, -587.20, -1254.20, -473.68, 0.000, 0.000, 0.000, 12:46:45.849
101, -663.30, -633.19, -1343.00, -539.25, 0.000, 0.000, 0.000, 12:46:45.849
102, -1464.73, -1497.44, -2094.64, -1322.08, 0.000, 0.000, 0.000, 12:46:45.849
103, -1152.92, -1183.07, -1767.89, -998.86, 0.000, 0.000, 0.000, 12:46:45.850
104, -598.05, -594.10, -1259.24, -469.37, 0.000, 0.000, 0.000, 12:46:45.850
105, -659.24, -625.27, -1338.48, -530.19, 0.000, 0.000, 0.000, 12:46:45.850
106, -1463.53, -1506.01, -2101.54, -1316.51, 0.000, 0.000, 0.000, 12:46:45.851
107, -1142.20, -1186.91, -1767.58, -999.04, 0.000, 0.000, 0.000, 12:46:45.851
108, -596.14, -586.31, -1259.52, -471.52, 0.000, 0.000, 0.000, 12:46:45.851
109, -656.15, -630.03, -1337.20, -526.09, 0.000, 0.000, 0.000, 12:46:45.863
110, -1466.40, -1503.17, -2092.81, -1319.16, 0.000, 0.000, 0.000, 12:46:45.863
111, -1143.91, -1187.50, -1770.04, -1004.38, 0.000, 0.000, 0.000, 12:46:45.879
112, -599.72, -610.20, -1271.82, -475.78, 0.000, 0.000, 0.000, 12:46:45.879
113, -642.89, -629.57, -1340.73, -532.08, 0.000, 0.000, 0.000, 12:46:45.879
114, -1448.62, -1505.04, -2098.07, -1321.89, 0.000, 0.000, 0.000, 12:46:45.880
115, -1135.07, -1191.52, -1770.34, -1009.85, 0.000, 0.000, 0.000, 12:46:45.894
116, -583.47, -599.89, -1254.18, -479.75, 0.000, 0.000, 0.000, 12:46:45.894
117, -642.08, -631.72, -1332.92, -531.72, 0.000, 0.000, 0.000, 12:46:45.908
118, -1454.39, -1527.01, -2094.51, -1312.16, 0.000, 0.000, 0.000, 12:46:45.908
119, -1134.65, -1199.95, -1774.29, -1018.62, 0.000, 0.000, 0.000, 12:46:45.909
120, -589.46, -616.51, -1271.15, -483.44, 0.000, 0.000, 0.000, 12:46:45.910
121, -634.45, -658.44, -1341.79, -522.92, 0.000, 0.000, 0.000, 12:46:45.949
122, -1440.21, -1519.31, -2091.92, -1315.14, 0.000, 0.000, 0.000, 12:46:45.949
123, -1117.72, -1200.23, -1769.75, -1016.72, 0.000, 0.000, 0.000, 12:46:45.949
124, -568.24, -638.06, -1278.11, -484.74, 0.000, 0.000, 0.000, 12:46:45.949
125, -597.67, -677.27, -1338.17, -525.32, 0.000, 0.000, 0.000, 12:46:45.949
126, -1411.99, -1541.46, -2093.29, -1310.27, 0.000, 0.000, 0.000, 12:46:45.949
127, -1081.14, -1243.42, -1782.83, -1019.21, 0.000, 0.000, 0.000, 12:46:45.953
128, -533.41, -666.44, -1290.23, -492.50, 0.000, 0.000, 0.000, 12:46:45.954
129, -540.33, -700.61, -1346.96, -518.12, 0.000, 0.000, 0.000, 12:46:45.968
130, -1348.98, -1594.25, -2109.85, -1313.42, 0.000, 0.000, 0.000, 12:46:45.969
131, -1035.51, -1305.48, -1797.73, -1011.51, 0.000, 0.000, 0.000, 12:46:45.969
132, -479.50, -714.46, -1293.24, -494.76, 0.000, 0.000, 0.000, 12:46:45.970
133, -504.19, -715.29, -1338.60, -529.80, 0.000, 0.000, 0.000, 12:46:45.983
134, -1329.01, -1583.67, -2097.02, -1322.43, 0.000, 0.000, 0.000, 12:46:45.983
135, -1038.18, -1277.00, -1782.90, -1020.36, 0.000, 0.000, 0.000, 12:46:46.000
136, -510.34, -695.23, -1288.53, -487.68, 0.000, 0.000, 0.000, 12:46:46.001
137, -553.79, -690.73, -1346.72, -512.47, 0.000, 0.000, 0.000, 12:46:46.002
138, -1373.73, -1552.10, -2091.74, -1315.95, 0.000, 0.000, 0.000, 12:46:46.002
139, -1081.52, -1235.19, -1776.23, -1024.60, 0.000, 0.000, 0.000, 12:46:46.016
140, -563.45, -649.25, -1276.26, -498.22, 0.000, 0.000, 0.000, 12:46:46.017
141, -604.35, -649.62, -1333.67, -513.93, 0.000, 0.000, 0.000, 12:46:46.058
142, -1435.96, -1522.17, -2095.69, -1326.22, 0.000, 0.000, 0.000, 12:46:46.058
143, -1134.50, -1196.51, -1778.34, -1018.89, 0.000, 0.000, 0.000, 12:46:46.058
144, -616.47, -614.61, -1280.21, -493.85, 0.000, 0.000, 0.000, 12:46:46.059
145, -639.83, -609.47, -1322.01, -518.51, 0.000, 0.000, 0.000, 12:46:46.059
146, -1472.97, -1485.05, -2091.88, -1313.50, 0.000, 0.000, 0.000, 12:46:46.059
147, -1169.38, -1172.07, -1777.74, -1013.03, 0.000, 0.000, 0.000, 12:46:46.059
148, -635.64, -584.93, -1273.08, -493.67, 0.000, 0.000, 0.000, 12:46:46.059
149, -649.30, -588.35, -1319.23, -510.17, 0.000, 0.000, 0.000, 12:46:46.060
150, -1480.12, -1465.44, -2082.27, -1315.54, 0.000, 0.000, 0.000, 12:46:46.060
151, -1176.93, -1165.98, -1767.04, -1015.87, 0.000, 0.000, 0.000, 12:46:46.076
152, -643.89, -582.91, -1271.94, -489.81, 0.000, 0.000, 0.000, 12:46:46.076
153, -662.66, -573.75, -1313.89, -504.06, 0.000, 0.000, 0.000, 12:46:46.092
154, -1481.58, -1461.74, -2077.18, -1308.77, 0.000, 0.000, 0.000, 12:46:46.092
155, -1184.77, -1172.10, -1783.93, -1013.78, 0.000, 0.000, 0.000, 12:46:46.092
156, -651.49, -598.38, -1279.12, -491.04, 0.000, 0.000, 0.000, 12:46:46.092
157, -663.22, -590.81, -1320.62, -507.78, 0.000, 0.000, 0.000, 12:46:46.103
158, -1492.10, -1480.14, -2096.01, -1319.41, 0.000, 0.000, 0.000, 12:46:46.104
159, -1193.20, -1185.98, -1784.14, -1024.26, 0.000, 0.000, 0.000, 12:46:46.125
160, -658.58, -605.97, -1285.16, -496.40, 0.000, 0.000, 0.000, 12:46:46.125
161, -659.57, -590.00, -1317.48, -504.71, 0.000, 0.000, 0.000, 12:46:46.126
162, -1485.79, -1484.19, -2089.46, -1315.47, 0.000, 0.000, 0.000, 12:46:46.126
163, -1191.80, -1192.90, -1792.54, -1020.94, 0.000, 0.000, 0.000, 12:46:46.140
164, -650.04, -600.81, -1279.78, -492.24, 0.000, 0.000, 0.000, 12:46:46.140
165, -658.81, -585.48, -1313.67, -497.18, 0.000, 0.000, 0.000, 12:46:46.157
166, -1482.40, -1471.94, -2086.73, -1302.95, 0.000, 0.000, 0.000, 12:46:46.158
167, -1193.08, -1189.22, -1781.14, -1023.25, 0.000, 0.000, 0.000, 12:46:46.159
168, -649.06, -607.29, -1282.04, -493.11, 0.000, 0.000, 0.000, 12:46:46.160
169, -640.77, -582.52, -1304.63, -483.96, 0.000, 0.000, 0.000, 12:46:46.192
170, -1471.76, -1475.23, -2076.17, -1295.35, 0.000, 0.000, 0.000, 12:46:46.192
171, -1181.21, -1184.53, -1777.02, -1013.86, 0.000, 0.000, 0.000, 12:46:46.193
172, -635.38, -606.32, -1278.77, -481.29, 0.000, 0.000, 0.000, 12:46:46.193
173, -634.25, -582.20, -1302.32, -487.12, 0.000, 0.000, 0.000, 12:46:46.193
174, -1456.05, -1469.85, -2072.53, -1298.50, 0.000, 0.000, 0.000, 12:46:46.193
175, -1163.92, -1188.69, -1774.79, -1012.35, 0.000, 0.000, 0.000, 12:46:46.194
176, -631.19, -615.77, -1284.18, -490.55, 0.000, 0.000, 0.000, 12:46:46.194
177, -620.90, -582.13, -1297.91, -483.33, 0.000, 0.000, 0.000, 12:46:46.195
178, -1451.89, -1473.83, -2074.25, -1301.95, 0.000, 0.000, 0.000, 12:46:46.195
179, -1171.48, -1195.14, -1785.56, -1023.02, 0.000, 0.000, 0.000, 12:46:46.209
180, -631.41, -625.49, -1289.50, -503.76, 0.000, 0.000, 0.000, 12:46:46.210
181, -616.08, -588.70, -1300.46, -492.20, 0.000, 0.000, 0.000, 12:46:46.228
182, -1447.97, -1481.43, -2072.45, -1311.14, 0.000, 0.000, 0.000, 12:46:46.228
183, -1161.76, -1196.32, -1773.72, -1024.64, 0.000, 0.000, 0.000, 12:46:46.249
184, -626.85, -616.17, -1270.34, -504.36, 0.000, 0.000, 0.000, 12:46:46.250
185, -606.11, -575.02, -1289.60, -486.65, 0.000, 0.000, 0.000, 12:46:46.250
186, -1436.61, -1474.30, -2066.84, -1296.56, 0.000, 0.000, 0.000, 12:46:46.250
187, -1152.93, -1198.06, -1775.66, -1016.09, 0.000, 0.000, 0.000, 12:46:46.268
188, -612.33, -618.66, -1277.65, -489.98, 0.000, 0.000, 0.000, 12:46:46.268
189, -597.43, -580.43, -1289.41, -473.95, 0.000, 0.000, 0.000, 12:46:46.269
190, -1432.31, -1468.44, -2063.15, -1287.49, 0.000, 0.000, 0.000, 12:46:46.269
191, -1154.10, -1200.92, -1781.66, -1023.67, 0.000, 0.000, 0.000, 12:46:46.270
192, -623.47, -621.75, -1284.02, -499.94, 0.000, 0.000, 0.000, 12:46:46.270
193, -594.19, -579.02, -1292.29, -477.51, 0.000, 0.000, 0.000, 12:46:46.283
194, -1431.40, -1477.16, -2071.15, -1297.43, 0.000, 0.000, 0.000, 12:46:46.283
195, -1161.78, -1213.82, -1785.68, -1030.22, 0.000, 0.000, 0.000, 12:46:46.298
196, -613.18, -626.62, -1286.59, -501.37, 0.000, 0.000, 0.000, 12:46:46.298
197, -593.59, -578.92, -1287.22, -486.45, 0.000, 0.000, 0.000, 12:46:46.299
198, -1429.59, -1469.73, -2067.20, -1304.12, 0.000, 0.000, 0.000, 12:46:46.299
199, -1155.54, -1207.95, -1789.44, -1033.24, 0.000, 0.000, 0.000, 12:46:46.333
200, -630.57, -631.18, -1293.33, -505.06, 0.000, 0.000, 0.000, 12:46:46.333
0, -598.09, -576.91, -1290.63, -470.83, 0.000, 0.000, 0.000, 12:46:46.334
1, -1433.59, -1481.17, -2072.90, -1293.54, 0.000, 0.000, 0.000, 12:46:46.338
2, -1169.41, -1221.37, -1790.70, -1033.74, 0.000, 0.000, 0.000, 12:46:46.338
3, -619.57, -628.10, -1288.01, -504.52, 0.000, 0.000, 0.000, 12:46:46.338
4, -586.69, -571.79, -1281.28, -468.09, 0.000, 0.000, 0.000, 12:46:46.338
5, -1426.60, -1474.05, -2067.48, -1297.55, 0.000, 0.000, 0.000, 12:46:46.343
6, -1163.89, -1220.62, -1792.68, -1039.52, 0.000, 0.000, 0.000, 12:46:46.343
7, -611.02, -626.48, -1282.34, -505.17, 0.000, 0.000, 0.000, 12:46:46.368
8, -579.13, -567.10, -1279.18, -473.42, 0.000, 0.000, 0.000, 12:46:46.369
9, -1432.64, -1476.64, -2069.68, -1296.73, 0.000, 0.000, 0.000, 12:46:46.386
10, -1152.40, -1213.51, -1790.56, -1039.80, 0.000, 0.000, 0.000, 12:46:46.386
11, -613.04, -635.11, -1284.68, -516.12, 0.000, 0.000, 0.000, 12:46:46.410
12, -568.46, -567.00, -1271.17, -466.82, 0.000, 0.000, 0.000, 12:46:46.410
13, -1426.37, -1492.15, -2073.20, -1289.63, 0.000, 0.000, 0.000, 12:46:46.412
14, -1139.92, -1219.77, -1785.93, -1032.17, 0.000, 0.000, 0.000, 12:46:46.412
15, -595.08, -631.60, -1280.19, -513.04, 0.000, 0.000, 0.000, 12:46:46.413
16, -560.20, -567.62, -1273.02, -482.53, 0.000, 0.000, 0.000, 12:46:46.413
17, -1405.79, -1468.22, -2048.65, -1296.16, 0.000, 0.000, 0.000, 12:46:46.421
18, -1146.63, -1224.16, -1779.66, -1049.49, 0.000, 0.000, 0.000, 12:46:46.421
19, -618.58, -643.40, -1282.02, -527.77, 0.000, 0.000, 0.000, 12:46:46.422
20, -580.41, -580.98, -1269.70, -483.78, 0.000, 0.000, 0.000, 12:46:46.422
21, -1413.23, -1476.10, -2057.18, -1293.99, 0.000, 0.000, 0.000, 12:46:46.434
22, -1151.95, -1221.85, -1785.84, -1041.83, 0.000, 0.000, 0.000, 12:46:46.435
23, -631.32, -654.45, -1295.95, -527.90, 0.000, 0.000, 0.000, 12:46:46.435
24, -591.72, -585.70, -1283.23, -490.57, 0.000, 0.000, 0.000, 12:46:46.435
25, -1426.03, -1488.08, -2074.35, -1296.86, 0.000, 0.000, 0.000, 12:46:46.449
26, -1171.66, -1236.65, -1806.55, -1048.00, 0.000, 0.000, 0.000, 12:46:46.450
27, -641.61, -662.94, -1306.25, -532.62, 0.000, 0.000, 0.000, 12:46:46.463
28, -597.04, -587.70, -1287.73, -491.49, 0.000, 0.000, 0.000, 12:46:46.464
29, -1434.46, -1492.54, -2080.56, -1304.27, 0.000, 0.000, 0.000, 12:46:46.464
30, -1177.44, -1244.34, -1813.17, -1051.27, 0.000, 0.000, 0.000, 12:46:46.464
31, -646.68, -682.42, -1325.77, -545.11, 0.000, 0.000, 0.000, 12:46:46.502
32, -593.90, -598.40, -1300.60, -502.38, 0.000, 0.000, 0.000, 12:46:46.502
33, -1439.73, -1496.82, -2087.47, -1323.43, 0.000, 0.000, 0.000, 12:46:46.502
34, -1196.29, -1262.69, -1827.23, -1084.11, 0.000, 0.000, 0.000, 12:46:46.502
35, -660.74, -687.98, -1329.52, -555.65, 0.000, 0.000, 0.000, 12:46:46.503
36, -600.27, -616.87, -1312.98, -502.49, 0.000, 0.000, 0.000, 12:46:46.503
37, -1446.37, -1515.50, -2098.64, -1330.98, 0.000, 0.000, 0.000, 12:46:46.508
38, -1188.21, -1263.92, -1828.31, -1073.49, 0.000, 0.000, 0.000, 12:46:46.509
39, -648.07, -682.28, -1323.09, -547.14, 0.000, 0.000, 0.000, 12:46:46.529
40, -576.63, -602.27, -1285.79, -500.82, 0.000, 0.000, 0.000, 12:46:46.530
41, -1422.92, -1511.23, -2079.35, -1312.32, 0.000, 0.000, 0.000, 12:46:46.531
42, -1142.71, -1275.34, -1803.73, -1059.78, 0.000, 0.000, 0.000, 12:46:46.532
43, -603.75, -674.98, -1307.13, -534.11, 0.000, 0.000, 0.000, 12:46:46.538
44, -527.43, -612.40, -1281.28, -477.40, 0.000, 0.000, 0.000, 12:46:46.538
45, -1366.68, -1519.98, -2079.72, -1305.45, 0.000, 0.000, 0.000, 12:46:46.554
46, -1091.22, -1291.76, -1811.23, -1052.40, 0.000, 0.000, 0.000, 12:46:46.554
47, -536.31, -728.58, -1327.59, -541.02, 0.000, 0.000, 0.000, 12:46:46.554
48, -459.82, -654.41, -1292.99, -487.44, 0.000, 0.000, 0.000, 12:46:46.554
49, -1315.68, -1576.27, -2097.69, -1312.77, 0.000, 0.000, 0.000, 12:46:46.568
50, -1075.78, -1351.65, -1847.40, -1070.93, 0.000, 0.000, 0.000, 12:46:46.569
51, -560.01, -795.73, -1375.41, -567.87, 0.000, 0.000, 0.000, 12:46:46.598
52, -519.80, -709.70, -1346.92, -509.02, 0.000, 0.000, 0.000, 12:46:46.598
53, -1399.38, -1625.06, -2155.66, -1356.10, 0.000, 0.000, 0.000, 12:46:46.598
54, -1165.32, -1375.27, -1895.49, -1117.93, 0.000, 0.000, 0.000, 12:46:46.599
55, -649.63, -794.57, -1400.89, -604.38, 0.000, 0.000, 0.000, 12:46:46.600
56, -592.29, -694.51, -1361.94, -534.78, 0.000, 0.000, 0.000, 12:46:46.600
57, -1462.71, -1604.17, -2172.19, -1361.80, 0.000, 0.000, 0.000, 12:46:46.601
58, -1222.91, -1355.52, -1911.38, -1119.26, 0.000, 0.000, 0.000, 12:46:46.601
59, -698.27, -761.05, -1396.97, -591.74, 0.000, 0.000, 0.000, 12:46:46.620
60, -634.13, -645.04, -1346.85, -523.15, 0.000, 0.000, 0.000, 12:46:46.620
61, -1504.54, -1547.40, -2149.95, -1342.58, 0.000, 0.000, 0.000, 12:46:46.628
62, -1259.22, -1299.09, -1881.86, -1095.65, 0.000, 0.000, 0.000, 12:46:46.628
63, -709.13, -698.47, -1367.52, -573.49, 0.000, 0.000, 0.000, 12:46:46.648
64, -641.02, -597.87, -1321.92, -504.76, 0.000, 0.000, 0.000, 12:46:46.648
65, -1506.41, -1510.76, -2132.90, -1339.03, 0.000, 0.000, 0.000, 12:46:46.649
66, -1272.00, -1270.54, -1870.18, -1104.89, 0.000, 0.000, 0.000, 12:46:46.649
67, -730.90, -696.23, -1368.89, -588.68, 0.000, 0.000, 0.000, 12:46:46.658
68, -668.35, -592.13, -1317.71, -520.44, 0.000, 0.000, 0.000, 12:46:46.659
69, -1527.98, -1502.82, -2125.69, -1344.60, 0.000, 0.000, 0.000, 12:46:46.673
70, -1276.05, -1265.22, -1859.17, -1096.65, 0.000, 0.000, 0.000, 12:46:46.673
71, -736.51, -686.69, -1359.47, -575.48, 0.000, 0.000, 0.000, 12:46:46.674
72, -653.14, -581.82, -1307.93, -499.31, 0.000, 0.000, 0.000, 12:46:46.674
73, -1506.46, -1493.45, -2109.37, -1328.67, 0.000, 0.000, 0.000, 12:46:46.699
74, -1270.63, -1261.78, -1852.89, -1093.05, 0.000, 0.000, 0.000, 12:46:46.699
75, -717.66, -661.68, -1343.59, -563.16, 0.000, 0.000, 0.000, 12:46:46.723
76, -624.83, -555.93, -1295.63, -474.70, 0.000, 0.000, 0.000, 12:46:46.723
77, -1477.78, -1465.26, -2100.95, -1305.54, 0.000, 0.000, 0.000, 12:46:46.734
78, -1255.77, -1240.18, -1833.74, -1078.50, 0.000, 0.000, 0.000, 12:46:46.734
79, -720.20, -666.60, -1324.06, -553.80, 0.000, 0.000, 0.000, 12:46:46.734
80, -610.87, -538.72, -1276.28, -480.57, 0.000, 0.000, 0.000, 12:46:46.734
81, -1490.44, -1463.84, -2086.03, -1303.49, 0.000, 0.000, 0.000, 12:46:46.736
82, -1224.98, -1246.85, -1830.31, -1084.88, 0.000, 0.000, 0.000, 12:46:46.736
83, -684.51, -654.65, -1322.10, -562.65, 0.000, 0.000, 0.000, 12:46:46.736
84, -605.03, -550.57, -1267.07, -472.49, 0.000, 0.000, 0.000, 12:46:46.736
85, -1455.30, -1453.94, -2080.47, -1306.29, 0.000, 0.000, 0.000, 12:46:46.759
86, -1225.99, -1228.38, -1830.98, -1077.99, 0.000, 0.000, 0.000, 12:46:46.759
87, -687.50, -652.37, -1330.35, -553.25, 0.000, 0.000, 0.000, 12:46:46.767
88, -583.38, -536.30, -1258.68, -463.86, 0.000, 0.000, 0.000, 12:46:46.768
89, -1455.81, -1440.27, -2063.46, -1284.77, 0.000, 0.000, 0.000, 12:46:46.768
90, -1200.09, -1217.26, -1808.94, -1050.51, 0.000, 0.000, 0.000, 12:46:46.769
91, -663.40, -636.59, -1301.59, -530.86, 0.000, 0.000, 0.000, 12:46:46.778
92, -564.60, -523.11, -1241.05, -442.62, 0.000, 0.000, 0.000, 12:46:46.778
93, -1422.26, -1428.21, -2050.90, -1279.10, 0.000, 0.000, 0.000, 12:46:46.801
94, -1194.55, -1211.75, -1811.20, -1035.74, 0.000, 0.000, 0.000, 12:46:46.801
95, -642.20, -628.64, -1297.77, -530.52, 0.000, 0.000, 0.000, 12:46:46.801
96, -545.25, -510.71, -1223.49, -423.19, 0.000, 0.000, 0.000, 12:46:46.801
97, -1405.71, -1421.26, -2036.94, -1264.45, 0.000, 0.000, 0.000, 12:46:46.834
98, -1190.04, -1206.74, -1797.66, -1041.47, 0.000, 0.000, 0.000, 12:46:46.834
99, -634.33, -608.95, -1286.37, -513.63, 0.000, 0.000, 0.000, 12:46:46.834
100, -539.87, -491.09, -1225.30, -423.13, 0.000, 0.000, 0.000, 12:46:46.835
101, -1393.90, -1420.09, -2034.38, -1265.70, 0.000, 0.000, 0.000, 12:46:46.835
102, -1168.41, -1207.77, -1795.75, -1048.20, 0.000, 0.000, 0.000, 12:46:46.835
103, -632.27, -615.41, -1294.02, -532.18, 0.000, 0.000, 0.000, 12:46:46.838
104, -538.29, -508.24, -1222.21, -435.31, 0.000, 0.000, 0.000, 12:46:46.839
105, -1395.83, -1417.91, -2032.65, -1249.28, 0.000, 0.000, 0.000, 12:46:46.861
106, -1179.13, -1188.03, -1801.49, -1034.45, 0.000, 0.000, 0.000, 12:46:46.861
107, -643.44, -632.10, -1303.24, -506.42, 0.000, 0.000, 0.000, 12:46:46.862
108, -522.74, -491.25, -1221.25, -417.35, 0.000, 0.000, 0.000, 12:46:46.863
109, -1399.42, -1412.97, -2050.21, -1264.92, 0.000, 0.000, 0.000, 12:46:46.868
110, -1175.87, -1240.90, -1810.06, -1032.85, 0.000, 0.000, 0.000, 12:46:46.868
111, -635.23, -630.99, -1304.73, -530.74, 0.000, 0.000, 0.000, 12:46:46.883
112, -532.62, -484.38, -1220.65, -425.60, 0.000, 0.000, 0.000, 12:46:46.884
113, -1395.88, -1433.11, -2049.09, -1265.65, 0.000, 0.000, 0.000, 12:46:46.884
114, -1169.12, -1206.37, -1802.51, -1055.41, 0.000, 0.000, 0.000, 12:46:46.884
115, -647.08, -616.80, -1301.69, -536.38, 0.000, 0.000, 0.000, 12:46:46.903
116, -535.98, -482.13, -1238.65, -437.98, 0.000, 0.000, 0.000, 12:46:46.903
117, -1404.48, -488.35, -2067.55, -1268.18, 0.000, 0.000, 0.000, 12:46:46.919
118, -1187.98, -268.23, -1814.47, -1048.20, 0.000, 0.000, 0.000, 12:46:46.919
119, -642.02, 317.07, -1308.92, -542.97, 0.000, 0.000, 0.000, 12:46:46.920
120, -534.19, 466.05, -1222.63, -439.50, 0.000, 0.000, 0.000, 12:46:46.922
121, -1398.97, -486.07, -2054.61, -1279.77, 0.000, 0.000, 0.000, 12:46:46.944
122, -1169.15, -278.77, -1828.82, -1053.40, 0.000, 0.000, 0.000, 12:46:46.944
123, -617.93, 293.71, -1303.21, -530.50, 0.000, 0.000, 0.000, 12:46:46.962
124, -510.66, 482.94, -1214.09, -436.70, 0.000, 0.000, 0.000, 12:46:46.963
125, -1365.95, -470.49, -2025.15, -1279.54, 0.000, 0.000, 0.000, 12:46:46.975
126, -1146.92, -262.84, -1806.19, -1059.25, 0.000, 0.000, 0.000, 12:46:46.975
127, -594.26, 251.09, -1312.64, -548.84, 0.000, 0.000, 0.000, 12:46:46.975
128, -438.36, 453.90, -1219.16, -434.95, 0.000, 0.000, 0.000, 12:46:46.976
129, -1311.06, -498.94, -2069.08, -1280.74, 0.000, 0.000, 0.000, 12:46:46.976
130, -1043.85, -374.93, -1826.22, -1029.48, 0.000, 0.000, 0.000, 12:46:46.976
131, -472.03, 197.84, -1343.11, -572.62, 0.000, 0.000, 0.000, 12:46:46.981
132, -385.70, 403.54, -1260.54, -430.85, 0.000, 0.000, 0.000, 12:46:46.981
133, -1251.39, 383.67, -2066.81, -1264.42, 0.000, 0.000, 0.000, 12:46:46.994
134, -1021.83, 558.17, -1843.34, -1042.65, 0.000, 0.000, 0.000, 12:46:46.994
135, -523.17, 1181.99, -1347.19, -540.85, 0.000, 0.000, 0.000, 12:46:47.004
136, -405.70, 1326.36, -1247.56, -395.26, 0.000, 0.000, 0.000, 12:46:47.005
137, -1293.01, 429.87, -2071.44, -1217.56, 0.000, 0.000, 0.000, 12:46:47.005
138, -1100.80, 607.82, -1844.30, -1005.59, 0.000, 0.000, 0.000, 12:46:47.005
139, -581.89, 1171.51, -1349.66, -476.15, 0.000, 0.000, 0.000, 12:46:47.018
140, -459.65, 1352.08, -1248.37, -358.58, 0.000, 0.000, 0.000, 12:46:47.018
141, -1337.02, 455.83, -2068.45, -1191.28, 0.000, 0.000, 0.000, 12:46:47.056
142, -1159.43, 618.69, -1858.88, -989.42, 0.000, 0.000, 0.000, 12:46:47.056
143, -623.69, 1224.11, -1354.91, -526.56, 0.000, 0.000, 0.000, 12:46:47.057
144, -495.02, 1421.37, -1242.07, -365.73, 0.000, 0.000, 0.000, 12:46:47.057
145, -1403.38, 497.08, -2064.45, -1246.50, 0.000, 0.000, 0.000, 12:46:47.057
146, -1174.75, 700.70, -1855.73, -1061.81, 0.000, 0.000, 0.000, 12:46:47.057
147, -666.84, 1295.77, -1340.64, -551.09, 0.000, 0.000, 0.000, 12:46:47.057
148, -546.66, 1451.74, -1249.61, -415.51, 0.000, 0.000, 0.000, 12:46:47.058
149, -1417.19, 541.45, -2051.90, -1290.66, 0.000, 0.000, 0.000, 12:46:47.063
150, -1250.58, 724.47, -1833.15, -1084.74, 0.000, 0.000, 0.000, 12:46:47.063
151, -702.38, 1305.15, -1353.50, -567.14, 0.000, 0.000, 0.000, 12:46:47.083
152, -576.79, 1498.32, -1254.07, -446.73, 0.000, 0.000, 0.000, 12:46:47.083
153, -1453.10, 550.40, -2051.35, -1296.52, 0.000, 0.000, 0.000, 12:46:47.093
154, -1263.38, 749.10, -1825.19, -1106.32, 0.000, 0.000, 0.000, 12:46:47.093
155, -722.34, 1310.63, -1338.50, -589.90, 0.000, 0.000, 0.000, 12:46:47.093
156, -576.74, 1498.24, -1214.56, -457.01, 0.000, 0.000, 0.000, 12:46:47.093
157, -1442.54, 580.73, -2024.71, -1287.99, 0.000, 0.000, 0.000, 12:46:47.123
158, -1250.93, 755.98, -1823.77, -1105.04, 0.000, 0.000, 0.000, 12:46:47.124
159, -726.25, 1319.55, -1309.96, -568.76, 0.000, 0.000, 0.000, 12:46:47.125
160, -578.61, 1495.32, -1205.50, -415.32, 0.000, 0.000, 0.000, 12:46:47.125
161, -1436.21, 574.18, -2063.86, -1291.45, 0.000, 0.000, 0.000, 12:46:47.127
162, -1252.34, 752.31, -1792.84, -1085.36, 0.000, 0.000, 0.000, 12:46:47.127
163, -713.31, 1329.00, -1315.04, -564.78, 0.000, 0.000, 0.000, 12:46:47.154
164, -569.64, 1489.73, -1206.06, -428.43, 0.000, 0.000, 0.000, 12:46:47.154
165, -1433.02, 556.70, -2029.72, -1264.91, 0.000, 0.000, 0.000, 12:46:47.155
166, -1251.19, 729.53, -1815.94, -1085.64, 0.000, 0.000, 0.000, 12:46:47.155
167, -712.88, 1315.63, -1316.31, -570.16, 0.000, 0.000, 0.000, 12:46:47.162
168, -550.11, 1503.60, -1218.01, -420.53, 0.000, 0.000, 0.000, 12:46:47.163
169, -1419.18, 564.95, -2021.75, -1260.17, 0.000, 0.000, 0.000, 12:46:47.183
170, -1238.40, 723.70, -1813.35, -1104.20, 0.000, 0.000, 0.000, 12:46:47.184
171, -701.01, 1297.48, -1319.64, -574.62, 0.000, 0.000, 0.000, 12:46:47.184
172, -535.71, 1482.45, -1212.65, -427.90, 0.000, 0.000, 0.000, 12:46:47.184
173, -1419.85, 541.76, -2037.03, -1223.39, 0.000, 0.000, 0.000, 12:46:47.185
174, -1243.76, 717.97, -1829.14, -1076.42, 0.000, 0.000, 0.000, 12:46:47.185
175, -699.62, 1310.92, -1337.06, -564.98, 0.000, 0.000, 0.000, 12:46:47.205
176, -542.46, 1495.11, -1190.97, -433.14, 0.000, 0.000, 0.000, 12:46:47.205
177, -1406.04, 555.87, -2027.46, -1257.48, 0.000, 0.000, 0.000, 12:46:47.221
178, -1227.56, 705.65, -1828.93, -1087.72, 0.000, 0.000, 0.000, 12:46:47.221
179, -694.73, 1278.78, -1358.15, -574.33, 0.000, 0.000, 0.000, 12:46:47.221
180, -534.90, 1486.61, -1195.68, -420.38, 0.000, 0.000, 0.000, 12:46:47.221
181, -1420.02, 533.14, -2019.54, -1246.16, 0.000, 0.000, 0.000, 12:46:47.241
182, -1217.99, 712.38, -1835.16, -1094.75, 0.000, 0.000, 0.000, 12:46:47.241
183, -697.56, 1272.09, -1344.68, -558.29, 0.000, 0.000, 0.000, 12:46:47.243
184, -530.47, 1470.13, -1210.67, -408.77, 0.000, 0.000, 0.000, 12:46:47.243
185, -1385.66, 543.52, -2023.63, -1261.91, 0.000, 0.000, 0.000, 12:46:47.243
186, -1211.66, 708.42, -1828.88, -1079.18, 0.000, 0.000, 0.000, 12:46:47.244
187, -695.08, 1277.80, -1333.87, -575.19, 0.000, 0.000, 0.000, 12:46:47.288
188, -521.07, 1470.69, -1201.17, -409.30, 0.000, 0.000, 0.000, 12:46:47.288
189, -1386.88, 535.76, -2022.88, -1249.33, 0.000, 0.000, 0.000, 12:46:47.288
190, -1203.93, 666.60, -1831.19, -1091.31, 0.000, 0.000, 0.000, 12:46:47.289
191, -681.67, 1258.24, -1336.80, -564.08, 0.000, 0.000, 0.000, 12:46:47.289
192, -514.50, 1463.96, -1191.18, -406.78, 0.000, 0.000, 0.000, 12:46:47.289
193, -1378.24, 525.09, -2022.49, -1242.40, 0.000, 0.000, 0.000, 12:46:47.303
194, -1194.72, 657.46, -1852.30, -1070.35, 0.000, 0.000, 0.000, 12:46:47.303
195, -641.97, 1220.27, -1341.45, -582.62, 0.000, 0.000, 0.000, 12:46:47.303
196, -476.27, 1454.64, -1217.11, -431.19, 0.000, 0.000, 0.000, 12:46:47.303
197, -1313.77, 485.00, -2032.68, -1236.73, 0.000, 0.000, 0.000, 12:46:47.311
198, -1092.97, 620.59, -1852.59, -1063.48, 0.000, 0.000, 0.000, 12:46:47.311
199, -566.08, 1187.75, -1360.05, -571.27, 0.000, 0.000, 0.000, 12:46:47.325
200, -362.85, 1360.43, -1220.24, -406.46, 0.000, 0.000, 0.000, 12:46:47.326
0, -1214.52, -1534.77, -2038.02, -1233.31, 0.000, 0.000, 0.000, 12:46:47.326
1, -1071.29, -1375.93, -1867.15, -1070.93, 0.000, 0.000, 0.000, 12:46:47.333
2, -534.73, -814.08, -1374.46, -543.97, 0.000, 0.000, 0.000, 12:46:47.334
3, -367.66, -607.13, -1235.05, -356.66, 0.000, 0.000, 0.000, 12:46:47.349
4, -1244.48, -1540.36, -2041.92, -1196.16, 0.000, 0.000, 0.000, 12:46:47.349
5, -1091.04, -1388.70, -1858.89, -1038.16, 0.000, 0.000, 0.000, 12:46:47.350
6, -570.62, -809.82, -1366.99, -517.80, 0.000, 0.000, 0.000, 12:46:47.350
7, -416.76, -586.45, -1231.55, -354.62, 0.000, 0.000, 0.000, 12:46:47.378
8, -1301.17, -1492.23, -2043.76, -1205.97, 0.000, 0.000, 0.000, 12:46:47.378
9, -1141.45, -1342.04, -1862.51, -1071.51, 0.000, 0.000, 0.000, 12:46:47.379
10, -629.24, -747.09, -1367.34, -566.76, 0.000, 0.000, 0.000, 12:46:47.379
11, -468.88, -534.87, -1216.63, -402.11, 0.000, 0.000, 0.000, 12:46:47.379
12, -1342.23, -1431.59, -2028.48, -1248.65, 0.000, 0.000, 0.000, 12:46:47.379
13, -1196.36, -1277.87, -1844.06, -1093.46, 0.000, 0.000, 0.000, 12:46:47.408
14, -693.21, -702.51, -1355.20, -586.02, 0.000, 0.000, 0.000, 12:46:47.408
15, -528.75, -484.09, -1214.91, -408.98, 0.000, 0.000, 0.000, 12:46:47.408
16, -1400.67, -1388.57, -2014.63, -1259.33, 0.000, 0.000, 0.000, 12:46:47.408
17, -1258.61, -1265.33, -1844.53, -1096.93, 0.000, 0.000, 0.000, 12:46:47.409
18, -738.66, -680.56, -1341.80, -576.17, 0.000, 0.000, 0.000, 12:46:47.410
19, -553.22, -436.19, -1202.50, -424.04, 0.000, 0.000, 0.000, 12:46:47.423
20, -1432.50, -1375.01, -2005.46, -1257.97, 0.000, 0.000, 0.000, 12:46:47.423
21, -1281.10, -1225.42, -1834.36, -1110.37, 0.000, 0.000, 0.000, 12:46:47.438
22, -749.07, -668.62, -1346.72, -598.98, 0.000, 0.000, 0.000, 12:46:47.438
23, -563.08, -439.94, -1195.57, -394.92, 0.000, 0.000, 0.000, 12:46:47.438
24, -1439.24, -1371.35, -2009.18, -1239.60, 0.000, 0.000, 0.000, 12:46:47.438
25, -1285.71, -1230.25, -1845.10, -1095.75, 0.000, 0.000, 0.000, 12:46:47.453
26, -744.08, -655.58, -1338.37, -594.58, 0.000, 0.000, 0.000, 12:46:47.453
27, -558.83, -422.03, -1183.88, -404.92, 0.000, 0.000, 0.000, 12:46:47.468
28, -1426.97, -1341.85, -2005.77, -1249.74, 0.000, 0.000, 0.000, 12:46:47.468
29, -1271.60, -1225.16, -1838.77, -1102.51, 0.000, 0.000, 0.000, 12:46:47.469
30, -738.13, -685.08, -1353.53, -569.37, 0.000, 0.000, 0.000, 12:46:47.469
31, -551.29, -447.25, -1189.35, -411.42, 0.000, 0.000, 0.000, 12:46:47.513
32, -1403.07, -1351.12, -2009.86, -1226.13, 0.000, 0.000, 0.000, 12:46:47.513
33, -1253.66, -1242.50, -1853.72, -1089.91, 0.000, 0.000, 0.000, 12:46:47.515
34, -730.64, -673.14, -1344.98, -599.61, 0.000, 0.000, 0.000, 12:46:47.515
35, -542.73, -454.67, -1190.57, -392.12, 0.000, 0.000, 0.000, 12:46:47.516
36, -1409.32, -1365.99, -2007.58, -1228.45, 0.000, 0.000, 0.000, 12:46:47.517
37, -1262.07, -1233.85, -1838.73, -1099.43, 0.000, 0.000, 0.000, 12:46:47.517
38, -728.47, -679.87, -1342.08, -597.99, 0.000, 0.000, 0.000, 12:46:47.518
39, -531.80, -474.32, -1191.67, -396.48, 0.000, 0.000, 0.000, 12:46:47.518
40, -1373.83, -1359.38, -1995.12, -1216.46, 0.000, 0.000, 0.000, 12:46:47.519
41, -1269.35, -1258.18, -1857.00, -1104.21, 0.000, 0.000, 0.000, 12:46:47.528
42, -713.65, -688.36, -1349.01, -581.83, 0.000, 0.000, 0.000, 12:46:47.528
43, -529.54, -465.85, -1201.17, -392.97, 0.000, 0.000, 0.000, 12:46:47.543
44, -1396.05, -1370.13, -2003.98, -1247.00, 0.000, 0.000, 0.000, 12:46:47.543
45, -1247.93, -1267.83, -1848.96, -1110.97, 0.000, 0.000, 0.000, 12:46:47.558
46, -715.89, -701.49, -1356.56, -588.54, 0.000, 0.000, 0.000, 12:46:47.558
47, -522.36, -483.64, -1208.59, -385.88, 0.000, 0.000, 0.000, 12:46:47.559
48, -1380.73, -1381.74, -2007.46, -1223.28, 0.000, 0.000, 0.000, 12:46:47.559
49, -1256.26, -1295.83, -1865.03, -1093.01, 0.000, 0.000, 0.000, 12:46:47.573
50, -735.74, -689.80, -1350.44, -603.87, 0.000, 0.000, 0.000, 12:46:47.573
51, -521.37, -458.72, -1192.38, -404.43, 0.000, 0.000, 0.000, 12:46:47.603
52, -1386.42, -1406.22, -2022.96, -1235.26, 0.000, 0.000, 0.000, 12:46:47.603
53, -1242.74, -1261.69, -1863.30, -1089.06, 0.000, 0.000, 0.000, 12:46:47.603
54, -725.12, -739.90, -1374.02, -590.13, 0.000, 0.000, 0.000, 12:46:47.603
55, -511.02, -479.81, -1209.49, -397.44, 0.000, 0.000, 0.000, 12:46:47.618
56, -1380.56, -1397.78, -2015.56, -1242.02, 0.000, 0.000, 0.000, 12:46:47.618
57, -1254.15, -1299.24, -1854.73, -1122.01, 0.000, 0.000, 0.000, 12:46:47.633
58, -712.23, -716.85, -1368.13, -605.61, 0.000, 0.000, 0.000, 12:46:47.633
59, -498.56, -468.13, -1199.44, -401.23, 0.000, 0.000, 0.000, 12:46:47.634
60, -1379.66, -1399.70, -2020.14, -1247.00, 0.000, 0.000, 0.000, 12:46:47.634
61, -1248.35, -1301.06, -1861.05, -1120.82, 0.000, 0.000, 0.000, 12:46:47.634
62, -725.17, -742.04, -1384.79, -599.05, 0.000, 0.000, 0.000, 12:46:47.635
63, -504.31, -498.04, -1222.31, -378.46, 0.000, 0.000, 0.000, 12:46:47.635
64, -1377.69, -1419.48, -2021.66, -1243.73, 0.000, 0.000, 0.000, 12:46:47.635
65, -1237.68, -1268.72, -1860.83, -1110.77, 0.000, 0.000, 0.000, 12:46:47.648
66, -732.23, -732.15, -1378.15, -619.31, 0.000, 0.000, 0.000, 12:46:47.648
67, -511.72, -471.22, -1199.61, -423.12, 0.000, 0.000, 0.000, 12:46:47.663
68, -1370.89, -1399.41, -2014.42, -1249.09, 0.000, 0.000, 0.000, 12:46:47.664
69, -1244.53, -1321.52, -1877.64, -1117.77, 0.000, 0.000, 0.000, 12:46:47.679
70, -722.89, -773.64, -1386.53, -607.92, 0.000, 0.000, 0.000, 12:46:47.679
71, -495.93, -506.39, -1214.00, -396.89, 0.000, 0.000, 0.000, 12:46:47.680
72, -1354.88, -1382.44, -2010.86, -1243.88, 0.000, 0.000, 0.000, 12:46:47.680
73, -1239.45, -1297.45, -1874.62, -1132.86, 0.000, 0.000, 0.000, 12:46:47.711
74, -711.17, -770.74, -1386.96, -594.96, 0.000, 0.000, 0.000, 12:46:47.711
75, -489.10, -498.61, -1216.15, -403.61, 0.000, 0.000, 0.000, 12:46:47.712
76, -1345.08, -1374.62, -2002.51, -1253.80, 0.000, 0.000, 0.000, 12:46:47.712
77, -1235.78, -1259.43, -1860.32, -1151.81, 0.000, 0.000, 0.000, 12:46:47.712
78, -723.33, -761.94, -1395.80, -607.96, 0.000, 0.000, 0.000, 12:46:47.712
79, -493.28, -520.75, -1214.13, -366.76, 0.000, 0.000, 0.000, 12:46:47.738
80, -1350.58, -1405.52, -2004.22, -1222.23, 0.000, 0.000, 0.000, 12:46:47.738
81, -1243.58, -1304.79, -1866.28, -1126.30, 0.000, 0.000, 0.000, 12:46:47.738
82, -707.01, -758.98, -1394.96, -610.42, 0.000, 0.000, 0.000, 12:46:47.739
83, -498.83, -490.13, -1199.68, -408.18, 0.000, 0.000, 0.000, 12:46:47.739
84, -1358.68, -1384.30, -2002.58, -1233.63, 0.000, 0.000, 0.000, 12:46:47.739
85, -1245.29, -1289.78, -1874.38, -1116.51, 0.000, 0.000, 0.000, 12:46:47.753
86, -721.48, -752.04, -1395.14, -611.37, 0.000, 0.000, 0.000, 12:46:47.754
87, -491.20, -503.09, -1203.55, -404.89, 0.000, 0.000, 0.000, 12:46:47.768
88, -1332.84, -1389.22, -1996.00, -1241.85, 0.000, 0.000, 0.000, 12:46:47.768
89, -1246.70, -1312.95, -1880.55, -1118.46, 0.000, 0.000, 0.000, 12:46:47.769
90, -717.55, -769.72, -1399.99, -597.21, 0.000, 0.000, 0.000, 12:46:47.769
91, -491.44, -516.67, -1209.68, -395.26, 0.000, 0.000, 0.000, 12:46:47.783
92, -1343.18, -1399.46, -2005.46, -1221.53, 0.000, 0.000, 0.000, 12:46:47.783
93, -1228.01, -1314.81, -1878.10, -1118.35, 0.000, 0.000, 0.000, 12:46:47.799
94, -704.23, -768.65, -1378.24, -647.87, 0.000, 0.000, 0.000, 12:46:47.799
95, -481.12, -447.51, -1203.63, -380.06, 0.000, 0.000, 0.000, 12:46:47.799
96, -1336.37, -1419.64, -2013.06, -1206.11, 0.000, 0.000, 0.000, 12:46:47.799
97, -1236.80, -1327.52, -1875.18, -1099.01, 0.000, 0.000, 0.000, 12:46:47.829
98, -709.38, -760.66, -1397.41, -597.50, 0.000, 0.000, 0.000, 12:46:47.829
99, -483.54, -547.98, -1212.66, -377.21, 0.000, 0.000, 0.000, 12:46:47.829
100, -1326.98, -1363.48, -1997.68, -1211.00, 0.000, 0.000, 0.000, 12:46:47.829
101, -1239.57, -1298.16, -1860.20, -1140.39, 0.000, 0.000, 0.000, 12:46:47.829
102, -711.94, -761.42, -1388.19, -599.00, 0.000, 0.000, 0.000, 12:46:47.829
103, -472.87, -501.55, -1195.69, -373.69, 0.000, 0.000, 0.000, 12:46:47.843
104, -1334.12, -1387.74, -1987.79, -1181.26, 0.000, 0.000, 0.000, 12:46:47.843
105, -1235.38, -1315.07, -1881.95, -1100.08, 0.000, 0.000, 0.000, 12:46:47.858
106, -707.94, -759.21, -1388.99, -611.51, 0.000, 0.000, 0.000, 12:46:47.859
107, -470.68, -494.05, -1187.14, -390.69, 0.000, 0.000, 0.000, 12:46:47.859
108, -1322.57, -1363.99, -1995.29, -1181.17, 0.000, 0.000, 0.000, 12:46:47.860
109, -1239.53, -1333.24, -1863.73, -1119.38, 0.000, 0.000, 0.000, 12:46:47.873
110, -699.71, -772.23, -1383.91, -598.79, 0.000, 0.000, 0.000, 12:46:47.873
111, -466.83, -480.94, -1183.33, -351.45, 0.000, 0.000, 0.000, 12:46:47.888
112, -1321.36, -1392.57, -2005.93, -1200.87, 0.000, 0.000, 0.000, 12:46:47.888
113, -1219.21, -1326.56, -1878.16, -1109.03, 0.000, 0.000, 0.000, 12:46:47.889
114, -709.90, -792.53, -1392.66, -597.63, 0.000, 0.000, 0.000, 12:46:47.889
115, -471.89, -492.79, -1197.99, -360.16, 0.000, 0.000, 0.000, 12:46:47.903
116, -1321.17, -1357.55, -1985.77, -1199.81, 0.000, 0.000, 0.000, 12:46:47.903
117, -1232.99, -1328.41, -1856.85, -1134.67, 0.000, 0.000, 0.000, 12:46:47.933
118, -718.67, -773.01, -1392.42, -603.92, 0.000, 0.000, 0.000, 12:46:47.933
119, -473.93, -477.96, -1180.40, -367.70, 0.000, 0.000, 0.000, 12:46:47.933
120, -1319.29, -1398.06, -2005.14, -1193.12, 0.000, 0.000, 0.000, 12:46:47.933
121, -1239.77, -1331.42, -1891.39, -1106.22, 0.000, 0.000, 0.000, 12:46:47.934
122, -713.87, -753.99, -1372.84, -640.36, 0.000, 0.000, 0.000, 12:46:47.934
123, -480.10, -508.59, -1193.75, -363.36, 0.000, 0.000, 0.000, 12:46:47.935
124, -1322.17, -1417.56, -2007.79, -1161.12, 0.000, 0.000, 0.000, 12:46:47.935
125, -1234.92, -1320.61, -1870.85, -1119.40, 0.000, 0.000, 0.000, 12:46:47.949
126, -725.74, -749.59, -1378.26, -628.88, 0.000, 0.000, 0.000, 12:46:47.949
127, -482.52, -504.64, -1190.90, -362.73, 0.000, 0.000, 0.000, 12:46:47.963
128, -1324.73, -1400.92, -1993.91, -1186.70, 0.000, 0.000, 0.000, 12:46:47.964
129, -1238.62, -1320.18, -1885.67, -1102.86, 0.000, 0.000, 0.000, 12:46:47.978
130, -728.71, -765.12, -1375.45, -638.22, 0.000, 0.000, 0.000, 12:46:47.978
131, -472.46, -493.35, -1188.19, -383.04, 0.000, 0.000, 0.000, 12:46:47.982
132, -1306.45, -1409.74, -2007.55, -1152.00, 0.000, 0.000, 0.000, 12:46:47.982
133, -1245.48, -1307.11, -1867.88, -1126.93, 0.000, 0.000, 0.000, 12:46:47.996
134, -731.75, -795.37, -1389.96, -617.35, 0.000, 0.000, 0.000, 12:46:47.996
135, -473.53, -486.33, -1175.57, -394.32, 0.000, 0.000, 0.000, 12:46:48.008
136, -1312.97, -1361.01, -1979.57, -1190.75, 0.000, 0.000, 0.000, 12:46:48.009
137, -1248.38, -1327.91, -1883.21, -1111.74, 0.000, 0.000, 0.000, 12:46:48.009
138, -729.84, -796.88, -1386.43, -616.53, 0.000, 0.000, 0.000, 12:46:48.009
139, -480.22, -506.31, -1193.24, -370.18, 0.000, 0.000, 0.000, 12:46:48.023
140, -1307.18, -1437.37, -1991.95, -1173.99, 0.000, 0.000, 0.000, 12:46:48.023
141, -1239.35, -1312.97, -1879.88, -1127.20, 0.000, 0.000, 0.000, 12:46:48.038
142, -718.05, -776.58, -1402.82, -619.22, 0.000, 0.000, 0.000, 12:46:48.038
143, -461.79, -505.94, -1166.28, -387.69, 0.000, 0.000, 0.000, 12:46:48.039
144, -1305.86, -1395.90, -1989.00, -1170.34, 0.000, 0.000, 0.000, 12:46:48.039
145, -1217.57, -1366.85, -1884.22, -1111.52, 0.000, 0.000, 0.000, 12:46:48.068
146, -679.58, -813.17, -1416.85, -608.86, 0.000, 0.000, 0.000, 12:46:48.068
147, -381.60, -538.09, -1169.80, -406.32, 0.000, 0.000, 0.000, 12:46:48.069
148, -1198.58, -1450.60, -1988.89, -1148.96, 0.000, 0.000, 0.000, 12:46:48.069
149, -1114.21, -1374.23, -1895.93, -1144.15, 0.000, 0.000, 0.000, 12:46:48.069
150, -574.27, -875.51, -1418.70, -612.56, 0.000, 0.000, 0.000, 12:46:48.070
151, -305.34, -609.19, -1199.97, -350.50, 0.000, 0.000, 0.000, 12:46:48.083
152, -1147.94, -1510.39, -2003.01, -1159.12, 0.000, 0.000, 0.000, 12:46:48.083
153, -1094.63, -1409.13, -1904.17, -1127.21, 0.000, 0.000, 0.000, 12:46:48.099
154, -593.27, -857.55, -1418.66, -644.87, 0.000, 0.000, 0.000, 12:46:48.099
155, -352.14, -570.05, -1205.63, -360.26, 0.000, 0.000, 0.000, 12:46:48.100
156, -1197.26, -1451.33, -1994.86, -1137.58, 0.000, 0.000, 0.000, 12:46:48.100
157, -1151.23, -1410.36, -1923.80, -1084.07, 0.000, 0.000, 0.000, 12:46:48.113
158, -663.02, -815.21, -1422.93, -629.61, 0.000, 0.000, 0.000, 12:46:48.113
159, -411.38, -518.53, -1187.78, -372.86, 0.000, 0.000, 0.000, 12:46:48.132
160, -1263.34, -1391.95, -1989.17, -1180.25, 0.000, 0.000, 0.000, 12:46:48.132
161, -1221.74, -1330.76, -1897.15, -1153.19, 0.000, 0.000, 0.000, 12:46:48.133
162, -716.35, -788.29, -1413.00, -620.02, 0.000, 0.000, 0.000, 12:46:48.134
163, -462.32, -495.44, -1198.05, -363.89, 0.000, 0.000, 0.000, 12:46:48.159
164, -1311.64, -1355.40, -1977.98, -1181.58, 0.000, 0.000, 0.000, 12:46:48.159
165, -1277.73, -1311.12, -1890.16, -1130.61, 0.000, 0.000, 0.000, 12:46:48.159
166, -762.95, -767.83, -1417.75, -637.77, 0.000, 0.000, 0.000, 12:46:48.159
167, -506.30, -429.04, -1189.97, -377.66, 0.000, 0.000, 0.000, 12:46:48.160
168, -1332.73, -1338.29, -1949.59, -1203.51, 0.000, 0.000, 0.000, 12:46:48.160
169, -1303.46, -1270.01, -1874.51, -1153.36, 0.000, 0.000, 0.000, 12:46:48.173
170, -782.24, -735.02, -1404.87, -654.39, 0.000, 0.000, 0.000, 12:46:48.173
171, -529.91, -441.30, -1177.25, -368.22, 0.000, 0.000, 0.000, 12:46:48.188
172, -1354.81, -1327.85, -1961.76, -1190.34, 0.000, 0.000, 0.000, 12:46:48.188
173, -1307.35, -1308.70, -1890.61, -1115.55, 0.000, 0.000, 0.000, 12:46:48.189
174, -793.18, -713.59, -1412.92, -641.16, 0.000, 0.000, 0.000, 12:46:48.189
175, -531.79, -416.86, -1170.56, -377.28, 0.000, 0.000, 0.000, 12:46:48.203
176, -1366.65, -1342.67, -1965.95, -1185.99, 0.000, 0.000, 0.000, 12:46:48.203
177, -1302.53, -1313.89, -1873.40, -1133.13, 0.000, 0.000, 0.000, 12:46:48.218
178, -790.61, -798.02, -1421.59, -625.16, 0.000, 0.000, 0.000, 12:46:48.219
179, -512.56, -440.48, -1197.88, -360.82, 0.000, 0.000, 0.000, 12:46:48.219
180, -1360.48, -1289.01, -1935.21, -1216.31, 0.000, 0.000, 0.000, 12:46:48.220
181, -1319.07, -1293.12, -1863.28, -1178.18, 0.000, 0.000, 0.000, 12:46:48.265
182, -791.57, -782.82, -1427.63, -592.42, 0.000, 0.000, 0.000, 12:46:48.265
183, -519.83, -408.90, -1185.03, -369.06, 0.000, 0.000, 0.000, 12:46:48.265
184, -1350.72, -1330.02, -1939.00, -1208.04, 0.000, 0.000, 0.000, 12:46:48.265
185, -1300.77, -1304.09, -1859.65, -1174.82, 0.000, 0.000, 0.000, 12:46:48.267
186, -782.70, -778.54, -1408.87, -612.22, 0.000, 0.000, 0.000, 12:46:48.267
187, -508.91, -431.04, -1172.44, -365.68, 0.000, 0.000, 0.000, 12:46:48.267
188, -1346.76, -1307.96, -1958.90, -1183.20, 0.000, 0.000, 0.000, 12:46:48.267
189, -1294.56, -1328.18, -1900.24, -1112.45, 0.000, 0.000, 0.000, 12:46:48.268
190, -786.79, -734.07, -1413.46, -636.30, 0.000, 0.000, 0.000, 12:46:48.268
191, -511.65, -428.60, -1170.84, -383.65, 0.000, 0.000, 0.000, 12:46:48.293
192, -1341.38, -1321.17, -1957.43, -1182.60, 0.000, 0.000, 0.000, 12:46:48.293
193, -1294.01, -1299.47, -1902.64, -1120.07, 0.000, 0.000, 0.000, 12:46:48.293
194, -779.25, -758.25, -1403.89, -647.62, 0.000, 0.000, 0.000, 12:46:48.294
195, -506.87, -429.37, -1173.72, -368.59, 0.000, 0.000, 0.000, 12:46:48.308
196, -1325.89, -1323.67, -1952.11, -1170.92, 0.000, 0.000, 0.000, 12:46:48.308
197, -1299.06, -1310.35, -1894.54, -1136.94, 0.000, 0.000, 0.000, 12:46:48.309
198, -777.71, -775.59, -1416.79, -637.60, 0.000, 0.000, 0.000, 12:46:48.309
199, -493.47, -428.11, -1178.27, -382.30, 0.000, 0.000, 0.000, 12:46:48.323
200, -1318.13, -1302.17, -1958.93, -1176.47, 0.000, 0.000, 0.000, 12:46:48.323
0, -1296.68, -1326.65, -1892.26, -1145.73, 0.000, 0.000, 0.000, 12:46:48.324
1, -779.69, -763.28, -1424.17, -648.82, 0.000, 0.000, 0.000, 12:46:48.338
2, -500.07, -468.16, -1182.08, -360.79, 0.000, 0.000, 0.000, 12:46:48.338
3, -1324.53, -1308.41, -1953.04, -1179.41, 0.000, 0.000, 0.000, 12:46:48.353
4, -1285.45, -1309.61, -1880.19, -1147.67, 0.000, 0.000, 0.000, 12:46:48.354
5, -767.33, -755.87, -1404.90, -656.90, 0.000, 0.000, 0.000, 12:46:48.357
6, -485.16, -435.20, -1173.59, -373.47, 0.000, 0.000, 0.000, 12:46:48.357
7, -1317.06, -1325.99, -1958.72, -1164.19, 0.000, 0.000, 0.000, 12:46:48.383
8, -1275.38, -1329.31, -1897.80, -1125.64, 0.000, 0.000, 0.000, 12:46:48.383
9, -755.55, -763.19, -1408.53, -639.41, 0.000, 0.000, 0.000, 12:46:48.384
10, -468.24, -426.07, -1164.63, -353.27, 0.000, 0.000, 0.000, 12:46:48.384
11, -1290.46, -1292.44, -1936.30, -1155.58, 0.000, 0.000, 0.000, 12:46:48.384
12, -1278.11, -1331.85, -1896.48, -1129.71, 0.000, 0.000, 0.000, 12:46:48.384
13, -758.51, -785.06, -1413.64, -646.15, 0.000, 0.000, 0.000, 12:46:48.413
14, -466.01, -427.76, -1169.45, -366.71, 0.000, 0.000, 0.000, 12:46:48.413
15, -1299.02, -1317.84, -1958.30, -1163.01, 0.000, 0.000, 0.000, 12:46:48.414
16, -1280.01, -1320.83, -1897.27, -1144.55, 0.000, 0.000, 0.000, 12:46:48.414
17, -771.39, -781.62, -1420.91, -661.33, 0.000, 0.000, 0.000, 12:46:48.415
18, -478.05, -450.41, -1167.68, -376.99, 0.000, 0.000, 0.000, 12:46:48.415
19, -1306.52, -1329.27, -1955.02, -1160.48, 0.000, 0.000, 0.000, 12:46:48.429
20, -1277.91, -1310.84, -1901.38, -1148.83, 0.000, 0.000, 0.000, 12:46:48.429
21, -777.39, -777.52, -1428.39, -662.90, 0.000, 0.000, 0.000, 12:46:48.444
22, -474.24, -451.56, -1174.34, -359.22, 0.000, 0.000, 0.000, 12:46:48.444
23, -1294.99, -1320.81, -1947.29, -1175.38, 0.000, 0.000, 0.000, 12:46:48.445
24, -1267.04, -1341.21, -1893.84, -1147.01, 0.000, 0.000, 0.000, 12:46:48.445
25, -769.56, -790.49, -1424.64, -647.84, 0.000, 0.000, 0.000, 12:46:48.459
26, -468.62, -445.95, -1172.52, -369.18, 0.000, 0.000, 0.000, 12:46:48.459
27, -1291.65, -1328.36, -1947.76, -1140.33, 0.000, 0.000, 0.000, 12:46:48.488
28, -1271.61, -1319.00, -1900.32, -1147.66, 0.000, 0.000, 0.000, 12:46:48.488
29, -766.08, -789.20, -1424.76, -670.01, 0.000, 0.000, 0.000, 12:46:48.490
30, -461.67, -453.75, -1172.41, -365.94, 0.000, 0.000, 0.000, 12:46:48.490
31, -1282.06, -1296.76, -1948.74, -1139.22, 0.000, 0.000, 0.000, 12:46:48.490
32, -1278.55, -1337.69, -1897.16, -1141.40, 0.000, 0.000, 0.000, 12:46:48.490
33, -758.61, -786.61, -1420.69, -652.99, 0.000, 0.000, 0.000, 12:46:48.498
34, -470.69, -448.61, -1168.86, -370.35, 0.000, 0.000, 0.000, 12:46:48.498
35, -1286.03, -1322.54, -1939.73, -1169.74, 0.000, 0.000, 0.000, 12:46:48.504
36, -1269.43, -1329.75, -1901.41, -1154.91, 0.000, 0.000, 0.000, 12:46:48.504
37, -763.12, -779.82, -1429.07, -655.63, 0.000, 0.000, 0.000, 12:46:48.518
38, -471.31, -468.83, -1178.84, -362.79, 0.000, 0.000, 0.000, 12:46:48.519
39, -1278.11, -1306.85, -1950.39, -1147.29, 0.000, 0.000, 0.000, 12:46:48.548
40, -1267.97, -1353.23, -1904.92, -1137.63, 0.000, 0.000, 0.000, 12:46:48.549
41, -766.34, -789.48, -1422.64, -656.32, 0.000, 0.000, 0.000, 12:46:48.549
42, -461.22, -441.18, -1163.84, -360.43, 0.000, 0.000, 0.000, 12:46:48.549
43, -1273.41, -1299.35, -1936.74, -1147.59, 0.000, 0.000, 0.000, 12:46:48.550
44, -1262.30, -1301.45, -1895.62, -1147.49, 0.000, 0.000, 0.000, 12:46:48.550
45, -769.49, -787.36, -1432.07, -662.04, 0.000, 0.000, 0.000, 12:46:48.551
46, -466.52, -485.85, -1170.31, -355.61, 0.000, 0.000, 0.000, 12:46:48.551
47, -1267.55, -1301.03, -1930.06, -1129.64, 0.000, 0.000, 0.000, 12:46:48.564
48, -1266.13, -1321.09, -1897.00, -1149.09, 0.000, 0.000, 0.000, 12:46:48.564
49, -768.09, -785.67, -1430.79, -658.32, 0.000, 0.000, 0.000, 12:46:48.578
50, -465.68, -444.24, -1168.59, -362.36, 0.000, 0.000, 0.000, 12:46:48.579
51, -1274.71, -1291.04, -1930.40, -1152.48, 0.000, 0.000, 0.000, 12:46:48.593
52, -1280.65, -1326.31, -1904.40, -1158.48, 0.000, 0.000, 0.000, 12:46:48.593
53, -784.37, -799.93, -1437.41, -653.06, 0.000, 0.000, 0.000, 12:46:48.594
54, -461.63, -465.41, -1174.54, -352.21, 0.000, 0.000, 0.000, 12:46:48.594
55, -1272.89, -1288.45, -1929.62, -1146.96, 0.000, 0.000, 0.000, 12:46:48.623
56, -1276.02, -1338.74, -1905.53, -1155.69, 0.000, 0.000, 0.000, 12:46:48.623
57, -771.35, -779.59, -1434.27, -667.46, 0.000, 0.000, 0.000, 12:46:48.624
58, -469.24, -437.51, -1174.81, -365.71, 0.000, 0.000, 0.000, 12:46:48.624
59, -1274.57, -1300.45, -1938.38, -1147.47, 0.000, 0.000, 0.000, 12:46:48.625
60, -1287.69, -1336.45, -1899.58, -1168.17, 0.000, 0.000, 0.000, 12:46:48.625
61, -774.98, -785.38, -1436.38, -667.01, 0.000, 0.000, 0.000, 12:46:48.638
62, -465.59, -457.78, -1169.95, -359.27, 0.000, 0.000, 0.000, 12:46:48.638
63, -1264.97, -1293.61, -1941.82, -1120.57, 0.000, 0.000, 0.000, 12:46:48.653
64, -1281.24, -1339.70, -1904.33, -1149.44, 0.000, 0.000, 0.000, 12:46:48.653
65, -767.15, -785.65, -1436.05, -670.46, 0.000, 0.000, 0.000, 12:46:48.653
66, -460.97, -450.22, -1168.19, -371.52, 0.000, 0.000, 0.000, 12:46:48.653
67, -1268.07, -1291.39, -1920.69, -1149.09, 0.000, 0.000, 0.000, 12:46:48.683
68, -1271.98, -1338.53, -1906.46, -1159.50, 0.000, 0.000, 0.000, 12:46:48.683
69, -763.31, -796.41, -1438.85, -671.80, 0.000, 0.000, 0.000, 12:46:48.683
70, -460.84, -461.47, -1172.83, -355.43, 0.000, 0.000, 0.000, 12:46:48.683
71, -1266.68, -1293.46, -1933.21, -1141.00, 0.000, 0.000, 0.000, 12:46:48.684
72, -1282.57, -1343.59, -1907.55, -1150.40, 0.000, 0.000, 0.000, 12:46:48.684
73, -774.44, -812.09, -1440.00, -664.68, 0.000, 0.000, 0.000, 12:46:48.714
74, -460.86, -462.74, -1176.06, -367.23, 0.000, 0.000, 0.000, 12:46:48.714
75, -1254.11, -1306.02, -1921.51, -1137.92, 0.000, 0.000, 0.000, 12:46:48.714
76, -1279.36, -1350.45, -1906.48, -1162.90, 0.000, 0.000, 0.000, 12:46:48.714
77, -780.60, -809.66, -1440.63, -660.76, 0.000, 0.000, 0.000, 12:46:48.717
78, -464.32, -453.89, -1164.47, -360.60, 0.000, 0.000, 0.000, 12:46:48.718
79, -1264.97, -1301.90, -1924.32, -1142.30, 0.000, 0.000, 0.000, 12:46:48.730
80, -1280.79, -1347.41, -1910.38, -1158.60, 0.000, 0.000, 0.000, 12:46:48.730
81, -780.65, -810.88, -1440.58, -679.52, 0.000, 0.000, 0.000, 12:46:48.743
82, -466.20, -455.28, -1164.87, -355.53, 0.000, 0.000, 0.000, 12:46:48.744
83, -1268.19, -1299.84, -1918.64, -1136.69, 0.000, 0.000, 0.000, 12:46:48.745
84, -1283.15, -1349.68, -1906.68, -1153.38, 0.000, 0.000, 0.000, 12:46:48.745
85, -773.63, -813.22, -1437.59, -671.78, 0.000, 0.000, 0.000, 12:46:48.759
86, -457.72, -446.99, -1167.01, -364.06, 0.000, 0.000, 0.000, 12:46:48.759
87, -1259.06, -1300.64, -1923.12, -1134.97, 0.000, 0.000, 0.000, 12:46:48.773
88, -1294.07, -1366.24, -1910.32, -1165.64, 0.000, 0.000, 0.000, 12:46:48.773
89, -788.35, -827.43, -1444.03, -671.93, 0.000, 0.000, 0.000, 12:46:48.774
90, -469.86, -469.29, -1162.19, -358.97, 0.000, 0.000, 0.000, 12:46:48.774
91, -1249.35, -1296.86, -1915.92, -1143.26, 0.000, 0.000, 0.000, 12:46:48.788
92, -1277.54, -1353.05, -1907.29, -1157.70, 0.000, 0.000, 0.000, 12:46:48.788
93, -777.08, -820.19, -1444.18, -672.23, 0.000, 0.000, 0.000, 12:46:48.818
94, -464.81, -465.96, -1171.83, -355.85, 0.000, 0.000, 0.000, 12:46:48.818
95, -1253.43, -1300.18, -1913.19, -1130.61, 0.000, 0.000, 0.000, 12:46:48.818
96, -1280.28, -1353.58, -1911.95, -1155.98, 0.000, 0.000, 0.000, 12:46:48.818
97, -782.31, -818.02, -1447.02, -679.22, 0.000, 0.000, 0.000, 12:46:48.819
98, -461.82, -451.97, -1163.08, -351.95, 0.000, 0.000, 0.000, 12:46:48.819
99, -1256.02, -1297.70, -1917.87, -1131.43, 0.000, 0.000, 0.000, 12:46:48.820
100, -1286.74, -1360.93, -1913.73, -1168.38, 0.000, 0.000, 0.000, 12:46:48.820
101, -788.58, -835.53, -1440.94, -674.37, 0.000, 0.000, 0.000, 12:46:48.833
102, -461.96, -447.09, -1152.42, -360.88, 0.000, 0.000, 0.000, 12:46:48.833
103, -1252.37, -1285.60, -1904.57, -1127.88, 0.000, 0.000, 0.000, 12:46:48.848
104, -1287.52, -1344.53, -1910.59, -1156.16, 0.000, 0.000, 0.000, 12:46:48.848
105, -792.32, -808.20, -1450.89, -679.06, 0.000, 0.000, 0.000, 12:46:48.863
106, -457.42, -451.58, -1156.00, -362.90, 0.000, 0.000, 0.000, 12:46:48.864
107, -1245.23, -1269.82, -1907.35, -1129.45, 0.000, 0.000, 0.000, 12:46:48.865
108, -1280.70, -1346.37, -1914.30, -1161.34, 0.000, 0.000, 0.000, 12:46:48.865
109, -788.39, -810.63, -1446.26, -694.13, 0.000, 0.000, 0.000, 12:46:48.878
110, -459.21, -445.37, -1167.79, -353.38, 0.000, 0.000, 0.000, 12:46:48.878
111, -1246.27, -1276.13, -1900.97, -1129.20, 0.000, 0.000, 0.000, 12:46:48.893
112, -1288.43, -1346.55, -1910.61, -1168.10, 0.000, 0.000, 0.000, 12:46:48.893
113, -793.32, -822.95, -1444.45, -673.54, 0.000, 0.000, 0.000, 12:46:48.894
114, -461.46, -428.24, -1161.09, -351.24, 0.000, 0.000, 0.000, 12:46:48.894
115, -1251.44, -1269.90, -1909.03, -1124.21, 0.000, 0.000, 0.000, 12:46:48.908
116, -1296.17, -1342.03, -1917.65, -1162.37, 0.000, 0.000, 0.000, 12:46:48.908
117, -790.46, -792.71, -1459.77, -679.65, 0.000, 0.000, 0.000, 12:46:48.924
118, -451.75, -445.27, -1161.06, -357.58, 0.000, 0.000, 0.000, 12:46:48.924
119, -1250.11, -1274.29, -1895.56, -1128.14, 0.000, 0.000, 0.000, 12:46:48.953
120, -1289.20, -1343.76, -1899.27, -1175.13, 0.000, 0.000, 0.000, 12:46:48.953
121, -790.00, -806.98, -1439.80, -668.95, 0.000, 0.000, 0.000, 12:46:48.954
122, -456.19, -427.77, -1157.54, -349.73, 0.000, 0.000, 0.000, 12:46:48.954
123, -1246.02, -1247.58, -1908.24, -1115.74, 0.000, 0.000, 0.000, 12:46:48.955
124, -1290.48, -1344.23, -1910.83, -1163.17, 0.000, 0.000, 0.000, 12:46:48.955
125, -785.25, -791.87, -1443.90, -678.51, 0.000, 0.000, 0.000, 12:46:48.968
126, -451.97, -425.58, -1163.70, -352.54, 0.000, 0.000, 0.000, 12:46:48.968
127, -1239.00, -1250.83, -1905.74, -1121.24, 0.000, 0.000, 0.000, 12:46:48.969
128, -1297.25, -1319.27, -1917.34, -1165.44, 0.000, 0.000, 0.000, 12:46:48.969
129, -799.28, -799.57, -1455.30, -691.70, 0.000, 0.000, 0.000, 12:46:48.982
130, -453.17, -414.27, -1160.75, -362.86, 0.000, 0.000, 0.000, 12:46:48.983
131, -1225.92, -1258.21, -1904.67, -1117.21, 0.000, 0.000, 0.000, 12:46:48.983
132, -1285.68, -1334.58, -1912.01, -1182.60, 0.000, 0.000, 0.000, 12:46:48.983
133, -787.43, -784.60, -1449.09, -686.21, 0.000, 0.000, 0.000, 12:46:48.998
134, -458.42, -428.25, -1159.70, -348.21, 0.000, 0.000, 0.000, 12:46:48.998
135, -1234.97, -1256.89, -1908.82, -1109.69, 0.000, 0.000, 0.000, 12:46:49.013
136, -1291.44, -1348.52, -1919.42, -1162.88, 0.000, 0.000, 0.000, 12:46:49.014
137, -796.56, -823.55, -1455.79, -680.81, 0.000, 0.000, 0.000, 12:46:49.014
138, -457.16, -434.29, -1157.63, -353.22, 0.000, 0.000, 0.000, 12:46:49.015
139, -1229.80, -1268.21, -1906.26, -1104.52, 0.000, 0.000, 0.000, 12:46:49.044
140, -1285.51, -1358.13, -1927.28, -1162.88, 0.000, 0.000, 0.000, 12:46:49.044
141, -789.61, -823.76, -1464.95, -680.29, 0.000, 0.000, 0.000, 12:46:49.044
142, -457.08, -447.89, -1163.00, -351.90, 0.000, 0.000, 0.000, 12:46:49.044
143, -1230.74, -1267.05, -1899.15, -1104.87, 0.000, 0.000, 0.000, 12:46:49.044
144, -1296.14, -1367.33, -1933.95, -1156.53, 0.000, 0.000, 0.000, 12:46:49.044
145, -792.71, -829.60, -1467.96, -681.71, 0.000, 0.000, 0.000, 12:46:49.073
146, -447.36, -436.60, -1163.43, -352.74, 0.000, 0.000, 0.000, 12:46:49.073
147, -1226.09, -1267.79, -1895.92, -1101.63, 0.000, 0.000, 0.000, 12:46:49.074
148, -1304.32, -1378.69, -1925.03, -1172.11, 0.000, 0.000, 0.000, 12:46:49.074
149, -794.41, -831.07, -1465.00, -687.74, 0.000, 0.000, 0.000, 12:46:49.075
150, -448.13, -450.51, -1168.44, -359.54, 0.000, 0.000, 0.000, 12:46:49.075
151, -1227.43, -1284.28, -1911.24, -1099.78, 0.000, 0.000, 0.000, 12:46:49.088
152, -1298.83, -1393.65, -1925.62, -1170.49, 0.000, 0.000, 0.000, 12:46:49.088
153, -792.97, -853.27, -1465.71, -686.97, 0.000, 0.000, 0.000, 12:46:49.103
154, -449.59, -469.13, -1163.43, -349.81, 0.000, 0.000, 0.000, 12:46:49.103
155, -1211.90, -1278.73, -1899.56, -1098.29, 0.000, 0.000, 0.000, 12:46:49.104
156, -1279.57, -1387.17, -1930.63, -1178.61, 0.000, 0.000, 0.000, 12:46:49.104
157, -779.05, -858.65, -1465.71, -691.19, 0.000, 0.000, 0.000, 12:46:49.118
158, -424.63, -486.91, -1165.05, -356.60, 0.000, 0.000, 0.000, 12:46:49.118
159, -1189.64, -1290.27, -1900.12, -1097.45, 0.000, 0.000, 0.000, 12:46:49.133
160, -1250.93, -1409.12, -1933.02, -1165.47, 0.000, 0.000, 0.000, 12:46:49.133
161, -737.14, -871.94, -1476.41, -685.22, 0.000, 0.000, 0.000, 12:46:49.133
162, -371.44, -516.09, -1158.68, -349.59, 0.000, 0.000, 0.000, 12:46:49.134
163, -1132.09, -1329.05, -1899.56, -1109.11, 0.000, 0.000, 0.000, 12:46:49.154
164, -1190.57, -1437.41, -1961.17, -1177.02, 0.000, 0.000, 0.000, 12:46:49.154
165, -679.00, -923.91, -1483.91, -697.68, 0.000, 0.000, 0.000, 12:46:49.178
166, -316.29, -550.41, -1170.46, -364.98, 0.000, 0.000, 0.000, 12:46:49.178
167, -1073.93, -1357.56, -1913.27, -1103.96, 0.000, 0.000, 0.000, 12:46:49.179
168, -1157.38, -1481.13, -1959.09, -1183.64, 0.000, 0.000, 0.000, 12:46:49.179
169, -662.38, -933.72, -1480.84, -692.70, 0.000, 0.000, 0.000, 12:46:49.180
170, -331.19, -532.13, -1184.20, -353.59, 0.000, 0.000, 0.000, 12:46:49.180
171, -1116.24, -1358.29, -1905.70, -1105.19, 0.000, 0.000, 0.000, 12:46:49.180
172, -1208.71, -1461.82, -1948.41, -1177.71, 0.000, 0.000, 0.000, 12:46:49.181
173, -715.41, -876.42, -1471.18, -687.80, 0.000, 0.000, 0.000, 12:46:49.194
174, -378.18, -487.85, -1163.94, -356.45, 0.000, 0.000, 0.000, 12:46:49.194
175, -1164.07, -1293.48, -1905.51, -1098.98, 0.000, 0.000, 0.000, 12:46:49.208
176, -1264.93, -1397.59, -1945.35, -1187.85, 0.000, 0.000, 0.000, 12:46:49.208
177, -770.38, -861.42, -1467.66, -702.70, 0.000, 0.000, 0.000, 12:46:49.223
178, -437.95, -465.98, -1164.80, -350.68, 0.000, 0.000, 0.000, 12:46:49.223
179, -1225.47, -1254.32, -1903.27, -1108.16, 0.000, 0.000, 0.000, 12:46:49.224
180, -1311.96, -1374.67, -1930.47, -1190.10, 0.000, 0.000, 0.000, 12:46:49.224
181, -823.25, -831.29, -1473.07, -708.22, 0.000, 0.000, 0.000, 12:46:49.238
182, -468.85, -442.23, -1157.12, -363.93, 0.000, 0.000, 0.000, 12:46:49.238
183, -1245.60, -1246.87, -1883.58, -1112.80, 0.000, 0.000, 0.000, 12:46:49.268
184, -1334.55, -1353.00, -1939.22, -1202.89, 0.000, 0.000, 0.000, 12:46:49.268
185, -846.10, -825.28, -1475.83, -715.55, 0.000, 0.000, 0.000, 12:46:49.269
186, -484.93, -431.56, -1148.70, -363.97, 0.000, 0.000, 0.000, 12:46:49.269
187, -1264.23, -1238.93, -1884.48, -1103.84, 0.000, 0.000, 0.000, 12:46:49.269
188, -1365.47, -1344.55, -1935.70, -1178.41, 0.000, 0.000, 0.000, 12:46:49.270
189, -857.54, -816.55, -1466.02, -708.72, 0.000, 0.000, 0.000, 12:46:49.270
190, -486.78, -420.37, -1140.21, -368.53, 0.000, 0.000, 0.000, 12:46:49.270
191, -1257.25, -1228.19, -1882.17, -1096.48, 0.000, 0.000, 0.000, 12:46:49.298
192, -1359.14, -1347.21, -1934.96, -1177.97, 0.000, 0.000, 0.000, 12:46:49.298
193, -864.38, -812.86, -1477.37, -709.11, 0.000, 0.000, 0.000, 12:46:49.298
194, -501.46, -425.10, -1162.25, -354.56, 0.000, 0.000, 0.000, 12:46:49.299
195, -1269.68, -1236.61, -1885.79, -1108.44, 0.000, 0.000, 0.000, 12:46:49.313
196, -1369.38, -1356.80, -1931.11, -1201.56, 0.000, 0.000, 0.000, 12:46:49.313
197, -868.53, -835.54, -1469.65, -708.53, 0.000, 0.000, 0.000, 12:46:49.314
198, -511.02, -426.76, -1154.38, -367.25, 0.000, 0.000, 0.000, 12:46:49.314
199, -1274.37, -1223.28, -1879.36, -1091.37, 0.000, 0.000, 0.000, 12:46:49.328
200, -1368.41, -1385.94, -1951.51, -1201.92, 0.000, 0.000, 0.000, 12:46:49.328
0, -860.20, -834.54, -1465.72, -699.22, 0.000, 0.000, 0.000, 12:46:49.329
1, -516.01, -429.96, -1157.65, -372.65, 0.000, 0.000, 0.000, 12:46:49.344
2, -1269.88, -1222.18, -1876.85, -1095.80, 0.000, 0.000, 0.000, 12:46:49.344
3, -1369.31, -1356.28, -1949.88, -1190.37, 0.000, 0.000, 0.000, 12:46:49.373
4, -869.78, -844.52, -1482.07, -692.38, 0.000, 0.000, 0.000, 12:46:49.373
5, -499.54, -427.79, -1154.08, -359.89, 0.000, 0.000, 0.000, 12:46:49.374
6, -1265.82, -1222.14, -1882.58, -1096.56, 0.000, 0.000, 0.000, 12:46:49.374
7, -1373.22, -1379.26, -1948.89, -1213.83, 0.000, 0.000, 0.000, 12:46:49.374
8, -854.80, -834.29, -1475.64, -718.55, 0.000, 0.000, 0.000, 12:46:49.374
9, -493.42, -433.42, -1153.49, -371.10, 0.000, 0.000, 0.000, 12:46:49.375
10, -1256.11, -1243.39, -1881.83, -1103.06, 0.000, 0.000, 0.000, 12:46:49.375
11, -1363.79, -1374.55, -1950.50, -1203.18, 0.000, 0.000, 0.000, 12:46:49.388
12, -852.16, -850.36, -1479.65, -726.36, 0.000, 0.000, 0.000, 12:46:49.389
13, -475.36, -432.49, -1152.78, -369.00, 0.000, 0.000, 0.000, 12:46:49.403
14, -1238.78, -1246.04, -1887.31, -1097.52, 0.000, 0.000, 0.000, 12:46:49.403
15, -1359.01, -1383.70, -1953.10, -1199.14, 0.000, 0.000, 0.000, 12:46:49.419
16, -853.97, -853.95, -1484.05, -715.36, 0.000, 0.000, 0.000, 12:46:49.419
17, -481.18, -441.26, -1159.18, -362.08, 0.000, 0.000, 0.000, 12:46:49.419
18, -1228.84, -1249.78, -1882.90, -1094.41, 0.000, 0.000, 0.000, 12:46:49.419
19, -1346.12, -1380.53, -1944.89, -1210.53, 0.000, 0.000, 0.000, 12:46:49.434
20, -832.70, -849.54, -1478.06, -705.02, 0.000, 0.000, 0.000, 12:46:49.434
21, -465.61, -447.54, -1151.30, -366.49, 0.000, 0.000, 0.000, 12:46:49.449
22, -1215.68, -1230.37, -1872.94, -1071.72, 0.000, 0.000, 0.000, 12:46:49.449
23, -1344.67, -1399.66, -1956.31, -1191.85, 0.000, 0.000, 0.000, 12:46:49.455
24, -828.72, -837.90, -1465.14, -717.51, 0.000, 0.000, 0.000, 12:46:49.455
25, -462.78, -446.10, -1147.68, -368.98, 0.000, 0.000, 0.000, 12:46:49.464
26, -1217.45, -1224.45, -1874.01, -1072.03, 0.000, 0.000, 0.000, 12:46:49.464
27, -1331.45, -1379.81, -1947.14, -1194.08, 0.000, 0.000, 0.000, 12:46:49.523
28, -832.73, -855.54, -1480.23, -721.10, 0.000, 0.000, 0.000, 12:46:49.523
29, -460.94, -452.29, -1150.69, -353.53, 0.000, 0.000, 0.000, 12:46:49.524
30, -1204.53, -1236.48, -1877.16, -1085.04, 0.000, 0.000, 0.000, 12:46:49.524
31, -1328.81, -1383.50, -1951.85, -1179.04, 0.000, 0.000, 0.000, 12:46:49.524
32, -829.11, -851.54, -1482.45, -708.06, 0.000, 0.000, 0.000, 12:46:49.524
33, -450.69, -437.87, -1159.74, -349.81, 0.000, 0.000, 0.000, 12:46:49.525
34, -1207.25, -1227.84, -1861.25, -1076.57, 0.000, 0.000, 0.000, 12:46:49.525
35, -1322.61, -1368.80, -1940.53, -1190.51, 0.000, 0.000, 0.000, 12:46:49.526
36, -816.20, -856.15, -1480.97, -700.73, 0.000, 0.000, 0.000, 12:46:49.526
37, -448.70, -429.91, -1148.23, -349.20, 0.000, 0.000, 0.000, 12:46:49.527
38, -1193.13, -1224.96, -1869.72, -1068.50, 0.000, 0.000, 0.000, 12:46:49.527
39, -1313.21, -1374.33, -1945.78, -1169.72, 0.000, 0.000, 0.000, 12:46:49.527
40, -828.11, -860.49, -1479.93, -716.28, 0.000, 0.000, 0.000, 12:46:49.528
41, -453.92, -442.91, -1146.64, -357.08, 0.000, 0.000, 0.000, 12:46:49.538
42, -1185.67, -1223.31, -1858.31, -1070.90, 0.000, 0.000, 0.000, 12:46:49.538
43, -1328.35, -1372.30, -1941.00, -1201.68, 0.000, 0.000, 0.000, 12:46:49.553
44, -823.51, -860.49, -1484.25, -721.02, 0.000, 0.000, 0.000, 12:46:49.553
45, -438.26, -430.40, -1139.58, -350.03, 0.000, 0.000, 0.000, 12:46:49.568
46, -1189.75, -1210.65, -1861.54, -1047.70, 0.000, 0.000, 0.000, 12:46:49.568
47, -1321.47, -1375.94, -1955.65, -1189.98, 0.000, 0.000, 0.000, 12:46:49.569
48, -807.08, -860.21, -1477.99, -704.40, 0.000, 0.000, 0.000, 12:46:49.569
49, -439.03, -441.22, -1153.84, -358.87, 0.000, 0.000, 0.000, 12:46:49.598
50, -1169.65, -1201.41, -1847.42, -1057.09, 0.000, 0.000, 0.000, 12:46:49.598
51, -1318.01, -1373.66, -1946.85, -1192.87, 0.000, 0.000, 0.000, 12:46:49.599
52, -820.61, -849.91, -1475.41, -719.13, 0.000, 0.000, 0.000, 12:46:49.599
53, -436.84, -438.12, -1142.68, -342.18, 0.000, 0.000, 0.000, 12:46:49.599
54, -1181.56, -1209.99, -1862.37, -1055.35, 0.000, 0.000, 0.000, 12:46:49.599
55, -1323.90, -1401.56, -1961.97, -1188.70, 0.000, 0.000, 0.000, 12:46:49.613
56, -816.72, -874.43, -1483.12, -725.04, 0.000, 0.000, 0.000, 12:46:49.614
57, -435.26, -413.60, -1136.16, -340.66, 0.000, 0.000, 0.000, 12:46:49.628
58, -1174.84, -1214.98, -1850.50, -1070.74, 0.000, 0.000, 0.000, 12:46:49.628
59, -1310.62, -1403.60, -1954.04, -1201.90, 0.000, 0.000, 0.000, 12:46:49.629
60, -801.73, -832.64, -1466.93, -706.20, 0.000, 0.000, 0.000, 12:46:49.629
61, -443.71, -443.67, -1146.91, -357.06, 0.000, 0.000, 0.000, 12:46:49.643
62, -1163.11, -1207.05, -1850.10, -1041.95, 0.000, 0.000, 0.000, 12:46:49.644
63, -1322.82, -1397.48, -1962.47, -1204.28, 0.000, 0.000, 0.000, 12:46:49.658
64, -823.36, -859.63, -1480.68, -718.30, 0.000, 0.000, 0.000, 12:46:49.658
65, -433.85, -455.62, -1141.08, -359.84, 0.000, 0.000, 0.000, 12:46:49.659
66, -1175.18, -1194.71, -1845.53, -1055.48, 0.000, 0.000, 0.000, 12:46:49.659
67, -1332.08, -1405.57, -1965.91, -1209.61, 0.000, 0.000, 0.000, 12:46:49.673
68, -819.90, -862.29, -1475.96, -705.59, 0.000, 0.000, 0.000, 12:46:49.673
69, -448.39, -455.40, -1142.71, -361.29, 0.000, 0.000, 0.000, 12:46:49.703
70, -1168.17, -1221.76, -1845.18, -1059.88, 0.000, 0.000, 0.000, 12:46:49.704
71, -1308.66, -1411.24, -1958.41, -1182.39, 0.000, 0.000, 0.000, 12:46:49.704
72, -814.78, -868.08, -1487.16, -717.19, 0.000, 0.000, 0.000, 12:46:49.704
73, -437.58, -445.42, -1142.76, -357.34, 0.000, 0.000, 0.000, 12:46:49.705
74, -1175.92, -1193.59, -1852.67, -1045.03, 0.000, 0.000, 0.000, 12:46:49.705
75, -1327.78, -1412.07, -1966.01, -1198.68, 0.000, 0.000, 0.000, 12:46:49.705
76, -832.43, -886.73, -1494.95, -719.58, 0.000, 0.000, 0.000, 12:46:49.705
77, -435.24, -451.30, -1142.74, -347.49, 0.000, 0.000, 0.000, 12:46:49.733
78, -1174.26, -1207.95, -1845.18, -1056.21, 0.000, 0.000, 0.000, 12:46:49.733
79, -1331.31, -1406.05, -1957.33, -1212.90, 0.000, 0.000, 0.000, 12:46:49.748
80, -818.98, -868.10, -1495.85, -720.09, 0.000, 0.000, 0.000, 12:46:49.748
81, -440.29, -436.49, -1151.00, -338.53, 0.000, 0.000, 0.000, 12:46:49.749
82, -1172.44, -1211.23, -1850.04, -1044.97, 0.000, 0.000, 0.000, 12:46:49.749
83, -1334.22, -1417.57, -1966.06, -1207.20, 0.000, 0.000, 0.000, 12:46:49.750
84, -821.40, -872.83, -1488.46, -721.79, 0.000, 0.000, 0.000, 12:46:49.750
85, -433.99, -448.12, -1143.49, -336.12, 0.000, 0.000, 0.000, 12:46:49.763
86, -1176.26, -1203.89, -1849.13, -1038.70, 0.000, 0.000, 0.000, 12:46:49.764
87, -1336.74, -1398.74, -1960.26, -1217.28, 0.000, 0.000, 0.000, 12:46:49.778
88, -834.05, -881.01, -1490.66, -713.80, 0.000, 0.000, 0.000, 12:46:49.779
89, -446.51, -435.07, -1142.53, -343.29, 0.000, 0.000, 0.000, 12:46:49.779
90, -1177.54, -1208.51, -1845.74, -1052.10, 0.000, 0.000, 0.000, 12:46:49.779
91, -1333.22, -1403.19, -1963.81, -1198.55, 0.000, 0.000, 0.000, 12:46:49.794
92, -833.76, -869.23, -1492.22, -716.82, 0.000, 0.000, 0.000, 12:46:49.794
93, -446.22, -433.92, -1142.28, -347.15, 0.000, 0.000, 0.000, 12:46:49.823
94, -1173.12, -1212.20, -1848.55, -1056.43, 0.000, 0.000, 0.000, 12:46:49.824
95, -1340.41, -1408.94, -1965.75, -1204.92, 0.000, 0.000, 0.000, 12:46:49.824
96, -829.72, -865.72, -1489.97, -721.00, 0.000, 0.000, 0.000, 12:46:49.824
97, -443.27, -440.10, -1142.32, -346.10, 0.000, 0.000, 0.000, 12:46:49.825
98, -1165.14, -1211.00, -1839.86, -1045.53, 0.000, 0.000, 0.000, 12:46:49.825
99, -1335.33, -1400.45, -1963.30, -1209.82, 0.000, 0.000, 0.000, 12:46:49.825
100, -836.56, -869.85, -1491.11, -727.77, 0.000, 0.000, 0.000, 12:46:49.825
101, -444.01, -436.44, -1144.15, -335.56, 0.000, 0.000, 0.000, 12:46:49.838
102, -1163.52, -1198.45, -1836.33, -1046.85, 0.000, 0.000, 0.000, 12:46:49.838
103, -1328.26, -1412.48, -1961.83, -1212.85, 0.000, 0.000, 0.000, 12:46:49.853
104, -826.65, -885.42, -1496.48, -715.73, 0.000, 0.000, 0.000, 12:46:49.853
105, -448.07, -446.21, -1144.02, -344.23, 0.000, 0.000, 0.000, 12:46:49.868
106, -1163.31, -1192.73, -1832.66, -1037.14, 0.000, 0.000, 0.000, 12:46:49.868
107, -1343.47, -1407.90, -1963.16, -1205.27, 0.000, 0.000, 0.000, 12:46:49.869
108, -840.28, -872.57, -1488.82, -718.76, 0.000, 0.000, 0.000, 12:46:49.869
109, -436.10, -434.71, -1150.04, -342.54, 0.000, 0.000, 0.000, 12:46:49.883
110, -1161.07, -1192.51, -1839.83, -1039.96, 0.000, 0.000, 0.000, 12:46:49.884
111, -1337.38, -1410.88, -1969.25, -1211.59, 0.000, 0.000, 0.000, 12:46:49.898
112, -838.84, -879.39, -1491.85, -719.95, 0.000, 0.000, 0.000, 12:46:49.898
113, -445.33, -440.05, -1144.89, -342.45, 0.000, 0.000, 0.000, 12:46:49.898
114, -1164.82, -1191.72, -1828.84, -1034.75, 0.000, 0.000, 0.000, 12:46:49.898
115, -1348.97, -1407.03, -1964.50, -1216.16, 0.000, 0.000, 0.000, 12:46:49.919
116, -844.83, -880.60, -1489.91, -728.79, 0.000, 0.000, 0.000, 12:46:49.919
117, -446.61, -445.81, -1150.10, -344.06, 0.000, 0.000, 0.000, 12:46:49.928
118, -1159.03, -1190.59, -1830.72, -1030.43, 0.000, 0.000, 0.000, 12:46:49.929
119, -1348.42, -1415.86, -1971.72, -1212.86, 0.000, 0.000, 0.000, 12:46:49.929
120, -838.58, -884.33, -1504.66, -717.22, 0.000, 0.000, 0.000, 12:46:49.929
121, -446.83, -436.24, -1151.57, -347.60, 0.000, 0.000, 0.000, 12:46:49.943
122, -1167.04, -1187.50, -1832.65, -1030.12, 0.000, 0.000, 0.000, 12:46:49.943
123, -1352.12, -1417.26, -1976.77, -1211.15, 0.000, 0.000, 0.000, 12:46:49.958
124, -840.91, -885.58, -1503.72, -727.74, 0.000, 0.000, 0.000, 12:46:49.958
125, -437.02, -436.64, -1141.31, -336.85, 0.000, 0.000, 0.000, 12:46:49.959
126, -1156.77, -1181.42, -1833.15, -1035.52, 0.000, 0.000, 0.000, 12:46:49.959
127, -1353.58, -1412.59, -1975.05, -1205.48, 0.000, 0.000, 0.000, 12:46:49.973
128, -843.87, -876.22, -1497.29, -729.71, 0.000, 0.000, 0.000, 12:46:49.973
129, -435.95, -437.79, -1147.01, -346.39, 0.000, 0.000, 0.000, 12:46:49.988
130, -1156.58, -1179.99, -1830.57, -1033.12, 0.000, 0.000, 0.000, 12:46:49.988
131, -1346.28, -1415.64, -1973.39, -1218.31, 0.000, 0.000, 0.000, 12:46:49.988
132, -839.43, -884.86, -1502.47, -726.67, 0.000, 0.000, 0.000, 12:46:49.988
133, -448.32, -441.35, -1152.01, -341.08, 0.000, 0.000, 0.000, 12:46:50.003
134, -1155.11, -1180.33, -1821.12, -1018.43, 0.000, 0.000, 0.000, 12:46:50.003
135, -1352.72, -1408.77, -1971.23, -1211.31, 0.000, 0.000, 0.000, 12:46:50.018
136, -845.02, -886.62, -1502.66, -736.46, 0.000, 0.000, 0.000, 12:46:50.018
137, -439.99, -436.88, -1147.80, -348.50, 0.000, 0.000, 0.000, 12:46:50.019
138, -1155.86, -1177.22, -1825.89, -1027.08, 0.000, 0.000, 0.000, 12:46:50.019
139, -1353.82, -1414.72, -1977.25, -1218.17, 0.000, 0.000, 0.000, 12:46:50.048
140, -840.99, -881.47, -1506.52, -722.30, 0.000, 0.000, 0.000, 12:46:50.048
141, -442.99, -444.19, -1148.55, -333.56, 0.000, 0.000, 0.000, 12:46:50.050
142, -1146.89, -1181.28, -1825.57, -1020.57, 0.000, 0.000, 0.000, 12:46:50.050
143, -1343.70, -1403.63, -1976.56, -1213.48, 0.000, 0.000, 0.000, 12:46:50.065
144, -851.11, -883.88, -1496.88, -728.20, 0.000, 0.000, 0.000, 12:46:50.065
145, -442.27, -431.31, -1144.55, -341.97, 0.000, 0.000, 0.000, 12:46:50.065
146, -1148.72, -1171.27, -1814.02, -1027.32, 0.000, 0.000, 0.000, 12:46:50.065
147, -1352.42, -1415.66, -1979.00, -1214.43, 0.000, 0.000, 0.000, 12:46:50.078
148, -841.72, -892.76, -1502.15, -725.75, 0.000, 0.000, 0.000, 12:46:50.079
149, -445.59, -431.93, -1146.97, -336.65, 0.000, 0.000, 0.000, 12:46:50.081
150, -1142.51, -1168.71, -1819.50, -1020.36, 0.000, 0.000, 0.000, 12:46:50.082
151, -1354.74, -1414.85, -1980.80, -1217.56, 0.000, 0.000, 0.000, 12:46:50.095
152, -846.58, -883.89, -1504.30, -727.65, 0.000, 0.000, 0.000, 12:46:50.095
153, -444.59, -436.89, -1144.06, -344.31, 0.000, 0.000, 0.000, 12:46:50.109
154, -1148.82, -1172.31, -1822.59, -1022.58, 0.000, 0.000, 0.000, 12:46:50.109
155, -1364.99, -1420.43, -1981.88, -1222.20, 0.000, 0.000, 0.000, 12:46:50.109
156, -845.90, -882.39, -1508.43, -728.10, 0.000, 0.000, 0.000, 12:46:50.109
157, -442.66, -443.69, -1148.44, -338.15, 0.000, 0.000, 0.000, 12:46:50.123
158, -1135.16, -1165.22, -1811.71, -1014.27, 0.000, 0.000, 0.000, 12:46:50.123
159, -1355.30, -1424.75, -1982.90, -1219.88, 0.000, 0.000, 0.000, 12:46:50.153
160, -850.42, -897.76, -1504.45, -730.34, 0.000, 0.000, 0.000, 12:46:50.153
161, -433.50, -430.49, -1136.21, -345.20, 0.000, 0.000, 0.000, 12:46:50.154
162, -1141.16, -1162.19, -1808.89, -1018.33, 0.000, 0.000, 0.000, 12:46:50.154
163, -1357.11, -1420.67, -1985.08, -1219.18, 0.000, 0.000, 0.000, 12:46:50.154
164, -845.68, -886.63, -1513.25, -735.44, 0.000, 0.000, 0.000, 12:46:50.154
165, -448.33, -447.01, -1150.36, -344.67, 0.000, 0.000, 0.000, 12:46:50.155
166, -1140.65, -1167.17, -1817.96, -1019.13, 0.000, 0.000, 0.000, 12:46:50.155
167, -1351.30, -1416.28, -1982.28, -1220.36, 0.000, 0.000, 0.000, 12:46:50.183
168, -851.88, -886.39, -1509.92, -736.96, 0.000, 0.000, 0.000, 12:46:50.183
169, -439.39, -436.92, -1148.76, -344.92, 0.000, 0.000, 0.000, 12:46:50.184
170, -1140.56, -1153.79, -1812.80, -1015.02, 0.000, 0.000, 0.000, 12:46:50.184
171, -1357.28, -1414.73, -1984.01, -1230.97, 0.000, 0.000, 0.000, 12:46:50.198
172, -848.97, -889.66, -1515.16, -745.40, 0.000, 0.000, 0.000, 12:46:50.198
173, -443.68, -443.27, -1148.85, -336.19, 0.000, 0.000, 0.000, 12:46:50.198
174, -1137.81, -1160.26, -1809.71, -1013.34, 0.000, 0.000, 0.000, 12:46:50.199
175, -1359.09, -1419.17, -1979.41, -1227.16, 0.000, 0.000, 0.000, 12:46:50.213
176, -853.38, -894.61, -1508.45, -744.41, 0.000, 0.000, 0.000, 12:46:50.213
177, -428.60, -433.53, -1139.90, -338.62, 0.000, 0.000, 0.000, 12:46:50.229
178, -1122.66, -1156.47, -1802.99, -1009.70, 0.000, 0.000, 0.000, 12:46:50.229
179, -1349.09, -1423.06, -1984.42, -1227.14, 0.000, 0.000, 0.000, 12:46:50.236
180, -845.23, -893.69, -1506.29, -742.12, 0.000, 0.000, 0.000, 12:46:50.236
181, -435.22, -439.97, -1142.20, -342.89, 0.000, 0.000, 0.000, 12:46:50.244
182, -1121.01, -1155.80, -1801.81, -1007.87, 0.000, 0.000, 0.000, 12:46:50.244
183, -1353.74, -1416.22, -1985.63, -1231.17, 0.000, 0.000, 0.000, 12:46:50.258
184, -858.29, -900.92, -1517.45, -749.09, 0.000, 0.000, 0.000, 12:46:50.258
185, -448.87, -438.06, -1146.00, -347.94, 0.000, 0.000, 0.000, 12:46:50.259
186, -1139.36, -1153.01, -1808.52, -1006.61, 0.000, 0.000, 0.000, 12:46:50.259
187, -1362.06, -1430.42, -1991.64, -1233.16, 0.000, 0.000, 0.000, 12:46:50.288
188, -854.38, -894.63, -1516.81, -743.69, 0.000, 0.000, 0.000, 12:46:50.288
189, -432.14, -443.60, -1143.76, -342.17, 0.000, 0.000, 0.000, 12:46:50.289
190, -1124.42, -1150.74, -1799.61, -999.75, 0.000, 0.000, 0.000, 12:46:50.289
191, -1364.64, -1430.64, -1985.68, -1229.89, 0.000, 0.000, 0.000, 12:46:50.289
192, -857.41, -902.67, -1512.19, -746.58, 0.000, 0.000, 0.000, 12:46:50.289
193, -437.95, -438.47, -1139.83, -343.99, 0.000, 0.000, 0.000, 12:46:50.303
194, -1117.16, -1146.61, -1798.83, -1001.88, 0.000, 0.000, 0.000, 12:46:50.303
195, -1358.61, -1427.01, -1989.19, -1230.83, 0.000, 0.000, 0.000, 12:46:50.318
196, -857.68, -899.17, -1518.13, -743.15, 0.000, 0.000, 0.000, 12:46:50.318
197, -437.96, -439.13, -1144.18, -352.57, 0.000, 0.000, 0.000, 12:46:50.319
198, -1121.79, -1144.05, -1797.87, -1015.49, 0.000, 0.000, 0.000, 12:46:50.319
199, -1363.37, -1423.55, -1986.88, -1231.72, 0.000, 0.000, 0.000, 12:46:50.333
200, -861.68, -898.47, -1524.49, -736.93, 0.000, 0.000, 0.000, 12:46:50.335
0, -445.17, -445.33, -1150.21, -335.92, 0.000, 0.000, 0.000, 12:46:50.335
1, -1126.45, -1145.64, -1802.14, -991.07, 0.000, 0.000, 0.000, 12:46:50.349
2, -1363.86, -1430.95, -1995.41, -1231.13, 0.000, 0.000, 0.000, 12:46:50.349
3, -858.55, -900.58, -1521.45, -739.69, 0.000, 0.000, 0.000, 12:46:50.363
4, -440.47, -440.48, -1153.81, -344.35, 0.000, 0.000, 0.000, 12:46:50.363
5, -1123.88, -1143.99, -1797.78, -999.09, 0.000, 0.000, 0.000, 12:46:50.365
6, -1373.99, -1433.61, -1998.03, -1234.34, 0.000, 0.000, 0.000, 12:46:50.365
7, -851.70, -899.18, -1522.66, -745.17, 0.000, 0.000, 0.000, 12:46:50.379
8, -440.15, -446.56, -1147.79, -334.61, 0.000, 0.000, 0.000, 12:46:50.379
9, -1116.48, -1138.05, -1794.07, -990.06, 0.000, 0.000, 0.000, 12:46:50.393
10, -1372.40, -1432.65, -1987.08, -1234.88, 0.000, 0.000, 0.000, 12:46:50.393
11, -861.37, -905.48, -1521.75, -747.08, 0.000, 0.000, 0.000, 12:46:50.393
12, -439.94, -445.43, -1151.38, -337.34, 0.000, 0.000, 0.000, 12:46:50.394
13, -1112.61, -1143.26, -1794.49, -998.89, 0.000, 0.000, 0.000, 12:46:50.408
14, -1368.30, -1433.17, -1994.96, -1233.00, 0.000, 0.000, 0.000, 12:46:50.408
15, -869.93, -912.41, -1527.86, -745.88, 0.000, 0.000, 0.000, 12:46:50.423
16, -455.84, -445.50, -1149.64, -343.81, 0.000, 0.000, 0.000, 12:46:50.424
17, -1130.64, -1140.44, -1796.16, -986.09, 0.000, 0.000, 0.000, 12:46:50.424
18, -1376.67, -1438.43, -2003.15, -1234.42, 0.000, 0.000, 0.000, 12:46:50.424
19, -868.18, -906.93, -1525.02, -751.43, 0.000, 0.000, 0.000, 12:46:50.438
20, -451.54, -438.57, -1145.71, -342.84, 0.000, 0.000, 0.000, 12:46:50.438
21, -1115.43, -1133.25, -1793.76, -995.65, 0.000, 0.000, 0.000, 12:46:50.453
22, -1372.57, -1434.95, -1996.32, -1241.47, 0.000, 0.000, 0.000, 12:46:50.453
23, -867.85, -908.77, -1525.71, -746.34, 0.000, 0.000, 0.000, 12:46:50.454
24, -447.80, -441.09, -1149.22, -342.78, 0.000, 0.000, 0.000, 12:46:50.454
25, -1113.60, -1135.54, -1788.49, -993.19, 0.000, 0.000, 0.000, 12:46:50.483
26, -1367.77, -1436.78, -1998.17, -1233.13, 0.000, 0.000, 0.000, 12:46:50.483
27, -873.41, -911.97, -1525.78, -752.71, 0.000, 0.000, 0.000, 12:46:50.483
28, -440.84, -442.33, -1138.23, -342.00, 0.000, 0.000, 0.000, 12:46:50.483
29, -1111.12, -1130.54, -1785.79, -985.92, 0.000, 0.000, 0.000, 12:46:50.484
30, -1367.95, -1435.67, -1993.73, -1237.14, 0.000, 0.000, 0.000, 12:46:50.484
31, -868.41, -914.15, -1520.92, -759.18, 0.000, 0.000, 0.000, 12:46:50.498
32, -443.97, -438.14, -1146.47, -341.65, 0.000, 0.000, 0.000, 12:46:50.498
33, -1094.62, -1127.23, -1779.56, -986.37, 0.000, 0.000, 0.000, 12:46:50.514
34, -1370.21, -1443.13, -1999.89, -1244.78, 0.000, 0.000, 0.000, 12:46:50.515
35, -861.57, -913.52, -1521.33, -752.47, 0.000, 0.000, 0.000, 12:46:50.515
36, -441.99, -433.04, -1139.93, -351.00, 0.000, 0.000, 0.000, 12:46:50.515
37, -1100.02, -1119.34, -1771.17, -995.71, 0.000, 0.000, 0.000, 12:46:50.528
38, -1369.63, -1436.77, -1991.65, -1251.78, 0.000, 0.000, 0.000, 12:46:50.528
39, -872.33, -920.18, -1529.16, -759.39, 0.000, 0.000, 0.000, 12:46:50.543
40, -444.57, -442.01, -1139.30, -350.75, 0.000, 0.000, 0.000, 12:46:50.543
41, -1104.76, -1126.33, -1772.23, -982.84, 0.000, 0.000, 0.000, 12:46:50.543
42, -1368.46, -1434.98, -1999.98, -1237.06, 0.000, 0.000, 0.000, 12:46:50.543
43, -873.86, -919.37, -1527.75, -752.91, 0.000, 0.000, 0.000, 12:46:50.558
44, -446.96, -439.14, -1142.83, -345.40, 0.000, 0.000, 0.000, 12:46:50.558
45, -1090.79, -1122.27, -1772.71, -973.04, 0.000, 0.000, 0.000, 12:46:50.573
46, -1371.16, -1444.06, -2001.63, -1240.80, 0.000, 0.000, 0.000, 12:46:50.574
47, -875.17, -917.05, -1523.62, -761.74, 0.000, 0.000, 0.000, 12:46:50.574
48, -436.68, -439.23, -1140.76, -338.16, 0.000, 0.000, 0.000, 12:46:50.574
49, -1092.92, -1118.40, -1776.07, -984.74, 0.000, 0.000, 0.000, 12:46:50.602
50, -1370.28, -1452.01, -2004.62, -1227.65, 0.000, 0.000, 0.000, 12:46:50.603
51, -870.13, -917.00, -1531.50, -763.66, 0.000, 0.000, 0.000, 12:46:50.618
52, -447.23, -440.21, -1147.98, -341.49, 0.000, 0.000, 0.000, 12:46:50.619
53, -1101.42, -1114.93, -1779.17, -980.69, 0.000, 0.000, 0.000, 12:46:50.619
54, -1385.76, -1440.48, -2001.68, -1247.52, 0.000, 0.000, 0.000, 12:46:50.619
55, -877.45, -914.20, -1533.74, -757.62, 0.000, 0.000, 0.000, 12:46:50.620
56, -450.40, -443.42, -1151.23, -330.96, 0.000, 0.000, 0.000, 12:46:50.620
57, -1094.70, -1115.63, -1776.17, -961.85, 0.000, 0.000, 0.000, 12:46:50.621
58, -1382.81, -1446.24, -2010.59, -1242.75, 0.000, 0.000, 0.000, 12:46:50.621
59, -870.47, -917.32, -1533.16, -754.29, 0.000, 0.000, 0.000, 12:46:50.640
60, -443.89, -449.05, -1149.55, -342.70, 0.000, 0.000, 0.000, 12:46:50.640
61, -1091.76, -1108.44, -1774.16, -976.66, 0.000, 0.000, 0.000, 12:46:50.648
62, -1372.72, -1440.29, -2010.35, -1246.06, 0.000, 0.000, 0.000, 12:46:50.648
63, -870.42, -916.91, -1533.60, -757.46, 0.000, 0.000, 0.000, 12:46:50.663
64, -440.43, -438.82, -1146.99, -337.21, 0.000, 0.000, 0.000, 12:46:50.663
65, -1088.15, -1113.03, -1767.62, -969.49, 0.000, 0.000, 0.000, 12:46:50.665
66, -1374.43, -1444.18, -2006.91, -1250.75, 0.000, 0.000, 0.000, 12:46:50.665
67, -873.61, -921.74, -1540.84, -770.06, 0.000, 0.000, 0.000, 12:46:50.679
68, -434.10, -445.35, -1147.93, -341.94, 0.000, 0.000, 0.000, 12:46:50.679
69, -1090.02, -1107.36, -1767.76, -963.65, 0.000, 0.000, 0.000, 12:46:50.693
70, -1385.85, -1445.08, -2011.47, -1244.60, 0.000, 0.000, 0.000, 12:46:50.693
71, -879.75, -929.89, -1540.89, -770.00, 0.000, 0.000, 0.000, 12:46:50.708
72, -443.54, -447.66, -1143.75, -340.54, 0.000, 0.000, 0.000, 12:46:50.708
73, -1089.60, -1107.84, -1771.70, -959.32, 0.000, 0.000, 0.000, 12:46:50.709
74, -1381.41, -1448.03, -2009.37, -1245.27, 0.000, 0.000, 0.000, 12:46:50.709
75, -878.22, -918.73, -1532.88, -760.54, 0.000, 0.000, 0.000, 12:46:50.723
76, -437.28, -440.02, -1146.74, -340.87, 0.000, 0.000, 0.000, 12:46:50.723
77, -1076.70, -1101.66, -1756.36, -966.39, 0.000, 0.000, 0.000, 12:46:50.723
78, -1384.28, -1452.39, -2008.31, -1250.12, 0.000, 0.000, 0.000, 12:46:50.724
79, -873.61, -924.82, -1536.23, -758.49, 0.000, 0.000, 0.000, 12:46:50.738
80, -449.97, -439.23, -1145.95, -339.51, 0.000, 0.000, 0.000, 12:46:50.739
81, -1088.64, -1100.68, -1756.12, -960.90, 0.000, 0.000, 0.000, 12:46:50.753
82, -1386.55, -1448.42, -2010.49, -1255.90, 0.000, 0.000, 0.000, 12:46:50.753
83, -878.38, -929.97, -1537.43, -763.14, 0.000, 0.000, 0.000, 12:46:50.754
84, -440.65, -448.22, -1147.63, -342.54, 0.000, 0.000, 0.000, 12:46:50.754
85, -1081.86, -1099.63, -1758.33, -957.96, 0.000, 0.000, 0.000, 12:46:50.769
86, -1385.51, -1448.17, -2014.31, -1261.10, 0.000, 0.000, 0.000, 12:46:50.769
87, -888.19, -928.22, -1538.39, -770.39, 0.000, 0.000, 0.000, 12:46:50.783
88, -436.04, -443.50, -1148.32, -341.35, 0.000, 0.000, 0.000, 12:46:50.783
89, -1069.41, -1099.18, -1752.38, -953.77, 0.000, 0.000, 0.000, 12:46:50.784
90, -1380.20, -1445.39, -2009.59, -1242.58, 0.000, 0.000, 0.000, 12:46:50.784
91, -874.74, -926.99, -1540.74, -766.39, 0.000, 0.000, 0.000, 12:46:50.798
92, -437.63, -434.80, -1148.42, -341.36, 0.000, 0.000, 0.000, 12:46:50.798
93, -1065.18, -1085.27, -1753.82, -949.56, 0.000, 0.000, 0.000, 12:46:50.813
94, -1378.24, -1447.31, -2015.42, -1253.13, 0.000, 0.000, 0.000, 12:46:50.813
95, -878.28, -927.89, -1539.35, -776.57, 0.000, 0.000, 0.000, 12:46:50.814
96, -446.26, -448.46, -1145.19, -342.40, 0.000, 0.000, 0.000, 12:46:50.814
97, -1068.83, -1091.75, -1753.59, -947.54, 0.000, 0.000, 0.000, 12:46:50.843
98, -1379.11, -1453.20, -2023.16, -1254.55, 0.000, 0.000, 0.000, 12:46:50.843
99, -886.68, -931.86, -1547.00, -776.61, 0.000, 0.000, 0.000, 12:46:50.843
100, -446.17, -439.17, -1149.08, -354.94, 0.000, 0.000, 0.000, 12:46:50.843
101, -1068.01, -1086.48, -1754.68, -954.15, 0.000, 0.000, 0.000, 12:46:50.844
102, -1384.37, -1457.16, -2016.65, -1255.03, 0.000, 0.000, 0.000, 12:46:50.844
103, -881.30, -930.14, -1548.10, -771.43, 0.000, 0.000, 0.000, 12:46:50.858
104, -443.09, -443.38, -1141.52, -342.73, 0.000, 0.000, 0.000, 12:46:50.858
105, -1071.22, -1084.47, -1742.53, -948.70, 0.000, 0.000, 0.000, 12:46:50.873
106, -1390.81, -1455.20, -2016.21, -1260.34, 0.000, 0.000, 0.000, 12:46:50.873
107, -887.78, -928.27, -1543.79, -770.85, 0.000, 0.000, 0.000, 12:46:50.874
108, -450.74, -444.94, -1154.44, -338.67, 0.000, 0.000, 0.000, 12:46:50.874
109, -1062.19, -1087.83, -1748.81, -936.77, 0.000, 0.000, 0.000, 12:46:50.888
110, -1379.62, -1461.25, -2022.12, -1256.70, 0.000, 0.000, 0.000, 12:46:50.888
111, -887.55, -923.78, -1544.14, -770.37, 0.000, 0.000, 0.000, 12:46:50.903
112, -448.26, -444.43, -1153.88, -347.99, 0.000, 0.000, 0.000, 12:46:50.903
113, -1070.42, -1081.81, -1749.39, -943.63, 0.000, 0.000, 0.000, 12:46:50.904
114, -1392.70, -1455.11, -2024.30, -1252.71, 0.000, 0.000, 0.000, 12:46:50.904
115, -886.59, -931.52, -1545.11, -775.62, 0.000, 0.000, 0.000, 12:46:50.918
116, -448.93, -448.06, -1147.92, -338.52, 0.000, 0.000, 0.000, 12:46:50.918
117, -1068.09, -1084.64, -1742.15, -944.05, 0.000, 0.000, 0.000, 12:46:50.933
118, -1387.13, -1457.17, -2016.70, -1252.73, 0.000, 0.000, 0.000, 12:46:50.933
119, -899.17, -930.07, -1546.56, -776.68, 0.000, 0.000, 0.000, 12:46:50.933
120, -449.08, -439.99, -1144.59, -345.00, 0.000, 0.000, 0.000, 12:46:50.933
121, -1059.07, -1078.07, -1737.99, -942.67, 0.000, 0.000, 0.000, 12:46:50.954
122, -1391.72, -1458.54, -2017.92, -1263.23, 0.000, 0.000, 0.000, 12:46:50.954
123, -894.87, -933.73, -1548.38, -773.58, 0.000, 0.000, 0.000, 12:46:50.963
124, -447.33, -441.38, -1147.63, -346.96, 0.000, 0.000, 0.000, 12:46:50.964
125, -1058.99, -1073.81, -1735.46, -939.65, 0.000, 0.000, 0.000, 12:46:50.965
126, -1395.01, -1453.86, -2016.96, -1258.67, 0.000, 0.000, 0.000, 12:46:50.965
127, -891.82, -937.65, -1546.36, -780.39, 0.000, 0.000, 0.000, 12:46:50.979
128, -436.57, -438.03, -1150.43, -344.62, 0.000, 0.000, 0.000, 12:46:50.979
129, -1044.58, -1072.17, -1739.95, -931.42, 0.000, 0.000, 0.000, 12:46:50.993
130, -1393.11, -1463.16, -2020.87, -1267.32, 0.000, 0.000, 0.000, 12:46:50.993
131, -893.79, -934.40, -1551.65, -779.36, 0.000, 0.000, 0.000, 12:46:50.994
132, -444.28, -442.18, -1145.71, -346.21, 0.000, 0.000, 0.000, 12:46:50.994
133, -1056.85, -1067.25, -1732.02, -939.46, 0.000, 0.000, 0.000, 12:46:51.009
134, -1391.08, -1455.28, -2017.50, -1263.70, 0.000, 0.000, 0.000, 12:46:51.009
135, -889.28, -935.73, -1543.85, -783.55, 0.000, 0.000, 0.000, 12:46:51.038
136, -440.45, -445.14, -1148.91, -343.52, 0.000, 0.000, 0.000, 12:46:51.038
137, -1052.18, -1072.98, -1730.78, -934.95, 0.000, 0.000, 0.000, 12:46:51.039
138, -1397.47, -1458.17, -2022.28, -1262.66, 0.000, 0.000, 0.000, 12:46:51.039
139, -900.83, -939.66, -1558.21, -783.25, 0.000, 0.000, 0.000, 12:46:51.039
140, -446.58, -444.87, -1148.62, -353.51, 0.000, 0.000, 0.000, 12:46:51.039
141, -1055.43, -1071.00, -1730.26, -934.05, 0.000, 0.000, 0.000, 12:46:51.041
142, -1403.94, -1472.95, -2022.93, -1266.14, 0.000, 0.000, 0.000, 12:46:51.042
143, -902.28, -944.69, -1549.14, -788.20, 0.000, 0.000, 0.000, 12:46:51.053
144, -451.76, -447.42, -1153.27, -349.68, 0.000, 0.000, 0.000, 12:46:51.053
145, -1051.10, -1064.20, -1728.66, -929.23, 0.000, 0.000, 0.000, 12:46:51.068
146, -1404.59, -1472.41, -2027.62, -1267.93, 0.000, 0.000, 0.000, 12:46:51.068
147, -893.97, -944.23, -1551.44, -785.77, 0.000, 0.000, 0.000, 12:46:51.083
148, -439.79, -440.55, -1141.91, -354.08, 0.000, 0.000, 0.000, 12:46:51.083
149, -1040.78, -1057.11, -1717.56, -927.73, 0.000, 0.000, 0.000, 12:46:51.083
150, -1401.37, -1456.16, -2018.86, -1267.25, 0.000, 0.000, 0.000, 12:46:51.083
151, -902.65, -940.48, -1549.80, -793.41, 0.000, 0.000, 0.000, 12:46:51.098
152, -446.27, -442.54, -1150.60, -355.74, 0.000, 0.000, 0.000, 12:46:51.098
153, -1043.01, -1057.80, -1724.88, -926.83, 0.000, 0.000, 0.000, 12:46:51.114
154, -1397.69, -1470.76, -2026.36, -1265.11, 0.000, 0.000, 0.000, 12:46:51.114
155, -903.64, -946.69, -1560.80, -790.55, 0.000, 0.000, 0.000, 12:46:51.114
156, -448.53, -441.29, -1149.36, -352.58, 0.000, 0.000, 0.000, 12:46:51.114
157, -1052.15, -1057.93, -1718.55, -923.87, 0.000, 0.000, 0.000, 12:46:51.128
158, -1413.86, -1461.90, -2026.02, -1270.15, 0.000, 0.000, 0.000, 12:46:51.128
159, -905.61, -946.61, -1548.90, -794.01, 0.000, 0.000, 0.000, 12:46:51.159
160, -448.12, -451.46, -1148.40, -343.36, 0.000, 0.000, 0.000, 12:46:51.159
161, -1035.30, -1052.46, -1711.50, -920.59, 0.000, 0.000, 0.000, 12:46:51.159
162, -1396.34, -1471.72, -2030.10, -1268.01, 0.000, 0.000, 0.000, 12:46:51.159
163, -897.59, -948.71, -1559.01, -786.59, 0.000, 0.000, 0.000, 12:46:51.160
164, -444.22, -446.27, -1156.39, -350.36, 0.000, 0.000, 0.000, 12:46:51.160
165, -1036.85, -1057.06, -1723.28, -919.90, 0.000, 0.000, 0.000, 12:46:51.160
166, -1399.02, -1468.49, -2033.84, -1270.58, 0.000, 0.000, 0.000, 12:46:51.161
167, -901.84, -951.68, -1555.07, -792.84, 0.000, 0.000, 0.000, 12:46:51.173
168, -445.77, -447.61, -1144.79, -350.70, 0.000, 0.000, 0.000, 12:46:51.173
169, -1026.25, -1044.67, -1714.89, -917.02, 0.000, 0.000, 0.000, 12:46:51.188
170, -1400.48, -1474.32, -2033.60, -1271.63, 0.000, 0.000, 0.000, 12:46:51.188
171, -904.26, -952.31, -1561.70, -794.03, 0.000, 0.000, 0.000, 12:46:51.203
172, -448.28, -448.33, -1147.23, -356.03, 0.000, 0.000, 0.000, 12:46:51.203
173, -1027.53, -1048.83, -1717.70, -909.85, 0.000, 0.000, 0.000, 12:46:51.204
174, -1398.54, -1472.57, -2035.28, -1270.28, 0.000, 0.000, 0.000, 12:46:51.204
175, -904.08, -952.47, -1563.58, -789.74, 0.000, 0.000, 0.000, 12:46:51.218
176, -443.63, -439.25, -1148.50, -347.74, 0.000, 0.000, 0.000, 12:46:51.218
177, -1030.60, -1045.01, -1708.07, -916.68, 0.000, 0.000, 0.000, 12:46:51.233
178, -1398.05, -1475.38, -2034.97, -1272.88, 0.000, 0.000, 0.000, 12:46:51.233
179, -910.52, -959.78, -1553.74, -794.17, 0.000, 0.000, 0.000, 12:46:51.233
180, -446.05, -447.97, -1149.64, -347.25, 0.000, 0.000, 0.000, 12:46:51.233
181, -1019.77, -1046.62, -1718.87, -913.56, 0.000, 0.000, 0.000, 12:46:51.263
182, -1405.83, -1471.94, -2025.02, -1264.51, 0.000, 0.000, 0.000, 12:46:51.264
183, -908.43, -949.64, -1557.69, -788.16, 0.000, 0.000, 0.000, 12:46:51.264
184, -448.23, -449.00, -1145.29, -345.79, 0.000, 0.000, 0.000, 12:46:51.265
185, -1025.20, -1046.36, -1706.80, -915.67, 0.000, 0.000, 0.000, 12:46:51.265
186, -1400.15, -1477.48, -2035.61, -1268.45, 0.000, 0.000, 0.000, 12:46:51.265
187, -905.45, -959.91, -1562.38, -796.97, 0.000, 0.000, 0.000, 12:46:51.279
188, -444.57, -450.53, -1146.66, -346.17, 0.000, 0.000, 0.000, 12:46:51.279
189, -1020.55, -1042.72, -1705.63, -905.35, 0.000, 0.000, 0.000, 12:46:51.293
190, -1405.56, -1477.15, -2039.07, -1272.39, 0.000, 0.000, 0.000, 12:46:51.293
191, -908.24, -955.30, -1563.11, -804.14, 0.000, 0.000, 0.000, 12:46:51.294
192, -449.51, -443.80, -1153.90, -349.27, 0.000, 0.000, 0.000, 12:46:51.294
193, -1019.81, -1036.15, -1703.43, -901.36, 0.000, 0.000, 0.000, 12:46:51.308
194, -1411.24, -1477.38, -2034.97, -1275.32, 0.000, 0.000, 0.000, 12:46:51.309
195, -914.67, -961.49, -1566.83, -793.72, 0.000, 0.000, 0.000, 12:46:51.323
196, -454.16, -452.26, -1151.23, -348.87, 0.000, 0.000, 0.000, 12:46:51.323
197, -1021.35, -1034.95, -1702.03, -902.78, 0.000, 0.000, 0.000, 12:46:51.324
198, -1414.24, -1476.07, -2035.71, -1269.45, 0.000, 0.000, 0.000, 12:46:51.324
199, -908.42, -953.90, -1565.15, -792.62, 0.000, 0.000, 0.000, 12:46:51.338
200, -442.94, -452.23, -1150.10, -350.33, 0.000, 0.000, 0.000, 12:46:51.338
0, -1006.81, -1040.08, -1705.60, -897.69, 0.000, 0.000, 0.000, 12:46:51.338
1, -1398.40, -1480.69, -2036.73, -1268.46, 0.000, 0.000, 0.000, 12:46:51.353
2, -913.42, -969.52, -1566.10, -790.51, 0.000, 0.000, 0.000, 12:46:51.354
3, -449.83, -457.30, -1154.50, -345.40, 0.000, 0.000, 0.000, 12:46:51.368
4, -999.14, -1056.86, -1700.72, -879.30, 0.000, 0.000, 0.000, 12:46:51.368
5, -1395.37, -1503.81, -2040.83, -1261.65, 0.000, 0.000, 0.000, 12:46:51.369
6, -883.34, -962.74, -1566.07, -811.02, 0.000, 0.000, 0.000, 12:46:51.369
7, -416.36, -460.13, -1155.95, -353.48, 0.000, 0.000, 0.000, 12:46:51.398
8, -952.68, -1081.10, -1705.85, -865.46, 0.000, 0.000, 0.000, 12:46:51.398
9, -1339.43, -1523.46, -2057.55, -1280.95, 0.000, 0.000, 0.000, 12:46:51.399
10, -809.00, -1040.18, -1579.84, -802.55, 0.000, 0.000, 0.000, 12:46:51.399
11, -316.33, -526.75, -1170.72, -352.89, 0.000, 0.000, 0.000, 12:46:51.414
12, -850.99, -1113.04, -1700.67, -899.57, 0.000, 0.000, 0.000, 12:46:51.414
13, -1258.47, -1570.74, -2043.00, -1290.48, 0.000, 0.000, 0.000, 12:46:51.414
14, -768.28, -1042.89, -1578.24, -823.06, 0.000, 0.000, 0.000, 12:46:51.414
15, -306.30, -541.83, -1148.05, -370.23, 0.000, 0.000, 0.000, 12:46:51.428
16, -862.15, -1103.20, -1684.88, -912.69, 0.000, 0.000, 0.000, 12:46:51.428
17, -1290.59, -1547.67, -2011.81, -1310.62, 0.000, 0.000, 0.000, 12:46:51.429
18, -800.95, -1022.67, -1532.49, -855.68, 0.000, 0.000, 0.000, 12:46:51.429
19, -366.63, -504.71, -1113.89, -412.43, 0.000, 0.000, 0.000, 12:46:51.443
20, -918.64, -1060.98, -1634.11, -949.67, 0.000, 0.000, 0.000, 12:46:51.443
21, -1346.90, -1500.60, -1971.85, -1361.05, 0.000, 0.000, 0.000, 12:46:51.458
22, -875.06, -984.00, -1498.46, -892.19, 0.000, 0.000, 0.000, 12:46:51.458
23, -417.71, -453.07, -1072.60, -444.96, 0.000, 0.000, 0.000, 12:46:51.459
24, -988.94, -1011.99, -1605.26, -986.00, 0.000, 0.000, 0.000, 12:46:51.459
25, -1411.63, -1462.33, -1949.83, -1382.44, 0.000, 0.000, 0.000, 12:46:51.488
26, -933.19, -936.59, -1472.56, -905.81, 0.000, 0.000, 0.000, 12:46:51.488
27, -473.78, -417.33, -1054.01, -458.74, 0.000, 0.000, 0.000, 12:46:51.489
28, -1033.99, -968.35, -1588.60, -984.61, 0.000, 0.000, 0.000, 12:46:51.489
29, -1463.97, -1420.50, -1938.94, -1374.18, 0.000, 0.000, 0.000, 12:46:51.490
30, -983.03, -912.59, -1482.55, -905.28, 0.000, 0.000, 0.000, 12:46:51.490
31, -516.52, -400.53, -1061.04, -446.28, 0.000, 0.000, 0.000, 12:46:51.503
32, -1066.37, -946.28, -1591.74, -969.19, 0.000, 0.000, 0.000, 12:46:51.503
33, -1491.41, -1419.54, -1941.46, -1366.86, 0.000, 0.000, 0.000, 12:46:51.518
34, -1008.37, -896.33, -1482.14, -883.30, 0.000, 0.000, 0.000, 12:46:51.518
35, -542.64, -394.65, -1066.96, -430.56, 0.000, 0.000, 0.000, 12:46:51.518
36, -1079.48, -949.78, -1592.60, -948.84, 0.000, 0.000, 0.000, 12:46:51.519
37, -1500.22, -1419.33, -1953.28, -1347.30, 0.000, 0.000, 0.000, 12:46:51.548
38, -1004.43, -908.73, -1491.91, -869.85, 0.000, 0.000, 0.000, 12:46:51.548
39, -538.93, -387.68, -1073.82, -417.89, 0.000, 0.000, 0.000, 12:46:51.548
40, -1078.35, -957.51, -1606.11, -934.52, 0.000, 0.000, 0.000, 12:46:51.548
41, -1489.52, -1422.21, -1966.45, -1326.23, 0.000, 0.000, 0.000, 12:46:51.549
42, -1005.51, -913.41, -1512.41, -859.42, 0.000, 0.000, 0.000, 12:46:51.549
43, -538.46, -408.78, -1099.52, -397.96, 0.000, 0.000, 0.000, 12:46:51.565
44, -1070.43, -959.43, -1620.16, -921.34, 0.000, 0.000, 0.000, 12:46:51.565
45, -1490.34, -1443.09, -1979.06, -1314.61, 0.000, 0.000, 0.000, 12:46:51.578
46, -999.65, -928.87, -1515.00, -842.69, 0.000, 0.000, 0.000, 12:46:51.578
47, -524.95, -415.95, -1102.14, -387.56, 0.000, 0.000, 0.000, 12:46:51.594
48, -1054.18, -968.89, -1628.16, -901.65, 0.000, 0.000, 0.000, 12:46:51.594
49, -1477.26, -1452.46, -1998.36, -1309.07, 0.000, 0.000, 0.000, 12:46:51.594
50, -979.84, -941.37, -1542.39, -832.76, 0.000, 0.000, 0.000, 12:46:51.594
51, -506.44, -425.22, -1117.86, -373.58, 0.000, 0.000, 0.000, 12:46:51.608
52, -1037.32, -976.73, -1639.48, -880.83, 0.000, 0.000, 0.000, 12:46:51.608
53, -1462.32, -1462.84, -2012.37, -1303.96, 0.000, 0.000, 0.000, 12:46:51.609
54, -971.12, -942.86, -1552.25, -831.28, 0.000, 0.000, 0.000, 12:46:51.609
55, -496.16, -432.63, -1129.81, -366.62, 0.000, 0.000, 0.000, 12:46:51.623
56, -1020.42, -976.58, -1651.41, -881.42, 0.000, 0.000, 0.000, 12:46:51.623
57, -1452.63, -1466.34, -2020.66, -1303.87, 0.000, 0.000, 0.000, 12:46:51.638
58, -970.70, -957.60, -1553.32, -833.15, 0.000, 0.000, 0.000, 12:46:51.638
59, -489.12, -440.76, -1132.41, -360.74, 0.000, 0.000, 0.000, 12:46:51.639
60, -1015.44, -986.45, -1646.24, -876.83, 0.000, 0.000, 0.000, 12:46:51.639
61, -1448.28, -1469.81, -2027.90, -1301.42, 0.000, 0.000, 0.000, 12:46:51.653
62, -957.21, -959.79, -1568.10, -825.65, 0.000, 0.000, 0.000, 12:46:51.653
63, -491.49, -444.22, -1146.59, -361.35, 0.000, 0.000, 0.000, 12:46:51.668
64, -1016.67, -987.77, -1650.12, -878.70, 0.000, 0.000, 0.000, 12:46:51.668
65, -1451.95, -1478.92, -2035.28, -1291.65, 0.000, 0.000, 0.000, 12:46:51.669
66, -956.57, -970.80, -1568.75, -822.51, 0.000, 0.000, 0.000, 12:46:51.669
67, -472.24, -446.12, -1143.36, -365.84, 0.000, 0.000, 0.000, 12:46:51.691
68, -993.69, -984.54, -1652.66, -869.36, 0.000, 0.000, 0.000, 12:46:51.691
69, -1437.06, -1477.60, -2034.92, -1291.38, 0.000, 0.000, 0.000, 12:46:51.713
70, -941.11, -967.71, -1571.35, -823.87, 0.000, 0.000, 0.000, 12:46:51.713
71, -475.66, -447.49, -1147.94, -367.40, 0.000, 0.000, 0.000, 12:46:51.714
72, -992.54, -977.89, -1651.09, -864.97, 0.000, 0.000, 0.000, 12:46:51.714
73, -1447.20, -1483.86, -2042.06, -1292.74, 0.000, 0.000, 0.000, 12:46:51.714
74, -953.19, -976.19, -1572.40, -827.59, 0.000, 0.000, 0.000, 12:46:51.714
75, -477.47, -457.70, -1149.14, -369.24, 0.000, 0.000, 0.000, 12:46:51.715
76, -990.11, -988.39, -1652.55, -865.74, 0.000, 0.000, 0.000, 12:46:51.715
77, -1443.96, -1481.50, -2040.90, -1293.55, 0.000, 0.000, 0.000, 12:46:51.728
78, -944.31, -979.11, -1581.96, -821.09, 0.000, 0.000, 0.000, 12:46:51.728
79, -464.59, -456.60, -1151.37, -357.32, 0.000, 0.000, 0.000, 12:46:51.743
80, -979.79, -982.35, -1652.44, -858.91, 0.000, 0.000, 0.000, 12:46:51.743
81, -1423.79, -1481.43, -2037.35, -1288.09, 0.000, 0.000, 0.000, 12:46:51.759
82, -939.92, -976.07, -1573.00, -822.86, 0.000, 0.000, 0.000, 12:46:51.759
83, -459.44, -452.95, -1147.35, -365.92, 0.000, 0.000, 0.000, 12:46:51.759
84, -976.05, -978.75, -1649.37, -856.93, 0.000, 0.000, 0.000, 12:46:51.759
85, -1437.11, -1485.14, -2042.30, -1295.48, 0.000, 0.000, 0.000, 12:46:51.773
86, -943.62, -976.56, -1577.28, -830.00, 0.000, 0.000, 0.000, 12:46:51.774
87, -459.82, -455.37, -1151.05, -363.05, 0.000, 0.000, 0.000, 12:46:51.788
88, -967.37, -975.01, -1648.79, -856.79, 0.000, 0.000, 0.000, 12:46:51.788
89, -1427.25, -1494.02, -2044.77, -1295.02, 0.000, 0.000, 0.000, 12:46:51.789
90, -942.18, -993.55, -1590.78, -821.09, 0.000, 0.000, 0.000, 12:46:51.789
91, -470.20, -466.38, -1154.75, -358.96, 0.000, 0.000, 0.000, 12:46:51.818
92, -969.29, -977.88, -1639.12, -850.50, 0.000, 0.000, 0.000, 12:46:51.818
93, -1436.04, -1488.43, -2040.06, -1293.30, 0.000, 0.000, 0.000, 12:46:51.818
94, -950.81, -980.20, -1581.54, -827.57, 0.000, 0.000, 0.000, 12:46:51.818
95, -468.59, -460.81, -1146.80, -376.89, 0.000, 0.000, 0.000, 12:46:51.819
96, -966.35, -977.70, -1638.51, -855.36, 0.000, 0.000, 0.000, 12:46:51.819
97, -1435.52, -1489.18, -2047.43, -1299.18, 0.000, 0.000, 0.000, 12:46:51.833
98, -940.18, -988.60, -1582.66, -831.60, 0.000, 0.000, 0.000, 12:46:51.833
99, -457.36, -464.06, -1151.18, -367.80, 0.000, 0.000, 0.000, 12:46:51.848
100, -948.77, -988.25, -1642.68, -845.54, 0.000, 0.000, 0.000, 12:46:51.848
101, -1412.30, -1524.22, -2035.64, -1295.10, 0.000, 0.000, 0.000, 12:46:51.849
102, -931.27, -985.96, -1586.26, -840.18, 0.000, 0.000, 0.000, 12:46:51.849
103, -438.34, -459.23, -1144.23, -383.31, 0.000, 0.000, 0.000, 12:46:51.864
104, -931.48, -994.56, -1633.71, -877.89, 0.000, 0.000, 0.000, 12:46:51.864
105, -1384.84, -1525.14, -2045.65, -1326.52, 0.000, 0.000, 0.000, 12:46:51.878
106, -866.11, -1027.98, -1591.02, -816.64, 0.000, 0.000, 0.000, 12:46:51.878
107, -347.04, -521.44, -1170.06, -347.12, 0.000, 0.000, 0.000, 12:46:51.879
108, -826.65, -1058.26, -1675.96, -827.53, 0.000, 0.000, 0.000, 12:46:51.879
109, -1271.05, -1592.57, -2089.19, -1267.70, 0.000, 0.000, 0.000, 12:46:51.894
110, -763.28, -1107.53, -1648.12, -788.28, 0.000, 0.000, 0.000, 12:46:51.894
111, -277.40, -584.45, -1226.31, -326.97, 0.000, 0.000, 0.000, 12:46:51.923
112, -760.31, -1090.38, -1716.37, -786.42, 0.000, 0.000, 0.000, 12:46:51.924
113, -1226.81, -1620.35, -2125.44, -1236.32, 0.000, 0.000, 0.000, 12:46:51.924
114, -755.69, -1119.29, -1681.27, -782.67, 0.000, 0.000, 0.000, 12:46:51.924
115, -275.71, -596.00, -1249.07, -299.95, 0.000, 0.000, 0.000, 12:46:51.925
116, -769.60, -1086.15, -1735.30, -757.23, 0.000, 0.000, 0.000, 12:46:51.925
117, -1258.87, -1619.11, -2153.71, -1232.09, 0.000, 0.000, 0.000, 12:46:51.925
118, -787.88, -1108.98, -1689.40, -753.75, 0.000, 0.000, 0.000, 12:46:51.926
119, -317.63, -566.25, -1254.96, -285.49, 0.000, 0.000, 0.000, 12:46:51.938
120, -825.04, -1055.40, -1732.93, -760.35, 0.000, 0.000, 0.000, 12:46:51.938
121, -1314.74, -1579.52, -2153.64, -1217.26, 0.000, 0.000, 0.000, 12:46:51.953
122, -856.21, -1061.91, -1691.82, -753.14, 0.000, 0.000, 0.000, 12:46:51.953
123, -383.38, -522.54, -1257.13, -280.99, 0.000, 0.000, 0.000, 12:46:51.968
124, -889.92, -1005.42, -1735.32, -752.22, 0.000, 0.000, 0.000, 12:46:51.969
125, -1397.69, -1525.88, -2151.51, -1206.43, 0.000, 0.000, 0.000, 12:46:51.977
126, -919.08, -1024.03, -1690.95, -748.31, 0.000, 0.000, 0.000, 12:46:51.977
127, -446.78, -479.11, -1251.35, -279.34, 0.000, 0.000, 0.000, 12:46:51.983
128, -952.37, -970.60, -1717.71, -750.67, 0.000, 0.000, 0.000, 12:46:51.983
129, -1431.60, -1494.24, -2136.98, -1212.53, 0.000, 0.000, 0.000, 12:46:51.998
130, -963.33, -995.48, -1680.63, -761.23, 0.000, 0.000, 0.000, 12:46:51.998
131, -482.44, -447.21, -1235.08, -289.24, 0.000, 0.000, 0.000, 12:46:51.998
132, -970.59, -935.14, -1711.34, -761.12, 0.000, 0.000, 0.000, 12:46:51.998
