%OpenBCI Raw EEG Data
%
%Sample Rate = 200.0 Hz
%First Column = SampleIndex
%Last Column = Timestamp 
%Other Columns = EEG data in microvolts followed by Accel Data (in G) interleaved with Aux Data
0, -3560.72, -3663.21, -4301.70, -3595.03, 0.000, 0.000, 0.000, 12:55:43.980
1, -3792.84, -3951.87, -4515.80, -3817.09, 0.000, 0.000, 0.000, 12:55:43.980
2, -3409.73, -3538.32, -4165.70, -3461.00, 0.000, 0.000, 0.000, 12:55:43.981
3, -3007.38, -3037.38, -3817.40, -3074.67, 0.000, 0.000, 0.000, 12:55:44.040
4, -3549.98, -3676.91, -4305.83, -3559.99, 0.000, 0.000, 0.000, 12:55:44.040
5, -3785.45, -3928.94, -4518.41, -3793.97, 0.000, 0.000, 0.000, 12:55:44.041
6, -3401.27, -3501.05, -4170.94, -3432.44, 0.000, 0.000, 0.000, 12:55:44.041
7, -2993.49, -3084.45, -3811.10, -3051.26, 0.000, 0.000, 0.000, 12:55:44.042
8, -3521.19, -3647.53, -4281.87, -3532.13, 0.000, 0.000, 0.000, 12:55:44.043
9, -3771.92, -3939.15, -4509.38, -3772.07, 0.000, 0.000, 0.000, 12:55:44.043
10, -3391.32, -3505.34, -4172.07, -3428.52, 0.000, 0.000, 0.000, 12:55:44.043
11, -2976.85, -3031.70, -3787.06, -3035.30, 0.000, 0.000, 0.000, 12:55:44.043
12, -3503.51, -3628.66, -4268.02, -3506.97, 0.000, 0.000, 0.000, 12:55:44.043
13, -3751.18, -3921.10, -4486.05, -3768.99, 0.000, 0.000, 0.000, 12:55:44.043
14, -3365.56, -3511.02, -4158.66, -3403.14, 0.000, 0.000, 0.000, 12:55:44.043
15, -2978.18, -3053.78, -3811.54, -3020.87, 0.000, 0.000, 0.000, 12:55:44.044
16, -3493.67, -3638.51, -4254.59, -3496.73, 0.000, 0.000, 0.000, 12:55:44.044
17, -3754.58, -3927.28, -4490.10, -3759.36, 0.000, 0.000, 0.000, 12:55:44.071
18, -3375.34, -3464.89, -4158.53, -3406.23, 0.000, 0.000, 0.000, 12:55:44.071
19, -2987.36, -3102.36, -3814.15, -3022.49, 0.000, 0.000, 0.000, 12:55:44.071
20, -3500.95, -3618.56, -4265.94, -3497.65, 0.000, 0.000, 0.000, 12:55:44.071
21, -3745.98, -3886.05, -4479.78, -3743.85, 0.000, 0.000, 0.000, 12:55:44.085
22, -3376.83, -3522.95, -4153.41, -3402.29, 0.000, 0.000, 0.000, 12:55:44.085
23, -2968.01, -3090.92, -3813.00, -3014.09, 0.000, 0.000, 0.000, 12:55:44.085
24, -3479.74, -3604.54, -4249.01, -3476.06, 0.000, 0.000, 0.000, 12:55:44.085
25, -3731.82, -3881.31, -4463.96, -3742.86, 0.000, 0.000, 0.000, 12:55:44.100
26, -3367.57, -3504.58, -4153.07, -3407.62, 0.000, 0.000, 0.000, 12:55:44.100
27, -2957.89, -3017.78, -3801.14, -3020.89, 0.000, 0.000, 0.000, 12:55:44.114
28, -3482.17, -3615.85, -4257.25, -3479.87, 0.000, 0.000, 0.000, 12:55:44.114
29, -3745.06, -3903.66, -4494.56, -3736.07, 0.000, 0.000, 0.000, 12:55:44.145
30, -3368.35, -3506.72, -4138.67, -3398.81, 0.000, 0.000, 0.000, 12:55:44.145
31, -2963.78, -3114.10, -3785.88, -3011.01, 0.000, 0.000, 0.000, 12:55:44.160
32, -3477.63, -3604.19, -4241.33, -3484.06, 0.000, 0.000, 0.000, 12:55:44.160
33, -3735.33, -3921.73, -4472.72, -3733.17, 0.000, 0.000, 0.000, 12:55:44.160
34, -3375.36, -3449.42, -4160.57, -3429.65, 0.000, 0.000, 0.000, 12:55:44.160
35, -2953.97, -3016.60, -3788.77, -3002.58, 0.000, 0.000, 0.000, 12:55:44.161
36, -3483.66, -3653.41, -4253.02, -3470.69, 0.000, 0.000, 0.000, 12:55:44.161
37, -3742.62, -3912.52, -4478.67, -3740.10, 0.000, 0.000, 0.000, 12:55:44.162
38, -3377.95, -3458.79, -4149.38, -3410.40, 0.000, 0.000, 0.000, 12:55:44.162
39, -2969.47, -3047.11, -3785.02, -3018.76, 0.000, 0.000, 0.000, 12:55:44.162
40, -3484.82, -3663.16, -4256.57, -3477.46, 0.000, 0.000, 0.000, 12:55:44.163
41, -3737.70, -3878.73, -4473.10, -3739.52, 0.000, 0.000, 0.000, 12:55:44.190
42, -3364.05, -3490.38, -4145.60, -3410.98, 0.000, 0.000, 0.000, 12:55:44.190
43, -2958.66, -3056.90, -3775.89, -3017.10, 0.000, 0.000, 0.000, 12:55:44.192
44, -3471.54, -3616.86, -4227.52, -3465.35, 0.000, 0.000, 0.000, 12:55:44.192
45, -3746.42, -3936.93, -4492.47, -3738.88, 0.000, 0.000, 0.000, 12:55:44.206
46, -3379.88, -3484.83, -4158.03, -3412.93, 0.000, 0.000, 0.000, 12:55:44.206
47, -2959.71, -3038.06, -3777.61, -3011.84, 0.000, 0.000, 0.000, 12:55:44.206
48, -3449.92, -3588.94, -4214.78, -3473.14, 0.000, 0.000, 0.000, 12:55:44.206
49, -3739.36, -3928.32, -4490.30, -3745.22, 0.000, 0.000, 0.000, 12:55:44.221
50, -3390.46, -3504.76, -4170.22, -3405.21, 0.000, 0.000, 0.000, 12:55:44.221
51, -2963.42, -3064.78, -3794.26, -3016.40, 0.000, 0.000, 0.000, 12:55:44.235
52, -3464.94, -3565.31, -4232.51, -3456.40, 0.000, 0.000, 0.000, 12:55:44.235
53, -3736.82, -3868.72, -4468.18, -3738.79, 0.000, 0.000, 0.000, 12:55:44.236
54, -3381.07, -3506.19, -4166.85, -3420.30, 0.000, 0.000, 0.000, 12:55:44.236
55, -2963.52, -3068.06, -3797.63, -3013.23, 0.000, 0.000, 0.000, 12:55:44.280
56, -3449.08, -3624.75, -4231.28, -3454.36, 0.000, 0.000, 0.000, 12:55:44.280
57, -3726.40, -3881.38, -4470.70, -3751.52, 0.000, 0.000, 0.000, 12:55:44.280
58, -3381.43, -3512.95, -4159.39, -3416.04, 0.000, 0.000, 0.000, 12:55:44.280
59, -2951.71, -3042.15, -3786.01, -2998.61, 0.000, 0.000, 0.000, 12:55:44.281
60, -3453.20, -3624.63, -4239.02, -3466.03, 0.000, 0.000, 0.000, 12:55:44.281
61, -3742.74, -3900.78, -4471.21, -3748.10, 0.000, 0.000, 0.000, 12:55:44.282
62, -3374.15, -3508.57, -4150.44, -3421.53, 0.000, 0.000, 0.000, 12:55:44.282
63, -2959.83, -3049.11, -3789.56, -3010.42, 0.000, 0.000, 0.000, 12:55:44.295
64, -3448.11, -3637.03, -4232.57, -3442.23, 0.000, 0.000, 0.000, 12:55:44.295
65, -3744.14, -3901.68, -4486.08, -3743.47, 0.000, 0.000, 0.000, 12:55:44.296
66, -3379.25, -3509.40, -4154.71, -3421.55, 0.000, 0.000, 0.000, 12:55:44.296
67, -2963.69, -3051.99, -3791.94, -3017.54, 0.000, 0.000, 0.000, 12:55:44.325
68, -3441.59, -3586.81, -4206.35, -3439.00, 0.000, 0.000, 0.000, 12:55:44.325
69, -3735.41, -3893.07, -4473.60, -3746.01, 0.000, 0.000, 0.000, 12:55:44.325
70, -3388.11, -3534.44, -4168.10, -3427.35, 0.000, 0.000, 0.000, 12:55:44.325
71, -2963.79, -3068.60, -3796.79, -3020.55, 0.000, 0.000, 0.000, 12:55:44.326
72, -3431.97, -3580.36, -4219.72, -3428.14, 0.000, 0.000, 0.000, 12:55:44.326
73, -3741.74, -3902.18, -4471.93, -3740.29, 0.000, 0.000, 0.000, 12:55:44.340
74, -3388.91, -3523.37, -4171.65, -3427.87, 0.000, 0.000, 0.000, 12:55:44.340
75, -2971.24, -3056.12, -3802.34, -3030.39, 0.000, 0.000, 0.000, 12:55:44.355
76, -3431.75, -3568.13, -4203.42, -3434.72, 0.000, 0.000, 0.000, 12:55:44.356
77, -3738.85, -3861.56, -4475.20, -3755.62, 0.000, 0.000, 0.000, 12:55:44.362
78, -3402.33, -3519.87, -4195.77, -3431.46, 0.000, 0.000, 0.000, 12:55:44.362
79, -2957.56, -3045.75, -3799.67, -3025.31, 0.000, 0.000, 0.000, 12:55:44.370
80, -3441.13, -3573.47, -4217.82, -3417.37, 0.000, 0.000, 0.000, 12:55:44.370
81, -3747.70, -3915.70, -4477.54, -3745.95, 0.000, 0.000, 0.000, 12:55:44.385
82, -3395.77, -3507.65, -4168.98, -3432.63, 0.000, 0.000, 0.000, 12:55:44.385
83, -2954.63, -3049.68, -3796.38, -3016.51, 0.000, 0.000, 0.000, 12:55:44.386
84, -3423.07, -3552.38, -4207.78, -3432.35, 0.000, 0.000, 0.000, 12:55:44.386
85, -3735.14, -3943.72, -4489.17, -3740.63, 0.000, 0.000, 0.000, 12:55:44.400
86, -3395.46, -3508.70, -4171.69, -3435.36, 0.000, 0.000, 0.000, 12:55:44.400
87, -2954.80, -3055.10, -3784.14, -3004.32, 0.000, 0.000, 0.000, 12:55:44.430
88, -3422.30, -3568.15, -4201.97, -3428.40, 0.000, 0.000, 0.000, 12:55:44.430
89, -3734.57, -3905.47, -4477.20, -3740.49, 0.000, 0.000, 0.000, 12:55:44.431
90, -3402.21, -3528.37, -4181.54, -3433.12, 0.000, 0.000, 0.000, 12:55:44.431
91, -2964.73, -3057.18, -3792.47, -3025.20, 0.000, 0.000, 0.000, 12:55:44.432
92, -3422.53, -3567.83, -4210.56, -3435.09, 0.000, 0.000, 0.000, 12:55:44.432
93, -3748.12, -3928.30, -4495.71, -3740.01, 0.000, 0.000, 0.000, 12:55:44.475
94, -3398.14, -3514.82, -4176.28, -3420.04, 0.000, 0.000, 0.000, 12:55:44.475
95, -2960.13, -3050.95, -3794.37, -3017.27, 0.000, 0.000, 0.000, 12:55:44.476
96, -3422.95, -3561.15, -4199.06, -3417.37, 0.000, 0.000, 0.000, 12:55:44.476
97, -3745.69, -3896.80, -4490.39, -3743.13, 0.000, 0.000, 0.000, 12:55:44.476
98, -3399.06, -3507.09, -4176.79, -3427.60, 0.000, 0.000, 0.000, 12:55:44.476
99, -2954.29, -3044.24, -3802.82, -3006.62, 0.000, 0.000, 0.000, 12:55:44.477
100, -3417.72, -3600.60, -4209.87, -3414.51, 0.000, 0.000, 0.000, 12:55:44.477
101, -3758.78, -3914.56, -4495.17, -3768.72, 0.000, 0.000, 0.000, 12:55:44.478
102, -3391.02, -3528.01, -4171.08, -3413.38, 0.000, 0.000, 0.000, 12:55:44.478
103, -2948.40, -3084.47, -3808.46, -2987.64, 0.000, 0.000, 0.000, 12:55:44.520
104, -3408.92, -3554.45, -4231.02, -3413.93, 0.000, 0.000, 0.000, 12:55:44.521
105, -3733.40, -3918.73, -4498.06, -3717.84, 0.000, 0.000, 0.000, 12:55:44.535
106, -3395.14, -3550.02, -4205.47, -3417.56, 0.000, 0.000, 0.000, 12:55:44.535
107, -2966.43, -3054.89, -3835.25, -2991.00, 0.000, 0.000, 0.000, 12:55:44.536
108, -3408.40, -3579.50, -4227.99, -3380.96, 0.000, 0.000, 0.000, 12:55:44.536
109, -3753.10, -3977.00, -4534.18, -3721.00, 0.000, 0.000, 0.000, 12:55:44.536
110, -3404.03, -3532.63, -4202.63, -3417.31, 0.000, 0.000, 0.000, 12:55:44.536
111, -2978.50, -3060.40, -3821.98, -3003.16, 0.000, 0.000, 0.000, 12:55:44.536
112, -3414.45, -3562.19, -4217.71, -3399.85, 0.000, 0.000, 0.000, 12:55:44.536
113, -3753.30, -3921.47, -4503.26, -3751.23, 0.000, 0.000, 0.000, 12:55:44.538
114, -3418.14, -3582.37, -4214.71, -3435.40, 0.000, 0.000, 0.000, 12:55:44.538
115, -2979.25, -3089.41, -3834.66, -3008.42, 0.000, 0.000, 0.000, 12:55:44.550
116, -3398.82, -3545.49, -4181.55, -3404.44, 0.000, 0.000, 0.000, 12:55:44.550
117, -3747.43, -3909.53, -4489.38, -3742.66, 0.000, 0.000, 0.000, 12:55:44.565
118, -3412.07, -3559.57, -4199.31, -3446.87, 0.000, 0.000, 0.000, 12:55:44.565
119, -2968.13, -3058.90, -3818.30, -3012.71, 0.000, 0.000, 0.000, 12:55:44.594
120, -3403.27, -3567.95, -4201.00, -3400.02, 0.000, 0.000, 0.000, 12:55:44.595
121, -3755.10, -3940.73, -4503.22, -3757.34, 0.000, 0.000, 0.000, 12:55:44.595
122, -3415.87, -3534.63, -4203.81, -3436.02, 0.000, 0.000, 0.000, 12:55:44.595
123, -2959.37, -3047.67, -3790.85, -3016.65, 0.000, 0.000, 0.000, 12:55:44.596
124, -3397.13, -3533.46, -4190.91, -3399.12, 0.000, 0.000, 0.000, 12:55:44.596
125, -3748.80, -3901.96, -4501.19, -3754.54, 0.000, 0.000, 0.000, 12:55:44.596
126, -3418.09, -3540.14, -4209.26, -3432.75, 0.000, 0.000, 0.000, 12:55:44.597
127, -2955.83, -3051.36, -3795.99, -2994.90, 0.000, 0.000, 0.000, 12:55:44.610
128, -3386.77, -3514.53, -4168.40, -3397.87, 0.000, 0.000, 0.000, 12:55:44.610
129, -3750.33, -3941.88, -4502.91, -3756.43, 0.000, 0.000, 0.000, 12:55:44.625
130, -3421.14, -3544.39, -4213.57, -3452.38, 0.000, 0.000, 0.000, 12:55:44.625
131, -2950.86, -2961.59, -3781.80, -3005.61, 0.000, 0.000, 0.000, 12:55:44.626
132, -3395.49, -3530.35, -4178.99, -3390.77, 0.000, 0.000, 0.000, 12:55:44.626
133, -3774.63, -3984.31, -4529.41, -3753.99, 0.000, 0.000, 0.000, 12:55:44.640
134, -3433.38, -3549.69, -4219.28, -3456.65, 0.000, 0.000, 0.000, 12:55:44.640
135, -2942.26, -3048.46, -3780.11, -2996.96, 0.000, 0.000, 0.000, 12:55:44.655
136, -3361.80, -3481.08, -4163.20, -3390.54, 0.000, 0.000, 0.000, 12:55:44.655
137, -3747.60, -3940.73, -4513.74, -3752.04, 0.000, 0.000, 0.000, 12:55:44.655
138, -3382.88, -3574.10, -4203.00, -3449.24, 0.000, 0.000, 0.000, 12:55:44.655
139, -2903.17, -3054.91, -3779.28, -3006.40, 0.000, 0.000, 0.000, 12:55:44.670
140, -3310.64, -3574.81, -4158.10, -3371.26, 0.000, 0.000, 0.000, 12:55:44.670
141, -3673.86, -3958.91, -4506.59, -3753.86, 0.000, 0.000, 0.000, 12:55:44.687
142, -3319.92, -3592.35, -4186.46, -3435.53, 0.000, 0.000, 0.000, 12:55:44.687
143, -2841.26, -3120.03, -3799.89, -3000.30, 0.000, 0.000, 0.000, 12:55:44.687
144, -3256.15, -3551.57, -4173.36, -3380.09, 0.000, 0.000, 0.000, 12:55:44.687
145, -3615.79, -3989.29, -4484.78, -3761.28, 0.000, 0.000, 0.000, 12:55:44.700
146, -3296.68, -3591.64, -4181.72, -3457.65, 0.000, 0.000, 0.000, 12:55:44.700
147, -2848.99, -3077.75, -3783.71, -3023.18, 0.000, 0.000, 0.000, 12:55:44.715
148, -3269.89, -3540.73, -4148.61, -3378.52, 0.000, 0.000, 0.000, 12:55:44.715
149, -3678.17, -3976.75, -4508.44, -3756.61, 0.000, 0.000, 0.000, 12:55:44.715
150, -3370.36, -3566.83, -4207.05, -3465.37, 0.000, 0.000, 0.000, 12:55:44.715
151, -2904.06, -3041.78, -3775.11, -3035.03, 0.000, 0.000, 0.000, 12:55:44.744
152, -3338.57, -3547.86, -4154.91, -3386.75, 0.000, 0.000, 0.000, 12:55:44.745
153, -3731.39, -3961.21, -4494.24, -3773.80, 0.000, 0.000, 0.000, 12:55:44.745
154, -3419.01, -3583.04, -4211.03, -3486.18, 0.000, 0.000, 0.000, 12:55:44.745
155, -2961.35, -3048.05, -3794.12, -3032.56, 0.000, 0.000, 0.000, 12:55:44.746
156, -3366.57, -3470.17, -4136.13, -3394.58, 0.000, 0.000, 0.000, 12:55:44.746
157, -3762.49, -3906.07, -4491.24, -3769.92, 0.000, 0.000, 0.000, 12:55:44.775
158, -3445.96, -3552.96, -4205.16, -3479.07, 0.000, 0.000, 0.000, 12:55:44.775
159, -2993.41, -3056.64, -3803.01, -3034.01, 0.000, 0.000, 0.000, 12:55:44.776
160, -3391.86, -3454.98, -4146.72, -3383.46, 0.000, 0.000, 0.000, 12:55:44.776
161, -3776.91, -3893.76, -4479.36, -3768.52, 0.000, 0.000, 0.000, 12:55:44.776
162, -3468.68, -3573.07, -4218.42, -3481.08, 0.000, 0.000, 0.000, 12:55:44.776
163, -3001.94, -3065.42, -3797.33, -3032.37, 0.000, 0.000, 0.000, 12:55:44.791
164, -3403.06, -3497.05, -4148.67, -3376.30, 0.000, 0.000, 0.000, 12:55:44.791
165, -3781.99, -3903.24, -4482.61, -3760.34, 0.000, 0.000, 0.000, 12:55:44.836
166, -3476.21, -3559.13, -4214.56, -3475.56, 0.000, 0.000, 0.000, 12:55:44.836
167, -3011.56, -3071.64, -3811.93, -3039.81, 0.000, 0.000, 0.000, 12:55:44.837
168, -3392.97, -3440.40, -4159.37, -3369.38, 0.000, 0.000, 0.000, 12:55:44.837
169, -3794.20, -3924.52, -4496.73, -3768.39, 0.000, 0.000, 0.000, 12:55:44.838
170, -3473.68, -3539.17, -4223.66, -3462.13, 0.000, 0.000, 0.000, 12:55:44.838
171, -3011.42, -3039.60, -3799.97, -3030.62, 0.000, 0.000, 0.000, 12:55:44.839
172, -3384.50, -3473.98, -4134.35, -3362.43, 0.000, 0.000, 0.000, 12:55:44.839
173, -3774.99, -3939.64, -4487.60, -3757.66, 0.000, 0.000, 0.000, 12:55:44.839
174, -3469.52, -3577.98, -4231.24, -3474.48, 0.000, 0.000, 0.000, 12:55:44.839
175, -2995.95, -3019.60, -3802.74, -3039.40, 0.000, 0.000, 0.000, 12:55:44.850
176, -3373.89, -3465.85, -4131.52, -3369.59, 0.000, 0.000, 0.000, 12:55:44.850
177, -3780.84, -3922.23, -4503.90, -3765.60, 0.000, 0.000, 0.000, 12:55:44.865
178, -3468.72, -3569.59, -4210.56, -3474.04, 0.000, 0.000, 0.000, 12:55:44.865
179, -3009.85, -3059.95, -3799.37, -3049.79, 0.000, 0.000, 0.000, 12:55:44.865
180, -3393.04, -3498.37, -4150.73, -3377.33, 0.000, 0.000, 0.000, 12:55:44.865
181, -3788.76, -3931.67, -4506.91, -3752.40, 0.000, 0.000, 0.000, 12:55:44.881
182, -3475.95, -3590.16, -4228.37, -3471.73, 0.000, 0.000, 0.000, 12:55:44.881
183, -3006.99, -3061.79, -3813.82, -3038.06, 0.000, 0.000, 0.000, 12:55:44.895
184, -3381.28, -3497.85, -4152.98, -3377.61, 0.000, 0.000, 0.000, 12:55:44.895
185, -3780.23, -3921.97, -4503.81, -3761.78, 0.000, 0.000, 0.000, 12:55:44.896
186, -3470.04, -3565.59, -4233.94, -3494.13, 0.000, 0.000, 0.000, 12:55:44.896
187, -3011.75, -3079.01, -3826.24, -3053.87, 0.000, 0.000, 0.000, 12:55:44.910
188, -3374.77, -3505.27, -4156.68, -3382.94, 0.000, 0.000, 0.000, 12:55:44.910
189, -3774.71, -3951.11, -4513.77, -3768.96, 0.000, 0.000, 0.000, 12:55:44.925
190, -3455.89, -3578.80, -4231.27, -3485.34, 0.000, 0.000, 0.000, 12:55:44.925
191, -2993.57, -3081.72, -3826.59, -3057.84, 0.000, 0.000, 0.000, 12:55:44.925
192, -3360.59, -3463.89, -4145.89, -3356.16, 0.000, 0.000, 0.000, 12:55:44.925
193, -3772.47, -3927.88, -4503.57, -3756.10, 0.000, 0.000, 0.000, 12:55:44.941
194, -3467.24, -3592.33, -4231.62, -3490.70, 0.000, 0.000, 0.000, 12:55:44.941
195, -3002.53, -3042.17, -3839.09, -3050.47, 0.000, 0.000, 0.000, 12:55:44.956
196, -3370.94, -3472.94, -4149.23, -3363.75, 0.000, 0.000, 0.000, 12:55:44.956
197, -3758.42, -3894.76, -4486.91, -3765.97, 0.000, 0.000, 0.000, 12:55:44.956
198, -3464.60, -3584.34, -4237.71, -3487.98, 0.000, 0.000, 0.000, 12:55:44.956
199, -2998.29, -3069.00, -3839.82, -3032.55, 0.000, 0.000, 0.000, 12:55:44.986
200, -3354.51, -3473.38, -4124.57, -3369.12, 0.000, 0.000, 0.000, 12:55:44.986
0, -3762.27, -3911.73, -4492.56, -3755.30, 0.000, 0.000, 0.000, 12:55:44.987
1, -3467.38, -3641.57, -4248.11, -3489.55, 0.000, 0.000, 0.000, 12:55:44.989
2, -3006.51, -3060.90, -3830.36, -3044.55, 0.000, 0.000, 0.000, 12:55:44.989
3, -3337.01, -3455.27, -4115.93, -3367.08, 0.000, 0.000, 0.000, 12:55:44.989
4, -3755.54, -3905.23, -4492.82, -3764.82, 0.000, 0.000, 0.000, 12:55:44.989
5, -3471.77, -3629.97, -4249.19, -3491.76, 0.000, 0.000, 0.000, 12:55:45.015
6, -3018.09, -3099.40, -3838.09, -3048.15, 0.000, 0.000, 0.000, 12:55:45.015
7, -3338.31, -3486.25, -4129.01, -3348.71, 0.000, 0.000, 0.000, 12:55:45.015
8, -3745.02, -3907.65, -4479.60, -3752.47, 0.000, 0.000, 0.000, 12:55:45.015
9, -3462.26, -3569.67, -4224.86, -3498.51, 0.000, 0.000, 0.000, 12:55:45.030
10, -2990.02, -3062.26, -3815.01, -3057.99, 0.000, 0.000, 0.000, 12:55:45.031
11, -3332.56, -3459.58, -4120.72, -3360.78, 0.000, 0.000, 0.000, 12:55:45.031
12, -3761.10, -3955.54, -4490.64, -3761.63, 0.000, 0.000, 0.000, 12:55:45.031
13, -3471.34, -3625.25, -4232.48, -3502.95, 0.000, 0.000, 0.000, 12:55:45.075
14, -2997.52, -3024.18, -3791.79, -3053.79, 0.000, 0.000, 0.000, 12:55:45.075
15, -3331.48, -3427.21, -4098.92, -3350.77, 0.000, 0.000, 0.000, 12:55:45.076
16, -3763.60, -3950.75, -4510.79, -3763.00, 0.000, 0.000, 0.000, 12:55:45.076
17, -3466.96, -3570.60, -4217.24, -3504.99, 0.000, 0.000, 0.000, 12:55:45.091
18, -3000.98, -3088.35, -3809.71, -3047.79, 0.000, 0.000, 0.000, 12:55:45.091
19, -3339.27, -3450.16, -4105.69, -3350.32, 0.000, 0.000, 0.000, 12:55:45.105
20, -3772.62, -3940.83, -4502.99, -3764.27, 0.000, 0.000, 0.000, 12:55:45.105
21, -3467.56, -3571.23, -4238.07, -3494.23, 0.000, 0.000, 0.000, 12:55:45.105
22, -3004.60, -3072.46, -3827.50, -3053.23, 0.000, 0.000, 0.000, 12:55:45.105
23, -3318.69, -3445.57, -4102.01, -3328.40, 0.000, 0.000, 0.000, 12:55:45.106
24, -3763.49, -3933.70, -4502.21, -3768.37, 0.000, 0.000, 0.000, 12:55:45.106
25, -3475.30, -3628.82, -4251.34, -3502.70, 0.000, 0.000, 0.000, 12:55:45.107
26, -3001.25, -3084.59, -3822.19, -3051.34, 0.000, 0.000, 0.000, 12:55:45.108
27, -3316.98, -3421.96, -4095.56, -3335.93, 0.000, 0.000, 0.000, 12:55:45.150
28, -3759.03, -3902.13, -4477.98, -3767.99, 0.000, 0.000, 0.000, 12:55:45.150
29, -3481.60, -3638.27, -4254.65, -3499.34, 0.000, 0.000, 0.000, 12:55:45.151
30, -3012.95, -3114.84, -3845.65, -3050.86, 0.000, 0.000, 0.000, 12:55:45.151
31, -3300.49, -3422.48, -4091.09, -3328.45, 0.000, 0.000, 0.000, 12:55:45.151
32, -3754.37, -3938.97, -4492.03, -3757.48, 0.000, 0.000, 0.000, 12:55:45.151
33, -3478.10, -3642.94, -4258.06, -3508.57, 0.000, 0.000, 0.000, 12:55:45.152
34, -3004.21, -3091.52, -3826.61, -3039.31, 0.000, 0.000, 0.000, 12:55:45.152
35, -3308.09, -3415.87, -4096.58, -3312.69, 0.000, 0.000, 0.000, 12:55:45.153
36, -3751.32, -3922.21, -4494.27, -3752.87, 0.000, 0.000, 0.000, 12:55:45.153
37, -3474.29, -3625.30, -4252.24, -3516.70, 0.000, 0.000, 0.000, 12:55:45.164
38, -2998.97, -3111.29, -3832.90, -3055.50, 0.000, 0.000, 0.000, 12:55:45.165
39, -3312.72, -3458.52, -4120.20, -3311.20, 0.000, 0.000, 0.000, 12:55:45.180
40, -3763.55, -3905.61, -4491.31, -3756.56, 0.000, 0.000, 0.000, 12:55:45.181
41, -3479.16, -3597.50, -4243.04, -3501.97, 0.000, 0.000, 0.000, 12:55:45.181
42, -3006.38, -3102.51, -3836.71, -3060.97, 0.000, 0.000, 0.000, 12:55:45.181
43, -3305.32, -3399.15, -4096.56, -3320.80, 0.000, 0.000, 0.000, 12:55:45.210
44, -3745.79, -3922.73, -4476.64, -3764.88, 0.000, 0.000, 0.000, 12:55:45.210
45, -3485.38, -3600.03, -4255.17, -3511.33, 0.000, 0.000, 0.000, 12:55:45.211
46, -3031.29, -3166.80, -3878.76, -3044.02, 0.000, 0.000, 0.000, 12:55:45.211
47, -3304.35, -3409.12, -4090.46, -3315.27, 0.000, 0.000, 0.000, 12:55:45.211
48, -3748.92, -3922.83, -4477.93, -3768.09, 0.000, 0.000, 0.000, 12:55:45.212
49, -3481.90, -3626.67, -4247.49, -3508.69, 0.000, 0.000, 0.000, 12:55:45.225
50, -3003.57, -3078.32, -3820.06, -3052.33, 0.000, 0.000, 0.000, 12:55:45.225
51, -3312.25, -3434.75, -4088.28, -3321.95, 0.000, 0.000, 0.000, 12:55:45.255
52, -3788.80, -3944.14, -4512.05, -3779.37, 0.000, 0.000, 0.000, 12:55:45.255
53, -3485.80, -3587.82, -4237.40, -3522.76, 0.000, 0.000, 0.000, 12:55:45.256
54, -2986.66, -3064.16, -3798.99, -3059.68, 0.000, 0.000, 0.000, 12:55:45.256
55, -3275.73, -3401.21, -4038.50, -3334.70, 0.000, 0.000, 0.000, 12:55:45.263
56, -3763.29, -3926.26, -4483.07, -3796.84, 0.000, 0.000, 0.000, 12:55:45.263
57, -3485.67, -3646.27, -4232.79, -3536.62, 0.000, 0.000, 0.000, 12:55:45.270
58, -2987.29, -3044.50, -3758.98, -3086.95, 0.000, 0.000, 0.000, 12:55:45.270
59, -3280.37, -3372.36, -4022.22, -3350.67, 0.000, 0.000, 0.000, 12:55:45.272
60, -3748.11, -3872.95, -4433.70, -3801.47, 0.000, 0.000, 0.000, 12:55:45.272
61, -3486.37, -3653.79, -4214.69, -3565.10, 0.000, 0.000, 0.000, 12:55:45.285
62, -3015.66, -3125.97, -3811.71, -3087.83, 0.000, 0.000, 0.000, 12:55:45.285
63, -3295.84, -3397.72, -4054.91, -3338.58, 0.000, 0.000, 0.000, 12:55:45.299
64, -3764.44, -3922.69, -4476.52, -3781.44, 0.000, 0.000, 0.000, 12:55:45.299
65, -3486.81, -3607.82, -4222.95, -3544.50, 0.000, 0.000, 0.000, 12:55:45.301
66, -3013.38, -3087.42, -3819.82, -3092.83, 0.000, 0.000, 0.000, 12:55:45.301
67, -3290.33, -3403.12, -4056.98, -3322.70, 0.000, 0.000, 0.000, 12:55:45.316
68, -3763.55, -3945.28, -4465.50, -3781.50, 0.000, 0.000, 0.000, 12:55:45.316
69, -3493.49, -3667.03, -4254.33, -3535.09, 0.000, 0.000, 0.000, 12:55:45.330
70, -3019.27, -3075.92, -3827.32, -3100.84, 0.000, 0.000, 0.000, 12:55:45.330
71, -3303.69, -3449.29, -4089.76, -3320.51, 0.000, 0.000, 0.000, 12:55:45.331
72, -3761.18, -3886.54, -4480.34, -3788.23, 0.000, 0.000, 0.000, 12:55:45.331
73, -3509.69, -3723.86, -4296.19, -3546.09, 0.000, 0.000, 0.000, 12:55:45.345
74, -3021.03, -3070.70, -3842.18, -3079.07, 0.000, 0.000, 0.000, 12:55:45.345
75, -3282.96, -3375.24, -4044.93, -3321.92, 0.000, 0.000, 0.000, 12:55:45.390
76, -3772.55, -3960.36, -4493.62, -3764.98, 0.000, 0.000, 0.000, 12:55:45.390
77, -3513.25, -3655.68, -4273.08, -3526.90, 0.000, 0.000, 0.000, 12:55:45.392
78, -3015.14, -3113.63, -3834.86, -3063.31, 0.000, 0.000, 0.000, 12:55:45.392
79, -3279.63, -3423.69, -4055.90, -3286.50, 0.000, 0.000, 0.000, 12:55:45.392
80, -3757.21, -3928.10, -4485.84, -3755.82, 0.000, 0.000, 0.000, 12:55:45.392
81, -3494.08, -3650.88, -4262.52, -3531.20, 0.000, 0.000, 0.000, 12:55:45.392
82, -3007.59, -3097.92, -3839.46, -3061.37, 0.000, 0.000, 0.000, 12:55:45.392
83, -3277.11, -3397.83, -4074.56, -3298.26, 0.000, 0.000, 0.000, 12:55:45.393
84, -3753.80, -3930.83, -4491.52, -3753.54, 0.000, 0.000, 0.000, 12:55:45.393
85, -3514.23, -3660.08, -4294.40, -3538.01, 0.000, 0.000, 0.000, 12:55:45.406
86, -3074.10, -3153.13, -3907.82, -3100.60, 0.000, 0.000, 0.000, 12:55:45.406
87, -3261.92, -3393.58, -4031.56, -3304.64, 0.000, 0.000, 0.000, 12:55:45.420
88, -3734.19, -3831.68, -4435.95, -3762.66, 0.000, 0.000, 0.000, 12:55:45.421
89, -3496.98, -3649.47, -4227.59, -3548.43, 0.000, 0.000, 0.000, 12:55:45.421
90, -3037.49, -3130.03, -3805.95, -3091.57, 0.000, 0.000, 0.000, 12:55:45.421
91, -3285.52, -3448.28, -4022.07, -3307.18, 0.000, 0.000, 0.000, 12:55:45.435
92, -3766.32, -3837.50, -4397.40, -3799.85, 0.000, 0.000, 0.000, 12:55:45.435
93, -3524.12, -3563.26, -4183.90, -3570.60, 0.000, 0.000, 0.000, 12:55:45.449
94, -3056.39, -3079.17, -3777.74, -3124.64, 0.000, 0.000, 0.000, 12:55:45.449
95, -3302.59, -3370.85, -3997.44, -3332.54, 0.000, 0.000, 0.000, 12:55:45.450
96, -3792.31, -3909.15, -4418.69, -3792.52, 0.000, 0.000, 0.000, 12:55:45.450
97, -3544.02, -3635.57, -4203.83, -3572.47, 0.000, 0.000, 0.000, 12:55:45.464
98, -3052.19, -3089.74, -3774.96, -3121.88, 0.000, 0.000, 0.000, 12:55:45.464
99, -3288.34, -3351.56, -3998.18, -3316.57, 0.000, 0.000, 0.000, 12:55:45.480
100, -3784.07, -3914.60, -4446.29, -3806.34, 0.000, 0.000, 0.000, 12:55:45.480
101, -3550.54, -3671.61, -4251.87, -3571.65, 0.000, 0.000, 0.000, 12:55:45.481
102, -3042.31, -3003.67, -3787.33, -3115.14, 0.000, 0.000, 0.000, 12:55:45.481
103, -3279.97, -3361.06, -4026.09, -3315.72, 0.000, 0.000, 0.000, 12:55:45.495
104, -3808.30, -3945.79, -4490.06, -3791.59, 0.000, 0.000, 0.000, 12:55:45.495
105, -3532.54, -3658.16, -4243.72, -3569.44, 0.000, 0.000, 0.000, 12:55:45.510
106, -3044.83, -3108.38, -3824.97, -3088.75, 0.000, 0.000, 0.000, 12:55:45.510
107, -3273.66, -3348.70, -4024.96, -3293.66, 0.000, 0.000, 0.000, 12:55:45.511
108, -3774.71, -3930.22, -4476.22, -3785.03, 0.000, 0.000, 0.000, 12:55:45.511
109, -3514.80, -3625.46, -4242.19, -3560.88, 0.000, 0.000, 0.000, 12:55:45.525
110, -3028.66, -3122.52, -3817.78, -3098.56, 0.000, 0.000, 0.000, 12:55:45.525
111, -3255.96, -3371.00, -4041.02, -3286.12, 0.000, 0.000, 0.000, 12:55:45.539
112, -3772.02, -3939.84, -4490.28, -3759.49, 0.000, 0.000, 0.000, 12:55:45.540
113, -3528.57, -3684.97, -4277.76, -3561.59, 0.000, 0.000, 0.000, 12:55:45.541
114, -3033.83, -3148.82, -3851.95, -3079.21, 0.000, 0.000, 0.000, 12:55:45.541
115, -3256.32, -3357.77, -4014.60, -3277.30, 0.000, 0.000, 0.000, 12:55:45.571
116, -3762.08, -3900.84, -4459.02, -3771.38, 0.000, 0.000, 0.000, 12:55:45.571
117, -3531.92, -3659.29, -4273.45, -3563.41, 0.000, 0.000, 0.000, 12:55:45.571
118, -3024.42, -3114.01, -3841.60, -3108.62, 0.000, 0.000, 0.000, 12:55:45.571
119, -3249.48, -3432.20, -4044.77, -3276.17, 0.000, 0.000, 0.000, 12:55:45.571
120, -3782.41, -3934.06, -4509.32, -3758.95, 0.000, 0.000, 0.000, 12:55:45.571
121, -3523.84, -3693.15, -4269.91, -3539.58, 0.000, 0.000, 0.000, 12:55:45.586
122, -3036.51, -3114.19, -3851.87, -3085.57, 0.000, 0.000, 0.000, 12:55:45.586
123, -3231.74, -3348.63, -4018.96, -3259.72, 0.000, 0.000, 0.000, 12:55:45.630
124, -3764.56, -3954.44, -4501.08, -3782.81, 0.000, 0.000, 0.000, 12:55:45.630
125, -3524.70, -3630.44, -4286.39, -3542.03, 0.000, 0.000, 0.000, 12:55:45.630
126, -3049.57, -3164.84, -3875.57, -3091.53, 0.000, 0.000, 0.000, 12:55:45.630
127, -3242.16, -3355.37, -4013.89, -3263.02, 0.000, 0.000, 0.000, 12:55:45.631
128, -3753.07, -3879.16, -4473.86, -3765.66, 0.000, 0.000, 0.000, 12:55:45.631
129, -3522.81, -3702.44, -4293.20, -3546.06, 0.000, 0.000, 0.000, 12:55:45.631
130, -3031.71, -3138.05, -3860.08, -3094.79, 0.000, 0.000, 0.000, 12:55:45.632
131, -3236.23, -3368.09, -4034.53, -3262.12, 0.000, 0.000, 0.000, 12:55:45.645
132, -3769.10, -3952.37, -4511.28, -3750.87, 0.000, 0.000, 0.000, 12:55:45.645
133, -3536.83, -3695.99, -4300.11, -3567.23, 0.000, 0.000, 0.000, 12:55:45.646
134, -3041.59, -3122.02, -3858.32, -3098.74, 0.000, 0.000, 0.000, 12:55:45.647
135, -3262.79, -3379.23, -4050.53, -3272.21, 0.000, 0.000, 0.000, 12:55:45.691
136, -3776.89, -3934.08, -4497.15, -3774.12, 0.000, 0.000, 0.000, 12:55:45.691
137, -3514.14, -3630.32, -4275.46, -3549.68, 0.000, 0.000, 0.000, 12:55:45.691
138, -3027.37, -3137.35, -3863.54, -3094.72, 0.000, 0.000, 0.000, 12:55:45.691
139, -3208.47, -3318.62, -3994.43, -3254.87, 0.000, 0.000, 0.000, 12:55:45.691
140, -3751.82, -3991.40, -4494.83, -3755.33, 0.000, 0.000, 0.000, 12:55:45.692
141, -3504.98, -3692.85, -4265.18, -3571.74, 0.000, 0.000, 0.000, 12:55:45.692
142, -3012.84, -3108.98, -3803.50, -3114.85, 0.000, 0.000, 0.000, 12:55:45.692
143, -3222.14, -3371.17, -4021.50, -3260.30, 0.000, 0.000, 0.000, 12:55:45.693
144, -3762.89, -3962.24, -4498.73, -3767.11, 0.000, 0.000, 0.000, 12:55:45.693
145, -3531.35, -3711.99, -4296.16, -3567.93, 0.000, 0.000, 0.000, 12:55:45.706
146, -3040.99, -3163.70, -3847.45, -3105.59, 0.000, 0.000, 0.000, 12:55:45.706
147, -3221.22, -3311.68, -3999.80, -3247.06, 0.000, 0.000, 0.000, 12:55:45.720
148, -3755.85, -3938.28, -4494.19, -3754.80, 0.000, 0.000, 0.000, 12:55:45.720
149, -3528.32, -3677.64, -4289.95, -3565.96, 0.000, 0.000, 0.000, 12:55:45.721
150, -3051.84, -3157.34, -3880.58, -3107.43, 0.000, 0.000, 0.000, 12:55:45.721
151, -3219.50, -3369.59, -4024.66, -3255.55, 0.000, 0.000, 0.000, 12:55:45.735
152, -3747.84, -3870.18, -4459.13, -3757.84, 0.000, 0.000, 0.000, 12:55:45.735
153, -3539.82, -3694.44, -4298.97, -3556.62, 0.000, 0.000, 0.000, 12:55:45.750
154, -3052.58, -3126.98, -3867.34, -3100.69, 0.000, 0.000, 0.000, 12:55:45.750
155, -3211.66, -3334.61, -4014.59, -3235.10, 0.000, 0.000, 0.000, 12:55:45.751
156, -3752.48, -3910.26, -4488.71, -3753.60, 0.000, 0.000, 0.000, 12:55:45.751
157, -3525.03, -3681.93, -4290.02, -3571.78, 0.000, 0.000, 0.000, 12:55:45.765
158, -3044.52, -3140.08, -3876.68, -3104.12, 0.000, 0.000, 0.000, 12:55:45.765
159, -3198.25, -3280.11, -4006.63, -3233.15, 0.000, 0.000, 0.000, 12:55:45.780
160, -3743.62, -3927.27, -4471.91, -3757.10, 0.000, 0.000, 0.000, 12:55:45.780
161, -3531.68, -3666.47, -4281.71, -3566.86, 0.000, 0.000, 0.000, 12:55:45.781
162, -3050.09, -3170.68, -3866.32, -3098.73, 0.000, 0.000, 0.000, 12:55:45.781
163, -3210.31, -3330.89, -4015.37, -3239.75, 0.000, 0.000, 0.000, 12:55:45.795
164, -3770.21, -3960.17, -4532.50, -3749.46, 0.000, 0.000, 0.000, 12:55:45.795
165, -3542.57, -3657.59, -4287.14, -3558.03, 0.000, 0.000, 0.000, 12:55:45.810
166, -3048.89, -3163.50, -3864.53, -3107.36, 0.000, 0.000, 0.000, 12:55:45.810
167, -3224.75, -3325.26, -4023.69, -3230.63, 0.000, 0.000, 0.000, 12:55:45.810
168, -3751.06, -3908.16, -4490.17, -3749.99, 0.000, 0.000, 0.000, 12:55:45.811
169, -3540.42, -3658.57, -4314.49, -3554.67, 0.000, 0.000, 0.000, 12:55:45.824
170, -3047.52, -3128.49, -3863.88, -3103.86, 0.000, 0.000, 0.000, 12:55:45.825
171, -3199.72, -3324.77, -4008.41, -3238.08, 0.000, 0.000, 0.000, 12:55:45.842
172, -3762.89, -3966.29, -4499.51, -3758.13, 0.000, 0.000, 0.000, 12:55:45.842
173, -3536.67, -3704.83, -4299.43, -3567.61, 0.000, 0.000, 0.000, 12:55:45.842
174, -3035.81, -3139.16, -3859.19, -3103.08, 0.000, 0.000, 0.000, 12:55:45.842
175, -3206.38, -3300.35, -3999.81, -3234.93, 0.000, 0.000, 0.000, 12:55:45.855
176, -3741.72, -3941.43, -4482.04, -3755.70, 0.000, 0.000, 0.000, 12:55:45.855
177, -3552.84, -3681.85, -4330.16, -3549.85, 0.000, 0.000, 0.000, 12:55:45.900
178, -3058.74, -3135.80, -3885.32, -3104.71, 0.000, 0.000, 0.000, 12:55:45.900
179, -3203.72, -3332.91, -4009.57, -3233.60, 0.000, 0.000, 0.000, 12:55:45.901
180, -3749.47, -3920.67, -4500.69, -3734.76, 0.000, 0.000, 0.000, 12:55:45.902
181, -3544.43, -3656.79, -4320.13, -3570.94, 0.000, 0.000, 0.000, 12:55:45.902
182, -3049.53, -3144.00, -3860.70, -3098.12, 0.000, 0.000, 0.000, 12:55:45.902
183, -3204.03, -3353.11, -4005.33, -3213.48, 0.000, 0.000, 0.000, 12:55:45.902
184, -3751.55, -3873.09, -4485.47, -3758.45, 0.000, 0.000, 0.000, 12:55:45.902
185, -3550.39, -3679.10, -4309.34, -3556.52, 0.000, 0.000, 0.000, 12:55:45.903
186, -3067.62, -3194.18, -3899.49, -3100.10, 0.000, 0.000, 0.000, 12:55:45.903
187, -3184.38, -3312.93, -3992.70, -3228.89, 0.000, 0.000, 0.000, 12:55:45.945
188, -3738.14, -3865.37, -4473.85, -3736.90, 0.000, 0.000, 0.000, 12:55:45.945
189, -3545.70, -3680.73, -4315.54, -3568.02, 0.000, 0.000, 0.000, 12:55:45.946
190, -3056.81, -3203.36, -3879.12, -3104.92, 0.000, 0.000, 0.000, 12:55:45.946
191, -3186.90, -3307.12, -3993.89, -3200.79, 0.000, 0.000, 0.000, 12:55:45.947
192, -3748.25, -3955.67, -4490.61, -3745.24, 0.000, 0.000, 0.000, 12:55:45.947
193, -3541.04, -3674.46, -4311.48, -3576.64, 0.000, 0.000, 0.000, 12:55:45.948
194, -3069.87, -3160.74, -3883.39, -3113.81, 0.000, 0.000, 0.000, 12:55:45.948
195, -3181.26, -3303.23, -3979.80, -3204.05, 0.000, 0.000, 0.000, 12:55:45.949
196, -3753.22, -3922.56, -4487.81, -3748.41, 0.000, 0.000, 0.000, 12:55:45.949
197, -3555.56, -3710.05, -4309.11, -3580.87, 0.000, 0.000, 0.000, 12:55:45.959
198, -3072.65, -3195.41, -3893.87, -3119.44, 0.000, 0.000, 0.000, 12:55:45.959
199, -3195.49, -3317.26, -4013.51, -3200.77, 0.000, 0.000, 0.000, 12:55:45.974
200, -3746.46, -3914.27, -4472.01, -3737.48, 0.000, 0.000, 0.000, 12:55:45.974
0, -3550.96, -3695.47, -4305.90, -3573.03, 0.000, 0.000, 0.000, 12:55:45.976
1, -3064.53, -3130.63, -3874.18, -3118.16, 0.000, 0.000, 0.000, 12:55:45.990
2, -3173.82, -3293.43, -3985.81, -3219.04, 0.000, 0.000, 0.000, 12:55:45.991
3, -3740.82, -3918.44, -4501.42, -3750.31, 0.000, 0.000, 0.000, 12:55:46.006
4, -3544.62, -3660.51, -4308.66, -3568.00, 0.000, 0.000, 0.000, 12:55:46.006
5, -3053.18, -3119.16, -3859.80, -3119.73, 0.000, 0.000, 0.000, 12:55:46.006
6, -3164.26, -3276.80, -3967.87, -3206.07, 0.000, 0.000, 0.000, 12:55:46.006
7, -3748.84, -3927.46, -4496.42, -3734.35, 0.000, 0.000, 0.000, 12:55:46.026
8, -3558.47, -3740.13, -4325.19, -3579.74, 0.000, 0.000, 0.000, 12:55:46.026
9, -3071.83, -3183.11, -3910.42, -3107.92, 0.000, 0.000, 0.000, 12:55:46.036
10, -3157.84, -3261.01, -3958.02, -3188.42, 0.000, 0.000, 0.000, 12:55:46.036
11, -3735.96, -3932.04, -4472.22, -3738.08, 0.000, 0.000, 0.000, 12:55:46.036
12, -3553.10, -3673.18, -4329.62, -3577.23, 0.000, 0.000, 0.000, 12:55:46.036
13, -3065.87, -3136.52, -3907.56, -3119.78, 0.000, 0.000, 0.000, 12:55:46.050
14, -3157.83, -3208.25, -3967.90, -3185.77, 0.000, 0.000, 0.000, 12:55:46.050
15, -3738.59, -3891.70, -4467.36, -3728.30, 0.000, 0.000, 0.000, 12:55:46.065
16, -3561.73, -3652.10, -4310.98, -3585.36, 0.000, 0.000, 0.000, 12:55:46.065
17, -3070.58, -3191.12, -3889.63, -3124.51, 0.000, 0.000, 0.000, 12:55:46.066
18, -3158.06, -3289.28, -3965.65, -3189.85, 0.000, 0.000, 0.000, 12:55:46.066
19, -3741.18, -3892.51, -4470.78, -3744.14, 0.000, 0.000, 0.000, 12:55:46.080
20, -3553.32, -3757.40, -4333.50, -3571.53, 0.000, 0.000, 0.000, 12:55:46.080
21, -3062.64, -3131.33, -3873.54, -3127.18, 0.000, 0.000, 0.000, 12:55:46.094
22, -3152.15, -3261.10, -3952.06, -3195.00, 0.000, 0.000, 0.000, 12:55:46.095
23, -3740.11, -3938.72, -4481.77, -3733.42, 0.000, 0.000, 0.000, 12:55:46.126
24, -3567.55, -3763.52, -4335.61, -3589.67, 0.000, 0.000, 0.000, 12:55:46.126
25, -3068.94, -3213.34, -3892.68, -3131.95, 0.000, 0.000, 0.000, 12:55:46.140
26, -3167.04, -3281.38, -3969.11, -3180.03, 0.000, 0.000, 0.000, 12:55:46.141
27, -3737.10, -3885.28, -4468.73, -3730.55, 0.000, 0.000, 0.000, 12:55:46.141
28, -3573.73, -3738.35, -4325.76, -3586.29, 0.000, 0.000, 0.000, 12:55:46.141
29, -3099.41, -3205.70, -3915.67, -3128.71, 0.000, 0.000, 0.000, 12:55:46.141
30, -3165.57, -3281.70, -3984.43, -3190.40, 0.000, 0.000, 0.000, 12:55:46.141
31, -3735.59, -3931.13, -4466.19, -3741.93, 0.000, 0.000, 0.000, 12:55:46.142
32, -3559.46, -3703.36, -4305.88, -3599.01, 0.000, 0.000, 0.000, 12:55:46.142
33, -3075.10, -3181.19, -3886.91, -3135.11, 0.000, 0.000, 0.000, 12:55:46.142
34, -3155.20, -3330.13, -3962.03, -3193.96, 0.000, 0.000, 0.000, 12:55:46.142
35, -3742.50, -3894.60, -4476.99, -3749.23, 0.000, 0.000, 0.000, 12:55:46.170
36, -3561.66, -3710.18, -4318.41, -3600.57, 0.000, 0.000, 0.000, 12:55:46.170
37, -3073.22, -3151.34, -3881.32, -3138.27, 0.000, 0.000, 0.000, 12:55:46.170
38, -3153.96, -3278.31, -3963.17, -3178.46, 0.000, 0.000, 0.000, 12:55:46.170
39, -3745.89, -3907.91, -4472.22, -3736.89, 0.000, 0.000, 0.000, 12:55:46.200
40, -3568.31, -3715.41, -4329.80, -3592.50, 0.000, 0.000, 0.000, 12:55:46.200
41, -3081.91, -3102.46, -3878.34, -3146.15, 0.000, 0.000, 0.000, 12:55:46.200
42, -3154.25, -3271.16, -3955.56, -3190.58, 0.000, 0.000, 0.000, 12:55:46.200
43, -3745.62, -3947.44, -4485.08, -3747.38, 0.000, 0.000, 0.000, 12:55:46.202
44, -3572.05, -3729.49, -4336.77, -3583.22, 0.000, 0.000, 0.000, 12:55:46.202
45, -3083.54, -3188.46, -3892.01, -3140.74, 0.000, 0.000, 0.000, 12:55:46.245
46, -3152.64, -3272.20, -3959.53, -3184.97, 0.000, 0.000, 0.000, 12:55:46.245
47, -3753.84, -3976.20, -4495.98, -3736.20, 0.000, 0.000, 0.000, 12:55:46.245
48, -3576.70, -3736.08, -4332.54, -3592.80, 0.000, 0.000, 0.000, 12:55:46.245
49, -3093.28, -3157.87, -3896.12, -3142.09, 0.000, 0.000, 0.000, 12:55:46.246
50, -3164.57, -3286.28, -3973.26, -3183.41, 0.000, 0.000, 0.000, 12:55:46.246
51, -3748.89, -3903.64, -4480.69, -3733.56, 0.000, 0.000, 0.000, 12:55:46.247
52, -3578.39, -3710.81, -4328.68, -3601.49, 0.000, 0.000, 0.000, 12:55:46.247
53, -3085.96, -3153.33, -3904.28, -3148.46, 0.000, 0.000, 0.000, 12:55:46.247
54, -3146.73, -3281.53, -3961.63, -3177.30, 0.000, 0.000, 0.000, 12:55:46.247
55, -3741.96, -3936.86, -4498.81, -3735.31, 0.000, 0.000, 0.000, 12:55:46.259
56, -3574.63, -3748.19, -4334.26, -3605.54, 0.000, 0.000, 0.000, 12:55:46.260
57, -3090.42, -3176.44, -3897.52, -3156.18, 0.000, 0.000, 0.000, 12:55:46.275
58, -3145.95, -3252.62, -3954.74, -3163.60, 0.000, 0.000, 0.000, 12:55:46.275
59, -3734.63, -3909.18, -4465.45, -3736.27, 0.000, 0.000, 0.000, 12:55:46.276
60, -3578.77, -3700.44, -4322.92, -3608.04, 0.000, 0.000, 0.000, 12:55:46.276
61, -3094.30, -3198.18, -3914.05, -3159.38, 0.000, 0.000, 0.000, 12:55:46.297
62, -3136.21, -3203.62, -3935.27, -3159.94, 0.000, 0.000, 0.000, 12:55:46.297
63, -3741.88, -3929.89, -4475.47, -3724.57, 0.000, 0.000, 0.000, 12:55:46.306
64, -3579.42, -3760.79, -4337.72, -3605.51, 0.000, 0.000, 0.000, 12:55:46.306
65, -3093.99, -3186.50, -3927.01, -3144.72, 0.000, 0.000, 0.000, 12:55:46.306
66, -3126.26, -3242.22, -3932.62, -3153.31, 0.000, 0.000, 0.000, 12:55:46.306
67, -3730.42, -3920.53, -4458.15, -3729.72, 0.000, 0.000, 0.000, 12:55:46.320
68, -3577.21, -3755.10, -4337.80, -3610.98, 0.000, 0.000, 0.000, 12:55:46.320
69, -3087.07, -3197.76, -3908.28, -3150.47, 0.000, 0.000, 0.000, 12:55:46.335
70, -3125.75, -3225.91, -3947.88, -3163.11, 0.000, 0.000, 0.000, 12:55:46.335
71, -3730.90, -3902.48, -4487.34, -3727.11, 0.000, 0.000, 0.000, 12:55:46.335
72, -3582.20, -3738.09, -4337.85, -3604.82, 0.000, 0.000, 0.000, 12:55:46.336
73, -3097.72, -3175.11, -3907.93, -3147.68, 0.000, 0.000, 0.000, 12:55:46.365
74, -3127.88, -3226.11, -3940.75, -3158.85, 0.000, 0.000, 0.000, 12:55:46.365
75, -3744.05, -3911.92, -4476.37, -3727.05, 0.000, 0.000, 0.000, 12:55:46.366
76, -3592.32, -3754.38, -4370.17, -3598.61, 0.000, 0.000, 0.000, 12:55:46.366
77, -3093.90, -3219.34, -3911.50, -3147.85, 0.000, 0.000, 0.000, 12:55:46.366
78, -3115.56, -3183.18, -3917.25, -3156.86, 0.000, 0.000, 0.000, 12:55:46.367
79, -3728.53, -3923.95, -4468.19, -3733.79, 0.000, 0.000, 0.000, 12:55:46.380
80, -3594.47, -3745.58, -4342.79, -3609.90, 0.000, 0.000, 0.000, 12:55:46.380
81, -3104.26, -3227.94, -3923.60, -3147.13, 0.000, 0.000, 0.000, 12:55:46.395
82, -3120.91, -3197.24, -3934.22, -3148.89, 0.000, 0.000, 0.000, 12:55:46.395
83, -3731.97, -3899.44, -4458.87, -3727.50, 0.000, 0.000, 0.000, 12:55:46.395
84, -3588.97, -3772.67, -4338.52, -3608.62, 0.000, 0.000, 0.000, 12:55:46.395
85, -3104.62, -3193.90, -3932.06, -3150.24, 0.000, 0.000, 0.000, 12:55:46.410
86, -3141.62, -3249.71, -3942.89, -3167.45, 0.000, 0.000, 0.000, 12:55:46.410
87, -3751.35, -3921.69, -4476.32, -3738.78, 0.000, 0.000, 0.000, 12:55:46.441
88, -3594.34, -3739.90, -4338.38, -3609.65, 0.000, 0.000, 0.000, 12:55:46.441
89, -3092.18, -3179.61, -3905.77, -3149.65, 0.000, 0.000, 0.000, 12:55:46.441
90, -3108.39, -3221.16, -3914.97, -3154.59, 0.000, 0.000, 0.000, 12:55:46.441
91, -3729.98, -3899.88, -4447.20, -3735.48, 0.000, 0.000, 0.000, 12:55:46.441
92, -3587.58, -3765.36, -4330.78, -3620.27, 0.000, 0.000, 0.000, 12:55:46.441
93, -3111.38, -3232.73, -3910.28, -3170.25, 0.000, 0.000, 0.000, 12:55:46.455
94, -3101.16, -3189.65, -3899.72, -3163.38, 0.000, 0.000, 0.000, 12:55:46.455
95, -3724.64, -3888.01, -4457.24, -3734.07, 0.000, 0.000, 0.000, 12:55:46.456
96, -3584.33, -3720.55, -4333.13, -3630.15, 0.000, 0.000, 0.000, 12:55:46.456
97, -3098.49, -3196.14, -3904.13, -3163.16, 0.000, 0.000, 0.000, 12:55:46.501
98, -3106.49, -3229.58, -3912.47, -3137.38, 0.000, 0.000, 0.000, 12:55:46.501
99, -3728.69, -3913.24, -4465.48, -3719.94, 0.000, 0.000, 0.000, 12:55:46.515
100, -3596.38, -3725.80, -4357.96, -3622.19, 0.000, 0.000, 0.000, 12:55:46.515
101, -3110.76, -3248.09, -3914.27, -3168.78, 0.000, 0.000, 0.000, 12:55:46.515
102, -3100.85, -3174.91, -3921.45, -3137.13, 0.000, 0.000, 0.000, 12:55:46.515
103, -3721.06, -3898.51, -4466.91, -3721.93, 0.000, 0.000, 0.000, 12:55:46.516
104, -3601.45, -3730.42, -4356.27, -3633.34, 0.000, 0.000, 0.000, 12:55:46.516
105, -3106.55, -3224.73, -3913.07, -3171.79, 0.000, 0.000, 0.000, 12:55:46.517
106, -3096.38, -3236.76, -3914.50, -3142.58, 0.000, 0.000, 0.000, 12:55:46.517
107, -3729.65, -3881.75, -4464.71, -3720.09, 0.000, 0.000, 0.000, 12:55:46.518
108, -3605.37, -3774.06, -4368.11, -3626.43, 0.000, 0.000, 0.000, 12:55:46.518
109, -3114.94, -3191.05, -3921.85, -3170.80, 0.000, 0.000, 0.000, 12:55:46.545
110, -3098.30, -3224.47, -3903.16, -3131.55, 0.000, 0.000, 0.000, 12:55:46.545
111, -3718.64, -3890.59, -4454.88, -3722.13, 0.000, 0.000, 0.000, 12:55:46.545
112, -3603.72, -3772.76, -4352.45, -3626.34, 0.000, 0.000, 0.000, 12:55:46.545
113, -3124.91, -3236.06, -3943.39, -3169.13, 0.000, 0.000, 0.000, 12:55:46.546
114, -3110.97, -3254.67, -3936.32, -3128.40, 0.000, 0.000, 0.000, 12:55:46.546
115, -3713.11, -3850.50, -4445.42, -3713.60, 0.000, 0.000, 0.000, 12:55:46.560
116, -3592.04, -3715.55, -4327.90, -3631.35, 0.000, 0.000, 0.000, 12:55:46.560
117, -3120.09, -3273.30, -3925.51, -3172.95, 0.000, 0.000, 0.000, 12:55:46.575
118, -3093.11, -3174.43, -3901.55, -3135.55, 0.000, 0.000, 0.000, 12:55:46.575
119, -3724.18, -3879.77, -4470.85, -3724.02, 0.000, 0.000, 0.000, 12:55:46.576
120, -3605.79, -3736.24, -4357.48, -3620.76, 0.000, 0.000, 0.000, 12:55:46.576
121, -3126.15, -3242.16, -3922.70, -3179.36, 0.000, 0.000, 0.000, 12:55:46.591
122, -3093.16, -3211.87, -3898.75, -3129.28, 0.000, 0.000, 0.000, 12:55:46.591
123, -3716.93, -3913.47, -4455.79, -3720.45, 0.000, 0.000, 0.000, 12:55:46.606
124, -3607.13, -3760.47, -4367.05, -3631.77, 0.000, 0.000, 0.000, 12:55:46.606
125, -3116.59, -3228.75, -3930.76, -3163.59, 0.000, 0.000, 0.000, 12:55:46.620
126, -3092.61, -3185.13, -3897.29, -3122.04, 0.000, 0.000, 0.000, 12:55:46.621
127, -3711.16, -3913.39, -4444.99, -3709.89, 0.000, 0.000, 0.000, 12:55:46.621
128, -3609.56, -3759.94, -4358.75, -3624.89, 0.000, 0.000, 0.000, 12:55:46.622
129, -3117.82, -3221.94, -3937.64, -3167.02, 0.000, 0.000, 0.000, 12:55:46.635
130, -3086.20, -3165.30, -3891.28, -3124.57, 0.000, 0.000, 0.000, 12:55:46.635
131, -3709.43, -3866.34, -4441.05, -3705.98, 0.000, 0.000, 0.000, 12:55:46.636
132, -3610.61, -3776.03, -4360.98, -3632.53, 0.000, 0.000, 0.000, 12:55:46.636
133, -3132.78, -3244.73, -3939.74, -3172.57, 0.000, 0.000, 0.000, 12:55:46.650
134, -3091.40, -3190.53, -3888.88, -3110.63, 0.000, 0.000, 0.000, 12:55:46.650
135, -3718.42, -3893.72, -4440.98, -3706.32, 0.000, 0.000, 0.000, 12:55:46.669
136, -3615.93, -3782.81, -4360.39, -3640.49, 0.000, 0.000, 0.000, 12:55:46.669
137, -3129.27, -3249.92, -3935.89, -3184.32, 0.000, 0.000, 0.000, 12:55:46.669
138, -3088.51, -3199.77, -3897.73, -3118.27, 0.000, 0.000, 0.000, 12:55:46.670
139, -3711.81, -3883.35, -4436.09, -3708.72, 0.000, 0.000, 0.000, 12:55:46.695
140, -3620.45, -3786.31, -4357.16, -3633.22, 0.000, 0.000, 0.000, 12:55:46.695
141, -3142.32, -3240.50, -3943.98, -3178.02, 0.000, 0.000, 0.000, 12:55:46.697
142, -3093.39, -3219.69, -3899.68, -3121.95, 0.000, 0.000, 0.000, 12:55:46.697
143, -3707.19, -3865.37, -4437.23, -3708.06, 0.000, 0.000, 0.000, 12:55:46.697
144, -3621.60, -3773.97, -4360.52, -3637.31, 0.000, 0.000, 0.000, 12:55:46.697
145, -3136.86, -3263.93, -3938.65, -3186.60, 0.000, 0.000, 0.000, 12:55:46.710
146, -3078.65, -3184.18, -3897.12, -3114.94, 0.000, 0.000, 0.000, 12:55:46.710
147, -3722.96, -3900.48, -4447.80, -3704.24, 0.000, 0.000, 0.000, 12:55:46.756
148, -3629.90, -3775.02, -4385.09, -3637.42, 0.000, 0.000, 0.000, 12:55:46.756
149, -3135.60, -3274.96, -3938.41, -3189.57, 0.000, 0.000, 0.000, 12:55:46.756
150, -3076.34, -3151.60, -3879.61, -3105.60, 0.000, 0.000, 0.000, 12:55:46.756
151, -3708.18, -3896.28, -4450.00, -3700.02, 0.000, 0.000, 0.000, 12:55:46.757
152, -3610.20, -3755.20, -4368.50, -3631.93, 0.000, 0.000, 0.000, 12:55:46.758
153, -3136.94, -3224.47, -3942.54, -3193.30, 0.000, 0.000, 0.000, 12:55:46.758
154, -3074.12, -3204.97, -3890.63, -3107.48, 0.000, 0.000, 0.000, 12:55:46.758
155, -3718.22, -3903.46, -4450.20, -3704.94, 0.000, 0.000, 0.000, 12:55:46.758
156, -3626.72, -3768.43, -4370.90, -3631.08, 0.000, 0.000, 0.000, 12:55:46.758
157, -3143.69, -3238.42, -3951.34, -3193.63, 0.000, 0.000, 0.000, 12:55:46.786
158, -3076.42, -3185.99, -3897.05, -3113.94, 0.000, 0.000, 0.000, 12:55:46.786
159, -3709.54, -3877.70, -4454.29, -3698.21, 0.000, 0.000, 0.000, 12:55:46.799
160, -3627.49, -3750.36, -4362.73, -3643.74, 0.000, 0.000, 0.000, 12:55:46.799
161, -3155.86, -3265.35, -3961.61, -3195.48, 0.000, 0.000, 0.000, 12:55:46.800
162, -3069.78, -3178.84, -3892.34, -3098.87, 0.000, 0.000, 0.000, 12:55:46.800
163, -3703.85, -3886.78, -4460.50, -3701.17, 0.000, 0.000, 0.000, 12:55:46.801
164, -3632.32, -3811.30, -4389.77, -3646.95, 0.000, 0.000, 0.000, 12:55:46.801
165, -3142.99, -3261.75, -3936.46, -3194.45, 0.000, 0.000, 0.000, 12:55:46.815
166, -3061.84, -3165.80, -3886.58, -3098.90, 0.000, 0.000, 0.000, 12:55:46.815
167, -3701.44, -3880.65, -4442.15, -3693.61, 0.000, 0.000, 0.000, 12:55:46.815
168, -3618.82, -3758.80, -4374.01, -3634.57, 0.000, 0.000, 0.000, 12:55:46.816
169, -3147.28, -3265.18, -3959.98, -3192.67, 0.000, 0.000, 0.000, 12:55:46.830
170, -3055.71, -3140.96, -3876.37, -3098.84, 0.000, 0.000, 0.000, 12:55:46.830
171, -3696.27, -3861.31, -4446.00, -3701.30, 0.000, 0.000, 0.000, 12:55:46.844
172, -3622.53, -3738.50, -4375.58, -3646.63, 0.000, 0.000, 0.000, 12:55:46.844
173, -3145.43, -3248.85, -3958.34, -3193.73, 0.000, 0.000, 0.000, 12:55:46.845
174, -3060.08, -3164.39, -3878.14, -3086.76, 0.000, 0.000, 0.000, 12:55:46.845
175, -3692.22, -3870.59, -4426.33, -3690.06, 0.000, 0.000, 0.000, 12:55:46.860
176, -3625.97, -3776.87, -4384.45, -3650.65, 0.000, 0.000, 0.000, 12:55:46.860
177, -3157.11, -3254.31, -3966.44, -3200.02, 0.000, 0.000, 0.000, 12:55:46.875
178, -3079.27, -3197.12, -3889.17, -3100.83, 0.000, 0.000, 0.000, 12:55:46.875
179, -3709.29, -3868.03, -4442.11, -3695.75, 0.000, 0.000, 0.000, 12:55:46.875
180, -3615.04, -3793.43, -4359.64, -3644.74, 0.000, 0.000, 0.000, 12:55:46.875
181, -3153.83, -3301.25, -3968.18, -3199.71, 0.000, 0.000, 0.000, 12:55:46.891
182, -3058.62, -3133.18, -3874.41, -3092.35, 0.000, 0.000, 0.000, 12:55:46.891
183, -3702.33, -3883.24, -4441.36, -3695.77, 0.000, 0.000, 0.000, 12:55:46.906
184, -3626.57, -3790.06, -4377.99, -3645.39, 0.000, 0.000, 0.000, 12:55:46.906
185, -3157.56, -3287.24, -3964.87, -3212.68, 0.000, 0.000, 0.000, 12:55:46.906
186, -3053.99, -3179.56, -3877.41, -3096.97, 0.000, 0.000, 0.000, 12:55:46.906
187, -3687.46, -3846.45, -4433.56, -3682.44, 0.000, 0.000, 0.000, 12:55:46.920
188, -3622.05, -3771.47, -4390.44, -3642.86, 0.000, 0.000, 0.000, 12:55:46.920
189, -3161.09, -3263.12, -3971.44, -3205.15, 0.000, 0.000, 0.000, 12:55:46.935
190, -3049.06, -3146.65, -3856.27, -3098.15, 0.000, 0.000, 0.000, 12:55:46.936
191, -3687.27, -3838.93, -4425.08, -3687.93, 0.000, 0.000, 0.000, 12:55:46.936
192, -3627.15, -3809.29, -4375.57, -3646.18, 0.000, 0.000, 0.000, 12:55:46.936
193, -3152.87, -3253.19, -3961.45, -3207.19, 0.000, 0.000, 0.000, 12:55:46.964
194, -3047.65, -3135.05, -3863.83, -3092.28, 0.000, 0.000, 0.000, 12:55:46.964
195, -3680.72, -3872.36, -4440.27, -3676.13, 0.000, 0.000, 0.000, 12:55:46.966
196, -3633.81, -3812.22, -4389.97, -3656.48, 0.000, 0.000, 0.000, 12:55:46.966
197, -3168.86, -3301.28, -3966.44, -3219.83, 0.000, 0.000, 0.000, 12:55:46.967
198, -3056.46, -3130.98, -3868.58, -3084.85, 0.000, 0.000, 0.000, 12:55:46.967
199, -3680.47, -3846.95, -4432.92, -3684.13, 0.000, 0.000, 0.000, 12:55:46.995
200, -3635.36, -3773.66, -4384.98, -3656.11, 0.000, 0.000, 0.000, 12:55:46.996
0, -3179.19, -3246.68, -3972.00, -3214.55, 0.000, 0.000, 0.000, 12:55:46.996
1, -3046.45, -3120.19, -3863.80, -3085.33, 0.000, 0.000, 0.000, 12:55:46.997
2, -3683.31, -3858.33, -4426.14, -3669.72, 0.000, 0.000, 0.000, 12:55:46.997
3, -3640.15, -3859.80, -4391.90, -3656.01, 0.000, 0.000, 0.000, 12:55:47.010
4, -3165.86, -3297.74, -3976.30, -3211.26, 0.000, 0.000, 0.000, 12:55:47.010
5, -3046.67, -3133.70, -3867.25, -3087.79, 0.000, 0.000, 0.000, 12:55:47.011
6, -3686.17, -3790.41, -4431.57, -3679.40, 0.000, 0.000, 0.000, 12:55:47.011
7, -3640.69, -3792.59, -4393.95, -3646.25, 0.000, 0.000, 0.000, 12:55:47.055
8, -3168.30, -3254.68, -3978.44, -3208.19, 0.000, 0.000, 0.000, 12:55:47.055
9, -3056.66, -3113.92, -3870.05, -3091.07, 0.000, 0.000, 0.000, 12:55:47.055
10, -3689.94, -3821.32, -4433.46, -3692.19, 0.000, 0.000, 0.000, 12:55:47.056
11, -3644.99, -3749.02, -4394.23, -3665.37, 0.000, 0.000, 0.000, 12:55:47.057
12, -3180.55, -3277.49, -3988.26, -3229.66, 0.000, 0.000, 0.000, 12:55:47.057
13, -3058.18, -3157.40, -3876.95, -3096.13, 0.000, 0.000, 0.000, 12:55:47.071
14, -3686.82, -3867.45, -4426.87, -3690.19, 0.000, 0.000, 0.000, 12:55:47.071
15, -3647.66, -3833.77, -4391.62, -3670.91, 0.000, 0.000, 0.000, 12:55:47.071
16, -3178.65, -3255.91, -3968.72, -3237.88, 0.000, 0.000, 0.000, 12:55:47.071
17, -3067.57, -3135.02, -3875.39, -3103.79, 0.000, 0.000, 0.000, 12:55:47.071
18, -3693.52, -3844.40, -4458.24, -3660.44, 0.000, 0.000, 0.000, 12:55:47.071
19, -3650.00, -3823.96, -4417.61, -3645.29, 0.000, 0.000, 0.000, 12:55:47.100
20, -3190.04, -3273.75, -3997.92, -3220.52, 0.000, 0.000, 0.000, 12:55:47.100
21, -3045.52, -3165.62, -3881.99, -3065.19, 0.000, 0.000, 0.000, 12:55:47.101
22, -3685.87, -3835.73, -4441.56, -3657.61, 0.000, 0.000, 0.000, 12:55:47.101
23, -3653.10, -3866.96, -4422.23, -3648.50, 0.000, 0.000, 0.000, 12:55:47.102
24, -3185.14, -3301.38, -4012.76, -3220.73, 0.000, 0.000, 0.000, 12:55:47.102
25, -3047.42, -3142.66, -3882.35, -3068.71, 0.000, 0.000, 0.000, 12:55:47.115
26, -3689.88, -3858.17, -4443.78, -3669.97, 0.000, 0.000, 0.000, 12:55:47.115
27, -3650.52, -3808.48, -4402.32, -3653.59, 0.000, 0.000, 0.000, 12:55:47.130
28, -3184.76, -3300.26, -4001.92, -3230.76, 0.000, 0.000, 0.000, 12:55:47.130
29, -3047.57, -3147.34, -3871.87, -3083.29, 0.000, 0.000, 0.000, 12:55:47.130
30, -3680.20, -3843.15, -4433.80, -3676.16, 0.000, 0.000, 0.000, 12:55:47.130
31, -3660.80, -3788.21, -4413.15, -3667.03, 0.000, 0.000, 0.000, 12:55:47.160
32, -3180.76, -3282.28, -3990.87, -3228.97, 0.000, 0.000, 0.000, 12:55:47.161
33, -3029.90, -3123.36, -3852.32, -3066.57, 0.000, 0.000, 0.000, 12:55:47.161
34, -3673.99, -3835.57, -4421.77, -3666.22, 0.000, 0.000, 0.000, 12:55:47.161
35, -3650.80, -3833.74, -4411.42, -3667.06, 0.000, 0.000, 0.000, 12:55:47.161
36, -3185.51, -3298.58, -4002.72, -3231.68, 0.000, 0.000, 0.000, 12:55:47.161
37, -3027.79, -3092.33, -3853.15, -3063.25, 0.000, 0.000, 0.000, 12:55:47.175
38, -3669.66, -3852.41, -4415.90, -3669.31, 0.000, 0.000, 0.000, 12:55:47.175
39, -3648.87, -3768.99, -4398.11, -3668.57, 0.000, 0.000, 0.000, 12:55:47.192
40, -3196.18, -3350.44, -4005.00, -3229.78, 0.000, 0.000, 0.000, 12:55:47.192
41, -3043.52, -3141.58, -3876.89, -3059.83, 0.000, 0.000, 0.000, 12:55:47.192
42, -3666.70, -3866.72, -4423.31, -3660.48, 0.000, 0.000, 0.000, 12:55:47.192
43, -3648.62, -3755.17, -4398.32, -3661.21, 0.000, 0.000, 0.000, 12:55:47.205
44, -3184.15, -3268.93, -3985.96, -3231.56, 0.000, 0.000, 0.000, 12:55:47.205
45, -3037.30, -3135.24, -3860.45, -3066.00, 0.000, 0.000, 0.000, 12:55:47.220
46, -3666.79, -3856.75, -4416.91, -3656.80, 0.000, 0.000, 0.000, 12:55:47.220
47, -3651.12, -3768.42, -4399.95, -3662.36, 0.000, 0.000, 0.000, 12:55:47.221
48, -3196.29, -3320.55, -3996.61, -3240.23, 0.000, 0.000, 0.000, 12:55:47.221
49, -3024.60, -3135.45, -3854.42, -3067.29, 0.000, 0.000, 0.000, 12:55:47.236
50, -3663.41, -3831.95, -4414.75, -3649.32, 0.000, 0.000, 0.000, 12:55:47.236
51, -3654.82, -3813.58, -4407.54, -3662.88, 0.000, 0.000, 0.000, 12:55:47.250
52, -3198.42, -3308.32, -4000.12, -3239.93, 0.000, 0.000, 0.000, 12:55:47.250
53, -3020.85, -3102.74, -3848.12, -3054.17, 0.000, 0.000, 0.000, 12:55:47.251
54, -3658.09, -3808.57, -4403.19, -3659.52, 0.000, 0.000, 0.000, 12:55:47.251
55, -3651.20, -3818.61, -4393.38, -3670.54, 0.000, 0.000, 0.000, 12:55:47.265
56, -3188.30, -3298.09, -3995.09, -3248.75, 0.000, 0.000, 0.000, 12:55:47.265
57, -3022.77, -3098.13, -3855.41, -3057.82, 0.000, 0.000, 0.000, 12:55:47.280
58, -3656.85, -3795.64, -4408.80, -3659.50, 0.000, 0.000, 0.000, 12:55:47.280
59, -3650.45, -3803.03, -4403.66, -3673.57, 0.000, 0.000, 0.000, 12:55:47.281
60, -3196.53, -3309.95, -3997.67, -3247.27, 0.000, 0.000, 0.000, 12:55:47.281
61, -3024.71, -3116.94, -3842.74, -3061.70, 0.000, 0.000, 0.000, 12:55:47.310
62, -3658.97, -3834.35, -4408.94, -3661.48, 0.000, 0.000, 0.000, 12:55:47.310
63, -3653.64, -3808.94, -4405.85, -3670.17, 0.000, 0.000, 0.000, 12:55:47.310
64, -3207.88, -3294.68, -4007.54, -3239.90, 0.000, 0.000, 0.000, 12:55:47.310
65, -3026.60, -3126.55, -3848.27, -3056.58, 0.000, 0.000, 0.000, 12:55:47.311
66, -3661.08, -3811.75, -4403.22, -3648.55, 0.000, 0.000, 0.000, 12:55:47.311
67, -3666.78, -3830.95, -4415.58, -3673.34, 0.000, 0.000, 0.000, 12:55:47.355
68, -3208.15, -3310.64, -4007.47, -3239.53, 0.000, 0.000, 0.000, 12:55:47.355
69, -3013.50, -3083.44, -3829.73, -3058.85, 0.000, 0.000, 0.000, 12:55:47.356
70, -3665.17, -3832.44, -4413.09, -3654.00, 0.000, 0.000, 0.000, 12:55:47.356
71, -3669.82, -3838.50, -4425.75, -3678.09, 0.000, 0.000, 0.000, 12:55:47.357
72, -3208.46, -3319.77, -4004.81, -3255.20, 0.000, 0.000, 0.000, 12:55:47.357
73, -3002.54, -3071.85, -3829.78, -3045.19, 0.000, 0.000, 0.000, 12:55:47.358
74, -3649.99, -3842.25, -4391.01, -3653.85, 0.000, 0.000, 0.000, 12:55:47.358
75, -3656.03, -3804.28, -4400.12, -3673.92, 0.000, 0.000, 0.000, 12:55:47.358
76, -3206.49, -3310.91, -4001.47, -3258.31, 0.000, 0.000, 0.000, 12:55:47.358
77, -3008.47, -3115.88, -3827.70, -3053.99, 0.000, 0.000, 0.000, 12:55:47.371
78, -3650.74, -3805.36, -4396.95, -3658.13, 0.000, 0.000, 0.000, 12:55:47.371
79, -3662.06, -3816.72, -4408.26, -3689.33, 0.000, 0.000, 0.000, 12:55:47.385
80, -3206.06, -3306.79, -4004.62, -3263.55, 0.000, 0.000, 0.000, 12:55:47.385
81, -3006.86, -3113.09, -3826.47, -3055.64, 0.000, 0.000, 0.000, 12:55:47.400
82, -3648.98, -3805.53, -4389.04, -3652.67, 0.000, 0.000, 0.000, 12:55:47.401
83, -3670.50, -3811.22, -4415.62, -3684.34, 0.000, 0.000, 0.000, 12:55:47.401
84, -3216.05, -3374.81, -4020.45, -3259.53, 0.000, 0.000, 0.000, 12:55:47.401
85, -3016.76, -3047.52, -3840.24, -3060.78, 0.000, 0.000, 0.000, 12:55:47.415
86, -3654.18, -3826.62, -4411.21, -3657.13, 0.000, 0.000, 0.000, 12:55:47.415
87, -3680.23, -3843.80, -4421.96, -3691.41, 0.000, 0.000, 0.000, 12:55:47.430
88, -3230.86, -3324.95, -4037.40, -3288.85, 0.000, 0.000, 0.000, 12:55:47.430
89, -3015.92, -3118.54, -3831.49, -3065.21, 0.000, 0.000, 0.000, 12:55:47.431
90, -3650.36, -3799.23, -4396.16, -3646.99, 0.000, 0.000, 0.000, 12:55:47.431
91, -3680.51, -3841.00, -4423.30, -3693.15, 0.000, 0.000, 0.000, 12:55:47.474
92, -3229.98, -3309.07, -4021.89, -3272.50, 0.000, 0.000, 0.000, 12:55:47.474
93, -3017.25, -3175.19, -3837.52, -3056.37, 0.000, 0.000, 0.000, 12:55:47.474
94, -3653.55, -3807.53, -4402.05, -3646.83, 0.000, 0.000, 0.000, 12:55:47.476
95, -3672.02, -3845.64, -4416.59, -3693.63, 0.000, 0.000, 0.000, 12:55:47.476
96, -3225.59, -3348.38, -4029.38, -3276.94, 0.000, 0.000, 0.000, 12:55:47.476
97, -3008.80, -3110.13, -3830.47, -3057.37, 0.000, 0.000, 0.000, 12:55:47.477
98, -3646.34, -3823.79, -4399.92, -3648.28, 0.000, 0.000, 0.000, 12:55:47.477
99, -3674.69, -3822.04, -4416.99, -3682.41, 0.000, 0.000, 0.000, 12:55:47.478
100, -3230.27, -3329.35, -4030.37, -3266.92, 0.000, 0.000, 0.000, 12:55:47.478
101, -2995.85, -3085.41, -3825.09, -3043.79, 0.000, 0.000, 0.000, 12:55:47.491
102, -3638.87, -3794.44, -4388.50, -3638.73, 0.000, 0.000, 0.000, 12:55:47.491
103, -3677.59, -3821.79, -4424.04, -3686.70, 0.000, 0.000, 0.000, 12:55:47.520
104, -3229.90, -3351.46, -4032.15, -3274.30, 0.000, 0.000, 0.000, 12:55:47.521
105, -3003.96, -3127.24, -3824.28, -3050.32, 0.000, 0.000, 0.000, 12:55:47.521
106, -3630.57, -3782.50, -4370.38, -3629.31, 0.000, 0.000, 0.000, 12:55:47.521
107, -3662.89, -3849.85, -4411.74, -3674.50, 0.000, 0.000, 0.000, 12:55:47.522
108, -3226.18, -3374.59, -4012.05, -3266.07, 0.000, 0.000, 0.000, 12:55:47.522
109, -2992.08, -3077.84, -3813.84, -3048.42, 0.000, 0.000, 0.000, 12:55:47.550
110, -3617.48, -3829.81, -4376.82, -3633.37, 0.000, 0.000, 0.000, 12:55:47.550
111, -3653.05, -3813.75, -4402.74, -3694.56, 0.000, 0.000, 0.000, 12:55:47.551
112, -3191.34, -3296.77, -4012.97, -3277.84, 0.000, 0.000, 0.000, 12:55:47.551
113, -2957.01, -3065.46, -3804.33, -3059.27, 0.000, 0.000, 0.000, 12:55:47.552
114, -3579.40, -3810.31, -4370.18, -3653.18, 0.000, 0.000, 0.000, 12:55:47.552
115, -3569.85, -3793.95, -4394.55, -3647.93, 0.000, 0.000, 0.000, 12:55:47.572
116, -3113.41, -3366.09, -4020.60, -3257.71, 0.000, 0.000, 0.000, 12:55:47.572
117, -2864.22, -3129.11, -3821.23, -3013.42, 0.000, 0.000, 0.000, 12:55:47.610
118, -3461.26, -3843.43, -4379.23, -3576.08, 0.000, 0.000, 0.000, 12:55:47.610
119, -3525.53, -3910.97, -4450.54, -3647.11, 0.000, 0.000, 0.000, 12:55:47.610
120, -3077.31, -3427.03, -4058.79, -3226.46, 0.000, 0.000, 0.000, 12:55:47.611
121, -2823.42, -3192.34, -3853.54, -2982.96, 0.000, 0.000, 0.000, 12:55:47.611
122, -3479.49, -3871.32, -4430.41, -3582.32, 0.000, 0.000, 0.000, 12:55:47.611
123, -3534.23, -3945.48, -4480.35, -3635.62, 0.000, 0.000, 0.000, 12:55:47.612
124, -3087.89, -3429.00, -4085.04, -3211.59, 0.000, 0.000, 0.000, 12:55:47.612
125, -2856.63, -3185.03, -3888.13, -2980.87, 0.000, 0.000, 0.000, 12:55:47.613
126, -3495.44, -3884.09, -4455.24, -3545.99, 0.000, 0.000, 0.000, 12:55:47.613
127, -3554.74, -3906.16, -4505.60, -3604.69, 0.000, 0.000, 0.000, 12:55:47.625
128, -3123.58, -3405.27, -4117.28, -3202.82, 0.000, 0.000, 0.000, 12:55:47.625
129, -2905.61, -3152.95, -3903.08, -2972.88, 0.000, 0.000, 0.000, 12:55:47.642
130, -3544.75, -3862.52, -4463.78, -3535.04, 0.000, 0.000, 0.000, 12:55:47.642
131, -3627.32, -3874.24, -4518.48, -3617.58, 0.000, 0.000, 0.000, 12:55:47.642
132, -3196.52, -3387.46, -4137.23, -3206.75, 0.000, 0.000, 0.000, 12:55:47.642
133, -2959.32, -3090.48, -3924.64, -2941.83, 0.000, 0.000, 0.000, 12:55:47.655
134, -3601.06, -3817.85, -4465.59, -3531.81, 0.000, 0.000, 0.000, 12:55:47.655
135, -3677.49, -3860.12, -4521.76, -3618.50, 0.000, 0.000, 0.000, 12:55:47.671
136, -3264.18, -3387.18, -4159.63, -3217.43, 0.000, 0.000, 0.000, 12:55:47.671
137, -3005.68, -3125.60, -3910.24, -2963.16, 0.000, 0.000, 0.000, 12:55:47.671
138, -3642.49, -3774.21, -4461.67, -3554.33, 0.000, 0.000, 0.000, 12:55:47.671
139, -3733.80, -3871.63, -4530.13, -3635.67, 0.000, 0.000, 0.000, 12:55:47.685
140, -3288.16, -3371.17, -4129.27, -3237.44, 0.000, 0.000, 0.000, 12:55:47.686
141, -3048.52, -3095.02, -3908.27, -2992.19, 0.000, 0.000, 0.000, 12:55:47.700
142, -3660.77, -3801.44, -4436.55, -3571.22, 0.000, 0.000, 0.000, 12:55:47.700
143, -3738.76, -3813.83, -4497.07, -3658.37, 0.000, 0.000, 0.000, 12:55:47.701
144, -3305.74, -3360.21, -4101.94, -3261.57, 0.000, 0.000, 0.000, 12:55:47.701
145, -3048.62, -3101.22, -3873.46, -3008.18, 0.000, 0.000, 0.000, 12:55:47.715
146, -3667.84, -3752.57, -4410.62, -3582.95, 0.000, 0.000, 0.000, 12:55:47.715
147, -3739.38, -3856.52, -4475.40, -3661.97, 0.000, 0.000, 0.000, 12:55:47.730
148, -3314.14, -3382.16, -4092.22, -3277.78, 0.000, 0.000, 0.000, 12:55:47.730
149, -3026.39, -3063.42, -3843.38, -3008.85, 0.000, 0.000, 0.000, 12:55:47.730
150, -3650.26, -3747.35, -4389.35, -3600.18, 0.000, 0.000, 0.000, 12:55:47.730
151, -3740.85, -3838.81, -4469.01, -3678.20, 0.000, 0.000, 0.000, 12:55:47.745
152, -3300.01, -3341.46, -4080.72, -3286.56, 0.000, 0.000, 0.000, 12:55:47.745
153, -3038.07, -3066.51, -3839.25, -3023.19, 0.000, 0.000, 0.000, 12:55:47.760
154, -3646.83, -3770.91, -4378.68, -3594.21, 0.000, 0.000, 0.000, 12:55:47.760
155, -3729.69, -3833.24, -4451.33, -3690.02, 0.000, 0.000, 0.000, 12:55:47.760
156, -3303.58, -3376.43, -4076.55, -3294.16, 0.000, 0.000, 0.000, 12:55:47.760
157, -3020.00, -3055.53, -3827.62, -3028.94, 0.000, 0.000, 0.000, 12:55:47.775
158, -3636.61, -3759.33, -4382.96, -3604.00, 0.000, 0.000, 0.000, 12:55:47.775
159, -3717.30, -3853.20, -4449.25, -3695.90, 0.000, 0.000, 0.000, 12:55:47.791
160, -3292.04, -3349.03, -4075.74, -3298.38, 0.000, 0.000, 0.000, 12:55:47.791
161, -3016.53, -3091.21, -3825.99, -3032.93, 0.000, 0.000, 0.000, 12:55:47.805
162, -3628.30, -3749.60, -4368.90, -3598.70, 0.000, 0.000, 0.000, 12:55:47.805
163, -3733.29, -3892.63, -4465.68, -3709.32, 0.000, 0.000, 0.000, 12:55:47.806
164, -3287.55, -3367.10, -4072.73, -3307.84, 0.000, 0.000, 0.000, 12:55:47.806
165, -3010.89, -3066.51, -3831.14, -3025.12, 0.000, 0.000, 0.000, 12:55:47.835
166, -3625.02, -3725.79, -4371.26, -3606.47, 0.000, 0.000, 0.000, 12:55:47.835
167, -3712.20, -3870.02, -4455.03, -3696.85, 0.000, 0.000, 0.000, 12:55:47.835
168, -3297.31, -3435.56, -4081.05, -3313.69, 0.000, 0.000, 0.000, 12:55:47.836
169, -3012.04, -3071.46, -3831.42, -3028.35, 0.000, 0.000, 0.000, 12:55:47.837
170, -3616.89, -3767.30, -4368.11, -3593.93, 0.000, 0.000, 0.000, 12:55:47.837
171, -3710.35, -3850.20, -4452.76, -3690.61, 0.000, 0.000, 0.000, 12:55:47.865
172, -3288.50, -3380.19, -4073.03, -3309.24, 0.000, 0.000, 0.000, 12:55:47.865
173, -3003.97, -3107.70, -3822.30, -3014.17, 0.000, 0.000, 0.000, 12:55:47.866
174, -3603.79, -3798.35, -4357.49, -3575.82, 0.000, 0.000, 0.000, 12:55:47.866
175, -3732.64, -3856.60, -4467.07, -3706.22, 0.000, 0.000, 0.000, 12:55:47.867
176, -3330.23, -3417.16, -4105.15, -3327.67, 0.000, 0.000, 0.000, 12:55:47.867
177, -2969.23, -3027.91, -3776.94, -3017.53, 0.000, 0.000, 0.000, 12:55:47.910
178, -3567.70, -3701.88, -4306.26, -3580.08, 0.000, 0.000, 0.000, 12:55:47.910
179, -3694.58, -3858.11, -4412.78, -3714.05, 0.000, 0.000, 0.000, 12:55:47.911
180, -3264.74, -3315.62, -4029.02, -3330.49, 0.000, 0.000, 0.000, 12:55:47.911
181, -2974.47, -3048.39, -3771.17, -3050.04, 0.000, 0.000, 0.000, 12:55:47.911
182, -3595.72, -3737.04, -4314.72, -3607.94, 0.000, 0.000, 0.000, 12:55:47.911
183, -3709.79, -3839.33, -4417.06, -3721.60, 0.000, 0.000, 0.000, 12:55:47.912
184, -3278.69, -3414.73, -4045.69, -3327.34, 0.000, 0.000, 0.000, 12:55:47.912
185, -2994.25, -3051.52, -3786.49, -3039.56, 0.000, 0.000, 0.000, 12:55:47.913
186, -3602.57, -3713.67, -4322.69, -3601.66, 0.000, 0.000, 0.000, 12:55:47.913
187, -3702.10, -3874.53, -4426.24, -3725.56, 0.000, 0.000, 0.000, 12:55:47.925
188, -3284.08, -3351.79, -4057.86, -3327.92, 0.000, 0.000, 0.000, 12:55:47.925
189, -2988.77, -3064.84, -3801.49, -3030.04, 0.000, 0.000, 0.000, 12:55:47.941
190, -3587.87, -3730.05, -4327.73, -3589.80, 0.000, 0.000, 0.000, 12:55:47.941
191, -3698.33, -3857.16, -4436.13, -3720.04, 0.000, 0.000, 0.000, 12:55:47.941
192, -3290.13, -3393.89, -4066.86, -3331.30, 0.000, 0.000, 0.000, 12:55:47.941
193, -2978.20, -3084.31, -3804.54, -3028.20, 0.000, 0.000, 0.000, 12:55:47.955
194, -3579.33, -3704.00, -4335.49, -3592.09, 0.000, 0.000, 0.000, 12:55:47.955
195, -3700.97, -3895.12, -4449.10, -3717.19, 0.000, 0.000, 0.000, 12:55:47.971
196, -3278.81, -3387.65, -4067.86, -3325.41, 0.000, 0.000, 0.000, 12:55:47.971
197, -2977.00, -3074.03, -3804.17, -3017.91, 0.000, 0.000, 0.000, 12:55:47.972
198, -3566.10, -3727.29, -4324.95, -3577.53, 0.000, 0.000, 0.000, 12:55:47.972
199, -3682.19, -3877.76, -4431.93, -3718.70, 0.000, 0.000, 0.000, 12:55:47.986
200, -3256.99, -3418.56, -4065.72, -3308.15, 0.000, 0.000, 0.000, 12:55:47.986
0, -2953.24, -3054.43, -3800.64, -3035.77, 0.000, 0.000, 0.000, 12:55:47.987
1, -3513.73, -3763.68, -4313.17, -3578.69, 0.000, 0.000, 0.000, 12:55:48.000
2, -3596.31, -3951.43, -4437.06, -3689.82, 0.000, 0.000, 0.000, 12:55:48.000
3, -3142.57, -3423.98, -4050.84, -3323.49, 0.000, 0.000, 0.000, 12:55:48.029
4, -2797.71, -3111.35, -3794.16, -3006.44, 0.000, 0.000, 0.000, 12:55:48.029
5, -3367.73, -3826.60, -4308.53, -3559.01, 0.000, 0.000, 0.000, 12:55:48.030
6, -3495.42, -3959.55, -4439.96, -3661.50, 0.000, 0.000, 0.000, 12:55:48.030
7, -3057.18, -3477.93, -4059.68, -3270.77, 0.000, 0.000, 0.000, 12:55:48.031
8, -2770.26, -3164.21, -3812.45, -2982.21, 0.000, 0.000, 0.000, 12:55:48.031
9, -3371.17, -3824.62, -4341.77, -3513.68, 0.000, 0.000, 0.000, 12:55:48.045
10, -3514.00, -3988.05, -4450.33, -3653.50, 0.000, 0.000, 0.000, 12:55:48.045
11, -3120.21, -3531.46, -4100.02, -3284.13, 0.000, 0.000, 0.000, 12:55:48.046
12, -2831.31, -3166.11, -3829.40, -2978.06, 0.000, 0.000, 0.000, 12:55:48.046
13, -3453.86, -3817.81, -4363.15, -3516.17, 0.000, 0.000, 0.000, 12:55:48.060
14, -3591.70, -3951.67, -4485.46, -3662.07, 0.000, 0.000, 0.000, 12:55:48.060
15, -3205.69, -3474.32, -4118.91, -3291.92, 0.000, 0.000, 0.000, 12:55:48.075
16, -2909.70, -3122.24, -3840.30, -2979.58, 0.000, 0.000, 0.000, 12:55:48.075
17, -3491.31, -3756.78, -4347.29, -3519.01, 0.000, 0.000, 0.000, 12:55:48.076
18, -3635.35, -3876.43, -4467.98, -3671.08, 0.000, 0.000, 0.000, 12:55:48.076
19, -3266.88, -3402.31, -4117.35, -3320.15, 0.000, 0.000, 0.000, 12:55:48.105
20, -2960.51, -3056.16, -3825.03, -2994.48, 0.000, 0.000, 0.000, 12:55:48.106
21, -3555.89, -3700.16, -4339.76, -3536.85, 0.000, 0.000, 0.000, 12:55:48.106
22, -3722.50, -3850.54, -4474.83, -3699.77, 0.000, 0.000, 0.000, 12:55:48.106
23, -3322.68, -3376.80, -4108.20, -3313.73, 0.000, 0.000, 0.000, 12:55:48.107
24, -3027.08, -3028.28, -3831.65, -3026.55, 0.000, 0.000, 0.000, 12:55:48.107
25, -3618.81, -3653.57, -4344.73, -3561.83, 0.000, 0.000, 0.000, 12:55:48.120
26, -3772.25, -3824.24, -4464.04, -3721.75, 0.000, 0.000, 0.000, 12:55:48.121
27, -3373.84, -3370.19, -4100.15, -3349.98, 0.000, 0.000, 0.000, 12:55:48.164
28, -3038.45, -3004.71, -3805.41, -3033.03, 0.000, 0.000, 0.000, 12:55:48.164
29, -3625.29, -3638.07, -4317.21, -3567.40, 0.000, 0.000, 0.000, 12:55:48.165
30, -3783.11, -3844.64, -4461.30, -3739.24, 0.000, 0.000, 0.000, 12:55:48.165
31, -3388.76, -3378.84, -4104.50, -3361.99, 0.000, 0.000, 0.000, 12:55:48.166
32, -3054.85, -3028.52, -3803.53, -3025.61, 0.000, 0.000, 0.000, 12:55:48.166
33, -3642.87, -3705.21, -4326.57, -3568.67, 0.000, 0.000, 0.000, 12:55:48.166
34, -3801.17, -3863.75, -4462.30, -3738.12, 0.000, 0.000, 0.000, 12:55:48.167
35, -3389.90, -3352.62, -4104.75, -3351.85, 0.000, 0.000, 0.000, 12:55:48.167
36, -3054.35, -3026.04, -3806.77, -3030.72, 0.000, 0.000, 0.000, 12:55:48.167
37, -3627.96, -3660.66, -4319.34, -3560.37, 0.000, 0.000, 0.000, 12:55:48.180
38, -3783.96, -3840.57, -4459.42, -3728.63, 0.000, 0.000, 0.000, 12:55:48.180
39, -3384.82, -3398.67, -4105.79, -3368.26, 0.000, 0.000, 0.000, 12:55:48.195
40, -3049.64, -3039.08, -3812.60, -3028.74, 0.000, 0.000, 0.000, 12:55:48.195
41, -3617.35, -3656.72, -4314.23, -3550.92, 0.000, 0.000, 0.000, 12:55:48.195
42, -3779.70, -3855.47, -4466.19, -3730.71, 0.000, 0.000, 0.000, 12:55:48.195
43, -3377.20, -3394.79, -4106.15, -3357.47, 0.000, 0.000, 0.000, 12:55:48.210
44, -3022.25, -3024.26, -3798.56, -3022.60, 0.000, 0.000, 0.000, 12:55:48.210
45, -3590.26, -3677.86, -4309.10, -3557.53, 0.000, 0.000, 0.000, 12:55:48.226
46, -3773.37, -3860.28, -4470.76, -3729.53, 0.000, 0.000, 0.000, 12:55:48.226
47, -3366.16, -3427.12, -4113.21, -3358.97, 0.000, 0.000, 0.000, 12:55:48.226
48, -3013.21, -3041.80, -3796.95, -3004.74, 0.000, 0.000, 0.000, 12:55:48.226
49, -3582.12, -3656.64, -4301.11, -3538.73, 0.000, 0.000, 0.000, 12:55:48.240
50, -3754.42, -3850.69, -4458.59, -3724.89, 0.000, 0.000, 0.000, 12:55:48.241
51, -3361.16, -3432.82, -4113.27, -3360.29, 0.000, 0.000, 0.000, 12:55:48.255
52, -3010.41, -3047.69, -3803.29, -3018.01, 0.000, 0.000, 0.000, 12:55:48.255
53, -3575.23, -3678.89, -4304.49, -3545.08, 0.000, 0.000, 0.000, 12:55:48.262
54, -3757.85, -3876.24, -4465.89, -3726.28, 0.000, 0.000, 0.000, 12:55:48.262
55, -3358.59, -3440.05, -4110.71, -3368.39, 0.000, 0.000, 0.000, 12:55:48.270
56, -3000.95, -3056.45, -3802.73, -3020.20, 0.000, 0.000, 0.000, 12:55:48.270
57, -3566.31, -3672.00, -4304.84, -3544.31, 0.000, 0.000, 0.000, 12:55:48.286
58, -3742.22, -3887.07, -4465.03, -3728.41, 0.000, 0.000, 0.000, 12:55:48.286
59, -3350.72, -3437.24, -4116.73, -3359.23, 0.000, 0.000, 0.000, 12:55:48.286
60, -2993.42, -3074.02, -3798.24, -3007.03, 0.000, 0.000, 0.000, 12:55:48.286
61, -3562.56, -3701.18, -4311.06, -3537.29, 0.000, 0.000, 0.000, 12:55:48.300
62, -3737.64, -3862.05, -4463.97, -3734.13, 0.000, 0.000, 0.000, 12:55:48.300
63, -3350.41, -3488.47, -4125.19, -3373.76, 0.000, 0.000, 0.000, 12:55:48.314
64, -2994.50, -3109.05, -3810.57, -3030.99, 0.000, 0.000, 0.000, 12:55:48.315
65, -3553.18, -3755.79, -4301.83, -3533.60, 0.000, 0.000, 0.000, 12:55:48.315
66, -3745.30, -3872.30, -4463.39, -3717.68, 0.000, 0.000, 0.000, 12:55:48.315
67, -3351.89, -3451.81, -4127.55, -3360.30, 0.000, 0.000, 0.000, 12:55:48.329
68, -2977.62, -3050.46, -3798.19, -3010.36, 0.000, 0.000, 0.000, 12:55:48.329
69, -3545.23, -3660.47, -4304.71, -3544.26, 0.000, 0.000, 0.000, 12:55:48.345
70, -3732.42, -3882.99, -4466.79, -3713.34, 0.000, 0.000, 0.000, 12:55:48.345
71, -3341.94, -3462.50, -4124.74, -3370.33, 0.000, 0.000, 0.000, 12:55:48.346
72, -2987.58, -3054.88, -3808.51, -3017.29, 0.000, 0.000, 0.000, 12:55:48.346
73, -3540.05, -3710.81, -4294.11, -3527.52, 0.000, 0.000, 0.000, 12:55:48.360
74, -3739.10, -3898.61, -4470.27, -3725.72, 0.000, 0.000, 0.000, 12:55:48.360
75, -3348.53, -3456.86, -4125.79, -3366.26, 0.000, 0.000, 0.000, 12:55:48.391
76, -2990.06, -3052.17, -3815.87, -3025.16, 0.000, 0.000, 0.000, 12:55:48.391
77, -3535.51, -3655.22, -4293.83, -3519.98, 0.000, 0.000, 0.000, 12:55:48.391
78, -3737.43, -3849.76, -4466.00, -3730.88, 0.000, 0.000, 0.000, 12:55:48.391
79, -3347.17, -3469.20, -4125.18, -3363.63, 0.000, 0.000, 0.000, 12:55:48.391
80, -2978.41, -3059.46, -3801.17, -3012.47, 0.000, 0.000, 0.000, 12:55:48.391
81, -3526.94, -3680.52, -4287.01, -3519.21, 0.000, 0.000, 0.000, 12:55:48.406
82, -3735.23, -3903.51, -4465.52, -3730.09, 0.000, 0.000, 0.000, 12:55:48.406
83, -3338.76, -3437.74, -4128.46, -3377.92, 0.000, 0.000, 0.000, 12:55:48.420
84, -2980.43, -3061.68, -3802.98, -3013.62, 0.000, 0.000, 0.000, 12:55:48.421
85, -3535.85, -3694.60, -4302.32, -3530.05, 0.000, 0.000, 0.000, 12:55:48.421
86, -3742.56, -3949.08, -4482.89, -3724.92, 0.000, 0.000, 0.000, 12:55:48.421
87, -3352.51, -3477.03, -4142.35, -3370.17, 0.000, 0.000, 0.000, 12:55:48.435
88, -2987.60, -3085.77, -3814.15, -3020.06, 0.000, 0.000, 0.000, 12:55:48.436
89, -3539.60, -3696.26, -4292.72, -3511.94, 0.000, 0.000, 0.000, 12:55:48.436
90, -3745.21, -3879.02, -4473.37, -3724.63, 0.000, 0.000, 0.000, 12:55:48.436
91, -3357.48, -3499.00, -4138.32, -3380.73, 0.000, 0.000, 0.000, 12:55:48.465
92, -2987.66, -3094.35, -3812.37, -3027.09, 0.000, 0.000, 0.000, 12:55:48.465
93, -3528.83, -3672.96, -4285.89, -3530.67, 0.000, 0.000, 0.000, 12:55:48.465
94, -3742.40, -3931.82, -4478.91, -3735.06, 0.000, 0.000, 0.000, 12:55:48.465
95, -3360.81, -3453.67, -4140.97, -3379.42, 0.000, 0.000, 0.000, 12:55:48.466
96, -2990.07, -3076.98, -3821.02, -3024.14, 0.000, 0.000, 0.000, 12:55:48.466
97, -3517.59, -3655.26, -4280.59, -3513.57, 0.000, 0.000, 0.000, 12:55:48.495
98, -3738.44, -3905.01, -4471.98, -3742.00, 0.000, 0.000, 0.000, 12:55:48.495
99, -3366.03, -3480.69, -4148.06, -3381.66, 0.000, 0.000, 0.000, 12:55:48.495
100, -2975.28, -3051.70, -3807.99, -3018.83, 0.000, 0.000, 0.000, 12:55:48.495
101, -3514.88, -3668.98, -4282.54, -3514.77, 0.000, 0.000, 0.000, 12:55:48.496
102, -3740.16, -3931.19, -4478.89, -3741.25, 0.000, 0.000, 0.000, 12:55:48.496
103, -3360.81, -3465.12, -4158.63, -3383.78, 0.000, 0.000, 0.000, 12:55:48.509
104, -2980.59, -3070.32, -3812.58, -3024.44, 0.000, 0.000, 0.000, 12:55:48.510
105, -3513.00, -3637.04, -4279.64, -3505.44, 0.000, 0.000, 0.000, 12:55:48.525
106, -3739.39, -3943.05, -4484.58, -3729.00, 0.000, 0.000, 0.000, 12:55:48.525
107, -3356.95, -3480.81, -4141.18, -3395.64, 0.000, 0.000, 0.000, 12:55:48.525
108, -2977.76, -3054.96, -3805.12, -3022.70, 0.000, 0.000, 0.000, 12:55:48.525
109, -3496.24, -3661.69, -4270.12, -3507.07, 0.000, 0.000, 0.000, 12:55:48.540
110, -3726.42, -3924.64, -4468.54, -3733.93, 0.000, 0.000, 0.000, 12:55:48.540
111, -3358.11, -3494.12, -4149.75, -3387.79, 0.000, 0.000, 0.000, 12:55:48.555
112, -2977.27, -3082.34, -3802.49, -3030.75, 0.000, 0.000, 0.000, 12:55:48.555
113, -3494.34, -3626.13, -4271.11, -3490.35, 0.000, 0.000, 0.000, 12:55:48.556
114, -3734.42, -3924.65, -4478.18, -3738.53, 0.000, 0.000, 0.000, 12:55:48.556
115, -3358.36, -3505.87, -4148.69, -3392.08, 0.000, 0.000, 0.000, 12:55:48.586
116, -2978.36, -3074.80, -3804.86, -3020.03, 0.000, 0.000, 0.000, 12:55:48.586
117, -3496.57, -3582.68, -4266.70, -3498.42, 0.000, 0.000, 0.000, 12:55:48.586
118, -3737.22, -3904.42, -4477.01, -3734.69, 0.000, 0.000, 0.000, 12:55:48.586
119, -3373.94, -3499.81, -4149.96, -3386.97, 0.000, 0.000, 0.000, 12:55:48.587
120, -2986.76, -3087.96, -3803.97, -3019.80, 0.000, 0.000, 0.000, 12:55:48.587
121, -3495.82, -3656.86, -4262.30, -3490.19, 0.000, 0.000, 0.000, 12:55:48.600
122, -3731.81, -3870.19, -4473.04, -3736.38, 0.000, 0.000, 0.000, 12:55:48.600
123, -3368.08, -3531.97, -4157.79, -3403.27, 0.000, 0.000, 0.000, 12:55:48.614
124, -2970.28, -3052.98, -3805.60, -3015.15, 0.000, 0.000, 0.000, 12:55:48.614
125, -3488.17, -3636.17, -4258.84, -3487.79, 0.000, 0.000, 0.000, 12:55:48.615
126, -3736.52, -3896.16, -4482.78, -3729.22, 0.000, 0.000, 0.000, 12:55:48.615
127, -3371.99, -3463.38, -4159.92, -3403.26, 0.000, 0.000, 0.000, 12:55:48.630
128, -2972.99, -3062.12, -3808.09, -3019.57, 0.000, 0.000, 0.000, 12:55:48.630
129, -3479.28, -3615.82, -4259.22, -3483.57, 0.000, 0.000, 0.000, 12:55:48.660
130, -3726.85, -3886.37, -4466.73, -3736.84, 0.000, 0.000, 0.000, 12:55:48.660
131, -3359.33, -3485.57, -4147.64, -3400.16, 0.000, 0.000, 0.000, 12:55:48.660
132, -2964.74, -3078.29, -3798.18, -3007.82, 0.000, 0.000, 0.000, 12:55:48.660
133, -3478.19, -3633.60, -4250.03, -3472.64, 0.000, 0.000, 0.000, 12:55:48.661
134, -3726.24, -3890.21, -4466.90, -3737.68, 0.000, 0.000, 0.000, 12:55:48.661
135, -3356.43, -3488.05, -4143.60, -3387.49, 0.000, 0.000, 0.000, 12:55:48.675
136, -2966.49, -3046.05, -3799.76, -3022.46, 0.000, 0.000, 0.000, 12:55:48.675
137, -3481.46, -3627.02, -4251.65, -3479.74, 0.000, 0.000, 0.000, 12:55:48.676
138, -3736.62, -3907.05, -4476.93, -3735.83, 0.000, 0.000, 0.000, 12:55:48.676
139, -3372.40, -3483.70, -4152.14, -3400.01, 0.000, 0.000, 0.000, 12:55:48.705
140, -2975.76, -3060.39, -3799.95, -3017.90, 0.000, 0.000, 0.000, 12:55:48.705
141, -3473.09, -3606.06, -4239.50, -3466.25, 0.000, 0.000, 0.000, 12:55:48.720
142, -3737.85, -3894.12, -4475.81, -3737.65, 0.000, 0.000, 0.000, 12:55:48.720
143, -3372.49, -3509.02, -4159.17, -3403.72, 0.000, 0.000, 0.000, 12:55:48.721
144, -2967.16, -3069.54, -3796.70, -3015.51, 0.000, 0.000, 0.000, 12:55:48.721
145, -3462.61, -3582.93, -4230.43, -3468.68, 0.000, 0.000, 0.000, 12:55:48.721
146, -3720.16, -3907.40, -4468.79, -3733.87, 0.000, 0.000, 0.000, 12:55:48.721
147, -3361.00, -3539.07, -4152.55, -3397.61, 0.000, 0.000, 0.000, 12:55:48.723
148, -2954.83, -3040.32, -3797.92, -3008.49, 0.000, 0.000, 0.000, 12:55:48.723
149, -3464.88, -3563.31, -4231.80, -3467.71, 0.000, 0.000, 0.000, 12:55:48.736
150, -3733.16, -3837.10, -4468.83, -3747.82, 0.000, 0.000, 0.000, 12:55:48.736
151, -3362.24, -3503.07, -4147.81, -3410.06, 0.000, 0.000, 0.000, 12:55:48.750
152, -2969.62, -3034.21, -3805.99, -3012.97, 0.000, 0.000, 0.000, 12:55:48.751
153, -3462.74, -3600.88, -4240.81, -3456.30, 0.000, 0.000, 0.000, 12:55:48.764
154, -3736.26, -3885.37, -4482.29, -3734.84, 0.000, 0.000, 0.000, 12:55:48.764
155, -3389.22, -3517.15, -4176.23, -3424.19, 0.000, 0.000, 0.000, 12:55:48.765
156, -2973.11, -3046.46, -3805.09, -3025.45, 0.000, 0.000, 0.000, 12:55:48.765
157, -3460.40, -3561.60, -4232.79, -3466.76, 0.000, 0.000, 0.000, 12:55:48.780
158, -3733.65, -3925.52, -4475.13, -3737.64, 0.000, 0.000, 0.000, 12:55:48.780
159, -3377.17, -3480.30, -4170.95, -3411.76, 0.000, 0.000, 0.000, 12:55:48.794
160, -2970.68, -3066.56, -3807.58, -3019.24, 0.000, 0.000, 0.000, 12:55:48.795
161, -3460.41, -3590.18, -4231.07, -3453.89, 0.000, 0.000, 0.000, 12:55:48.795
162, -3737.87, -3875.98, -4479.60, -3742.25, 0.000, 0.000, 0.000, 12:55:48.795
163, -3379.36, -3504.18, -4169.58, -3422.01, 0.000, 0.000, 0.000, 12:55:48.810
164, -2964.87, -3060.51, -3798.10, -3017.11, 0.000, 0.000, 0.000, 12:55:48.810
165, -3448.58, -3604.85, -4221.67, -3457.89, 0.000, 0.000, 0.000, 12:55:48.825
166, -3741.69, -3907.83, -4484.44, -3736.84, 0.000, 0.000, 0.000, 12:55:48.825
167, -3383.47, -3510.91, -4176.02, -3421.48, 0.000, 0.000, 0.000, 12:55:48.826
168, -2970.27, -3046.23, -3805.04, -3024.93, 0.000, 0.000, 0.000, 12:55:48.826
169, -3452.60, -3595.14, -4230.53, -3457.79, 0.000, 0.000, 0.000, 12:55:48.840
170, -3732.98, -3882.81, -4481.13, -3743.29, 0.000, 0.000, 0.000, 12:55:48.840
171, -3387.08, -3527.95, -4175.17, -3420.02, 0.000, 0.000, 0.000, 12:55:48.855
172, -2971.60, -3066.76, -3805.45, -3022.23, 0.000, 0.000, 0.000, 12:55:48.855
173, -3450.70, -3560.47, -4221.92, -3454.47, 0.000, 0.000, 0.000, 12:55:48.855
174, -3726.92, -3894.17, -4477.25, -3742.53, 0.000, 0.000, 0.000, 12:55:48.855
175, -3383.35, -3492.10, -4171.07, -3418.46, 0.000, 0.000, 0.000, 12:55:48.870
176, -2968.43, -3042.29, -3805.59, -3037.04, 0.000, 0.000, 0.000, 12:55:48.870
177, -3439.43, -3595.06, -4219.42, -3462.40, 0.000, 0.000, 0.000, 12:55:48.915
178, -3737.88, -3898.34, -4486.57, -3742.69, 0.000, 0.000, 0.000, 12:55:48.915
179, -3388.71, -3519.51, -4178.05, -3426.99, 0.000, 0.000, 0.000, 12:55:48.915
180, -2970.74, -3053.73, -3808.32, -3027.27, 0.000, 0.000, 0.000, 12:55:48.915
181, -3440.76, -3553.98, -4214.55, -3454.60, 0.000, 0.000, 0.000, 12:55:48.916
182, -3731.52, -3882.81, -4476.71, -3750.74, 0.000, 0.000, 0.000, 12:55:48.916
183, -3386.53, -3506.08, -4165.15, -3438.82, 0.000, 0.000, 0.000, 12:55:48.917
184, -2988.04, -3092.24, -3818.83, -3044.09, 0.000, 0.000, 0.000, 12:55:48.917
185, -3457.87, -3608.67, -4237.49, -3465.10, 0.000, 0.000, 0.000, 12:55:48.924
186, -3716.33, -3952.08, -4479.10, -3699.76, 0.000, 0.000, 0.000, 12:55:48.924
187, -3372.41, -3542.01, -4196.00, -3413.09, 0.000, 0.000, 0.000, 12:55:48.944
188, -2946.95, -3077.85, -3834.69, -3034.74, 0.000, 0.000, 0.000, 12:55:48.945
189, -3399.01, -3623.30, -4237.30, -3404.26, 0.000, 0.000, 0.000, 12:55:48.946
190, -3666.74, -3914.12, -4505.99, -3686.64, 0.000, 0.000, 0.000, 12:55:48.946
191, -3346.98, -3570.41, -4235.96, -3405.96, 0.000, 0.000, 0.000, 12:55:48.946
192, -2908.10, -3099.50, -3846.42, -2976.49, 0.000, 0.000, 0.000, 12:55:48.946
193, -3361.29, -3617.11, -4258.09, -3386.00, 0.000, 0.000, 0.000, 12:55:48.975
194, -3667.79, -3991.27, -4537.95, -3693.39, 0.000, 0.000, 0.000, 12:55:48.975
195, -3339.42, -3581.75, -4248.08, -3382.72, 0.000, 0.000, 0.000, 12:55:48.976
196, -2907.60, -3105.37, -3856.13, -2958.35, 0.000, 0.000, 0.000, 12:55:48.976
197, -3369.95, -3612.28, -4260.51, -3369.03, 0.000, 0.000, 0.000, 12:55:48.976
198, -3702.81, -3993.90, -4552.72, -3686.15, 0.000, 0.000, 0.000, 12:55:48.977
199, -3368.59, -3575.57, -4256.13, -3364.39, 0.000, 0.000, 0.000, 12:55:48.990
200, -2952.70, -3103.96, -3876.01, -2976.05, 0.000, 0.000, 0.000, 12:55:48.990
0, -3412.40, -3632.25, -4268.27, -3376.42, 0.000, 0.000, 0.000, 12:55:48.991
1, -3734.41, -3918.20, -4540.79, -3689.67, 0.000, 0.000, 0.000, 12:55:49.020
2, -3410.13, -3553.93, -4245.76, -3388.50, 0.000, 0.000, 0.000, 12:55:49.020
3, -2986.48, -3110.59, -3871.30, -2977.11, 0.000, 0.000, 0.000, 12:55:49.020
4, -3433.41, -3559.47, -4244.60, -3391.05, 0.000, 0.000, 0.000, 12:55:49.020
5, -3748.28, -3955.45, -4512.16, -3707.66, 0.000, 0.000, 0.000, 12:55:49.021
6, -3419.97, -3535.81, -4226.16, -3406.48, 0.000, 0.000, 0.000, 12:55:49.022
7, -2990.61, -3091.95, -3835.72, -3002.04, 0.000, 0.000, 0.000, 12:55:49.050
8, -3434.81, -3611.21, -4231.87, -3404.84, 0.000, 0.000, 0.000, 12:55:49.050
9, -3757.81, -3918.86, -4505.45, -3713.24, 0.000, 0.000, 0.000, 12:55:49.051
10, -3430.07, -3539.18, -4213.26, -3408.74, 0.000, 0.000, 0.000, 12:55:49.051
11, -2997.02, -3083.59, -3832.64, -2999.98, 0.000, 0.000, 0.000, 12:55:49.051
12, -3431.87, -3579.55, -4214.27, -3410.20, 0.000, 0.000, 0.000, 12:55:49.052
13, -3753.74, -3878.45, -4500.38, -3727.96, 0.000, 0.000, 0.000, 12:55:49.065
14, -3423.06, -3555.42, -4206.07, -3424.29, 0.000, 0.000, 0.000, 12:55:49.065
15, -2991.96, -3058.74, -3830.24, -3010.54, 0.000, 0.000, 0.000, 12:55:49.080
16, -3443.13, -3571.19, -4212.69, -3410.05, 0.000, 0.000, 0.000, 12:55:49.080
17, -3765.18, -3936.24, -4497.44, -3743.79, 0.000, 0.000, 0.000, 12:55:49.081
18, -3436.07, -3557.90, -4208.40, -3448.00, 0.000, 0.000, 0.000, 12:55:49.081
19, -2996.16, -3058.00, -3820.83, -3020.75, 0.000, 0.000, 0.000, 12:55:49.095
20, -3430.75, -3517.92, -4206.60, -3417.41, 0.000, 0.000, 0.000, 12:55:49.095
21, -3765.58, -3941.29, -4503.30, -3753.03, 0.000, 0.000, 0.000, 12:55:49.110
22, -3426.13, -3550.87, -4207.87, -3448.54, 0.000, 0.000, 0.000, 12:55:49.110
23, -2985.91, -3060.96, -3811.02, -3017.79, 0.000, 0.000, 0.000, 12:55:49.110
24, -3418.86, -3530.27, -4199.95, -3414.45, 0.000, 0.000, 0.000, 12:55:49.110
25, -3761.88, -3878.83, -4495.74, -3737.54, 0.000, 0.000, 0.000, 12:55:49.125
26, -3417.88, -3548.71, -4196.58, -3438.73, 0.000, 0.000, 0.000, 12:55:49.125
27, -2983.59, -3076.74, -3817.58, -3039.17, 0.000, 0.000, 0.000, 12:55:49.141
28, -3407.82, -3548.67, -4185.33, -3400.00, 0.000, 0.000, 0.000, 12:55:49.142
29, -3743.80, -3921.45, -4487.97, -3738.59, 0.000, 0.000, 0.000, 12:55:49.142
30, -3421.57, -3587.34, -4204.24, -3450.69, 0.000, 0.000, 0.000, 12:55:49.142
31, -2982.34, -3062.86, -3824.34, -3019.75, 0.000, 0.000, 0.000, 12:55:49.155
32, -3408.72, -3526.32, -4192.48, -3401.40, 0.000, 0.000, 0.000, 12:55:49.155
33, -3748.53, -3931.69, -4483.84, -3758.11, 0.000, 0.000, 0.000, 12:55:49.186
34, -3413.40, -3598.45, -4199.08, -3446.72, 0.000, 0.000, 0.000, 12:55:49.186
35, -2950.54, -3075.45, -3808.16, -3003.65, 0.000, 0.000, 0.000, 12:55:49.186
36, -3379.68, -3513.21, -4193.81, -3402.20, 0.000, 0.000, 0.000, 12:55:49.186
37, -3715.19, -3954.66, -4505.27, -3720.25, 0.000, 0.000, 0.000, 12:55:49.187
38, -3403.89, -3648.44, -4249.43, -3447.58, 0.000, 0.000, 0.000, 12:55:49.187
39, -2907.78, -3112.73, -3842.46, -3028.18, 0.000, 0.000, 0.000, 12:55:49.215
40, -3211.85, -3592.37, -4142.38, -3376.51, 0.000, 0.000, 0.000, 12:55:49.215
41, -3520.40, -4017.66, -4439.73, -3735.08, 0.000, 0.000, 0.000, 12:55:49.215
42, -3173.71, -3638.09, -4156.70, -3446.28, 0.000, 0.000, 0.000, 12:55:49.215
43, -2723.31, -3139.31, -3757.17, -3039.80, 0.000, 0.000, 0.000, 12:55:49.216
44, -3137.96, -3596.89, -4111.20, -3407.71, 0.000, 0.000, 0.000, 12:55:49.216
45, -3505.93, -3986.15, -4434.50, -3782.41, 0.000, 0.000, 0.000, 12:55:49.230
46, -3194.76, -3633.11, -4142.72, -3498.44, 0.000, 0.000, 0.000, 12:55:49.230
47, -2766.94, -3116.38, -3746.38, -3071.83, 0.000, 0.000, 0.000, 12:55:49.230
48, -3195.81, -3553.11, -4103.43, -3440.04, 0.000, 0.000, 0.000, 12:55:49.230
49, -3581.43, -3944.41, -4420.74, -3800.22, 0.000, 0.000, 0.000, 12:55:49.275
50, -3285.39, -3572.52, -4146.46, -3522.74, 0.000, 0.000, 0.000, 12:55:49.275
51, -2867.10, -3113.62, -3751.76, -3083.89, 0.000, 0.000, 0.000, 12:55:49.275
52, -3292.68, -3514.67, -4099.89, -3440.65, 0.000, 0.000, 0.000, 12:55:49.275
53, -3693.07, -3936.59, -4439.78, -3804.23, 0.000, 0.000, 0.000, 12:55:49.276
54, -3398.89, -3589.15, -4164.76, -3512.99, 0.000, 0.000, 0.000, 12:55:49.276
55, -2950.81, -2993.86, -3756.35, -3086.26, 0.000, 0.000, 0.000, 12:55:49.277
56, -3373.93, -3469.04, -4112.13, -3456.59, 0.000, 0.000, 0.000, 12:55:49.277
57, -3754.13, -3844.79, -4443.74, -3799.18, 0.000, 0.000, 0.000, 12:55:49.277
58, -3460.00, -3518.21, -4167.85, -3508.45, 0.000, 0.000, 0.000, 12:55:49.277
59, -3028.45, -3074.99, -3786.87, -3085.39, 0.000, 0.000, 0.000, 12:55:49.290
60, -3429.94, -3466.67, -4126.09, -3423.52, 0.000, 0.000, 0.000, 12:55:49.290
61, -3803.02, -3878.15, -4448.83, -3800.14, 0.000, 0.000, 0.000, 12:55:49.321
62, -3504.25, -3505.26, -4187.13, -3504.22, 0.000, 0.000, 0.000, 12:55:49.321
63, -3072.44, -3023.09, -3810.46, -3078.21, 0.000, 0.000, 0.000, 12:55:49.321
64, -3467.36, -3482.01, -4151.80, -3419.43, 0.000, 0.000, 0.000, 12:55:49.321
65, -3841.41, -3871.20, -4482.97, -3784.48, 0.000, 0.000, 0.000, 12:55:49.321
66, -3529.99, -3528.88, -4209.41, -3507.66, 0.000, 0.000, 0.000, 12:55:49.321
67, -3077.18, -3014.43, -3812.37, -3069.96, 0.000, 0.000, 0.000, 12:55:49.336
68, -3462.80, -3462.33, -4153.92, -3405.79, 0.000, 0.000, 0.000, 12:55:49.336
69, -3850.58, -3850.74, -4483.53, -3781.02, 0.000, 0.000, 0.000, 12:55:49.350
70, -3528.51, -3560.86, -4212.64, -3493.85, 0.000, 0.000, 0.000, 12:55:49.350
71, -3074.11, -3052.24, -3813.35, -3056.49, 0.000, 0.000, 0.000, 12:55:49.351
72, -3470.57, -3511.20, -4161.13, -3397.36, 0.000, 0.000, 0.000, 12:55:49.351
73, -3850.06, -3905.88, -4493.26, -3770.65, 0.000, 0.000, 0.000, 12:55:49.365
74, -3524.65, -3566.91, -4218.20, -3491.73, 0.000, 0.000, 0.000, 12:55:49.365
75, -3065.28, -3037.89, -3812.42, -3056.29, 0.000, 0.000, 0.000, 12:55:49.395
76, -3440.99, -3464.88, -4152.88, -3395.11, 0.000, 0.000, 0.000, 12:55:49.395
77, -3832.93, -3919.64, -4483.93, -3768.74, 0.000, 0.000, 0.000, 12:55:49.395
78, -3514.78, -3551.55, -4214.61, -3481.06, 0.000, 0.000, 0.000, 12:55:49.395
79, -3066.77, -3023.99, -3816.61, -3056.42, 0.000, 0.000, 0.000, 12:55:49.396
80, -3437.09, -3473.60, -4140.65, -3383.45, 0.000, 0.000, 0.000, 12:55:49.396
81, -3822.27, -3887.15, -4490.12, -3764.86, 0.000, 0.000, 0.000, 12:55:49.410
82, -3504.97, -3556.26, -4215.86, -3492.91, 0.000, 0.000, 0.000, 12:55:49.410
83, -3041.54, -3040.46, -3813.01, -3052.03, 0.000, 0.000, 0.000, 12:55:49.410
84, -3423.75, -3467.84, -4147.46, -3379.44, 0.000, 0.000, 0.000, 12:55:49.411
85, -3810.51, -3930.14, -4495.46, -3759.91, 0.000, 0.000, 0.000, 12:55:49.425
86, -3502.52, -3607.55, -4230.58, -3482.12, 0.000, 0.000, 0.000, 12:55:49.425
87, -3042.20, -3056.92, -3824.49, -3054.73, 0.000, 0.000, 0.000, 12:55:49.440
88, -3399.61, -3462.55, -4136.86, -3382.51, 0.000, 0.000, 0.000, 12:55:49.440
89, -3810.13, -3873.83, -4494.77, -3762.51, 0.000, 0.000, 0.000, 12:55:49.456
90, -3505.24, -3604.30, -4230.56, -3491.41, 0.000, 0.000, 0.000, 12:55:49.456
91, -3037.10, -3087.00, -3823.52, -3061.54, 0.000, 0.000, 0.000, 12:55:49.470
92, -3404.85, -3500.94, -4150.95, -3370.98, 0.000, 0.000, 0.000, 12:55:49.471
93, -3797.56, -3893.06, -4493.73, -3750.70, 0.000, 0.000, 0.000, 12:55:49.471
94, -3493.16, -3590.55, -4238.81, -3488.28, 0.000, 0.000, 0.000, 12:55:49.471
95, -3026.24, -3009.28, -3822.90, -3039.47, 0.000, 0.000, 0.000, 12:55:49.472
96, -3385.29, -3514.35, -4143.86, -3371.22, 0.000, 0.000, 0.000, 12:55:49.472
97, -3781.49, -3926.00, -4497.55, -3760.03, 0.000, 0.000, 0.000, 12:55:49.500
98, -3481.19, -3585.83, -4228.56, -3489.65, 0.000, 0.000, 0.000, 12:55:49.500
99, -3011.80, -3073.95, -3818.96, -3050.27, 0.000, 0.000, 0.000, 12:55:49.501
100, -3369.99, -3443.24, -4133.29, -3362.58, 0.000, 0.000, 0.000, 12:55:49.501
101, -3761.94, -3929.97, -4483.08, -3752.93, 0.000, 0.000, 0.000, 12:55:49.502
102, -3475.95, -3604.33, -4232.33, -3477.13, 0.000, 0.000, 0.000, 12:55:49.502
103, -3019.31, -3110.57, -3835.72, -3040.14, 0.000, 0.000, 0.000, 12:55:49.530
104, -3361.92, -3442.33, -4142.66, -3354.05, 0.000, 0.000, 0.000, 12:55:49.530
105, -3775.73, -3940.05, -4505.10, -3740.87, 0.000, 0.000, 0.000, 12:55:49.530
106, -3481.62, -3601.65, -4248.99, -3489.50, 0.000, 0.000, 0.000, 12:55:49.530
107, -3012.89, -3072.62, -3838.38, -3046.21, 0.000, 0.000, 0.000, 12:55:49.531
108, -3363.80, -3445.02, -4144.72, -3350.92, 0.000, 0.000, 0.000, 12:55:49.531
109, -3767.20, -3945.32, -4493.70, -3760.62, 0.000, 0.000, 0.000, 12:55:49.576
110, -3483.89, -3633.09, -4250.68, -3504.54, 0.000, 0.000, 0.000, 12:55:49.576
111, -3011.55, -3101.76, -3837.67, -3044.21, 0.000, 0.000, 0.000, 12:55:49.577
112, -3359.89, -3529.07, -4137.94, -3345.67, 0.000, 0.000, 0.000, 12:55:49.577
113, -3763.03, -3896.27, -4492.73, -3743.66, 0.000, 0.000, 0.000, 12:55:49.577
114, -3476.83, -3552.50, -4241.33, -3487.57, 0.000, 0.000, 0.000, 12:55:49.577
115, -3002.96, -3097.92, -3828.75, -3033.20, 0.000, 0.000, 0.000, 12:55:49.577
116, -3335.91, -3474.51, -4116.12, -3341.86, 0.000, 0.000, 0.000, 12:55:49.577
117, -3758.17, -3937.95, -4498.32, -3756.54, 0.000, 0.000, 0.000, 12:55:49.578
118, -3461.30, -3626.78, -4228.43, -3494.80, 0.000, 0.000, 0.000, 12:55:49.578
119, -2995.97, -3054.50, -3820.56, -3042.52, 0.000, 0.000, 0.000, 12:55:49.591
120, -3333.66, -3463.63, -4119.30, -3340.63, 0.000, 0.000, 0.000, 12:55:49.591
121, -3763.18, -3952.82, -4501.93, -3753.08, 0.000, 0.000, 0.000, 12:55:49.606
122, -3467.28, -3575.42, -4235.28, -3494.32, 0.000, 0.000, 0.000, 12:55:49.606
123, -3000.26, -3037.20, -3821.78, -3050.24, 0.000, 0.000, 0.000, 12:55:49.621
124, -3337.50, -3463.89, -4136.72, -3355.40, 0.000, 0.000, 0.000, 12:55:49.621
125, -3759.34, -3933.03, -4493.02, -3747.73, 0.000, 0.000, 0.000, 12:55:49.621
126, -3463.48, -3564.25, -4240.01, -3490.04, 0.000, 0.000, 0.000, 12:55:49.621
127, -2998.53, -3071.65, -3838.22, -3047.96, 0.000, 0.000, 0.000, 12:55:49.635
128, -3330.02, -3454.73, -4126.96, -3341.57, 0.000, 0.000, 0.000, 12:55:49.635
129, -3763.31, -3971.05, -4504.66, -3762.80, 0.000, 0.000, 0.000, 12:55:49.650
130, -3480.97, -3649.11, -4245.93, -3497.12, 0.000, 0.000, 0.000, 12:55:49.650
131, -3012.90, -3039.07, -3828.75, -3044.85, 0.000, 0.000, 0.000, 12:55:49.651
132, -3334.25, -3436.78, -4121.91, -3340.38, 0.000, 0.000, 0.000, 12:55:49.651
133, -3758.86, -3841.23, -4505.03, -3757.24, 0.000, 0.000, 0.000, 12:55:49.665
134, -3483.08, -3622.52, -4253.05, -3504.29, 0.000, 0.000, 0.000, 12:55:49.665
135, -3009.97, -3152.79, -3843.36, -3053.05, 0.000, 0.000, 0.000, 12:55:49.695
136, -3332.68, -3503.86, -4114.30, -3328.86, 0.000, 0.000, 0.000, 12:55:49.695
137, -3765.77, -3917.01, -4500.81, -3751.87, 0.000, 0.000, 0.000, 12:55:49.695
138, -3479.83, -3629.72, -4253.40, -3497.59, 0.000, 0.000, 0.000, 12:55:49.695
139, -3008.84, -3101.23, -3844.75, -3063.42, 0.000, 0.000, 0.000, 12:55:49.696
140, -3329.19, -3457.05, -4123.65, -3334.24, 0.000, 0.000, 0.000, 12:55:49.696
141, -3753.94, -3903.11, -4500.89, -3757.07, 0.000, 0.000, 0.000, 12:55:49.710
142, -3471.74, -3609.78, -4255.91, -3501.68, 0.000, 0.000, 0.000, 12:55:49.710
143, -3008.08, -3095.23, -3839.27, -3046.96, 0.000, 0.000, 0.000, 12:55:49.711
144, -3321.34, -3413.06, -4107.22, -3325.72, 0.000, 0.000, 0.000, 12:55:49.711
145, -3752.91, -3999.07, -4500.99, -3749.79, 0.000, 0.000, 0.000, 12:55:49.725
146, -3480.37, -3619.35, -4251.40, -3505.84, 0.000, 0.000, 0.000, 12:55:49.725
147, -3002.92, -3086.26, -3827.19, -3047.41, 0.000, 0.000, 0.000, 12:55:49.741
148, -3320.32, -3409.68, -4105.20, -3328.06, 0.000, 0.000, 0.000, 12:55:49.741
149, -3763.83, -3870.37, -4503.00, -3758.01, 0.000, 0.000, 0.000, 12:55:49.741
150, -3476.74, -3694.11, -4244.85, -3501.83, 0.000, 0.000, 0.000, 12:55:49.741
151, -3011.20, -3062.89, -3837.46, -3057.49, 0.000, 0.000, 0.000, 12:55:49.770
152, -3306.38, -3429.93, -4092.61, -3323.48, 0.000, 0.000, 0.000, 12:55:49.770
153, -3760.25, -3902.49, -4502.40, -3771.64, 0.000, 0.000, 0.000, 12:55:49.771
154, -3481.93, -3642.50, -4260.20, -3507.04, 0.000, 0.000, 0.000, 12:55:49.771
155, -3014.59, -3147.12, -3847.19, -3059.78, 0.000, 0.000, 0.000, 12:55:49.771
156, -3302.55, -3462.22, -4105.51, -3323.08, 0.000, 0.000, 0.000, 12:55:49.771
157, -3760.84, -3939.87, -4500.82, -3757.97, 0.000, 0.000, 0.000, 12:55:49.786
158, -3486.90, -3644.92, -4260.09, -3517.87, 0.000, 0.000, 0.000, 12:55:49.786
159, -3015.66, -3119.82, -3849.22, -3066.52, 0.000, 0.000, 0.000, 12:55:49.830
160, -3307.81, -3447.33, -4099.06, -3324.19, 0.000, 0.000, 0.000, 12:55:49.831
161, -3756.63, -3939.59, -4500.39, -3743.76, 0.000, 0.000, 0.000, 12:55:49.831
162, -3494.56, -3640.27, -4267.28, -3498.72, 0.000, 0.000, 0.000, 12:55:49.831
163, -3014.66, -3133.75, -3851.82, -3065.50, 0.000, 0.000, 0.000, 12:55:49.831
164, -3305.28, -3434.64, -4105.67, -3328.73, 0.000, 0.000, 0.000, 12:55:49.831
165, -3752.44, -3933.72, -4491.84, -3756.63, 0.000, 0.000, 0.000, 12:55:49.832
166, -3488.57, -3619.16, -4264.59, -3512.16, 0.000, 0.000, 0.000, 12:55:49.832
167, -3009.87, -3111.73, -3844.94, -3069.45, 0.000, 0.000, 0.000, 12:55:49.833
168, -3300.74, -3443.48, -4099.16, -3308.02, 0.000, 0.000, 0.000, 12:55:49.833
169, -3750.33, -3934.37, -4488.17, -3749.63, 0.000, 0.000, 0.000, 12:55:49.845
170, -3481.45, -3659.31, -4260.73, -3506.17, 0.000, 0.000, 0.000, 12:55:49.845
171, -3003.96, -3100.26, -3844.84, -3056.96, 0.000, 0.000, 0.000, 12:55:49.860
172, -3289.27, -3448.36, -4093.05, -3312.24, 0.000, 0.000, 0.000, 12:55:49.860
173, -3742.68, -3968.72, -4490.63, -3746.15, 0.000, 0.000, 0.000, 12:55:49.867
174, -3461.61, -3690.18, -4252.88, -3502.64, 0.000, 0.000, 0.000, 12:55:49.867
175, -2986.50, -3073.27, -3839.68, -3066.86, 0.000, 0.000, 0.000, 12:55:49.875
176, -3235.30, -3436.27, -4080.34, -3288.84, 0.000, 0.000, 0.000, 12:55:49.875
177, -3672.18, -3919.86, -4478.18, -3735.98, 0.000, 0.000, 0.000, 12:55:49.891
178, -3393.38, -3627.71, -4245.09, -3512.13, 0.000, 0.000, 0.000, 12:55:49.891
179, -2899.64, -3138.65, -3844.82, -3041.91, 0.000, 0.000, 0.000, 12:55:49.891
180, -3139.40, -3483.75, -4087.88, -3285.44, 0.000, 0.000, 0.000, 12:55:49.891
181, -3548.45, -3995.87, -4480.66, -3733.81, 0.000, 0.000, 0.000, 12:55:49.905
182, -3286.20, -3718.73, -4257.47, -3494.87, 0.000, 0.000, 0.000, 12:55:49.905
183, -2812.53, -3223.64, -3834.78, -3054.31, 0.000, 0.000, 0.000, 12:55:49.921
184, -3091.43, -3510.10, -4074.75, -3288.95, 0.000, 0.000, 0.000, 12:55:49.921
185, -3560.25, -3962.34, -4483.34, -3729.38, 0.000, 0.000, 0.000, 12:55:49.921
186, -3305.90, -3718.73, -4253.35, -3509.62, 0.000, 0.000, 0.000, 12:55:49.921
187, -2862.51, -3158.01, -3839.61, -3050.26, 0.000, 0.000, 0.000, 12:55:49.935
188, -3139.84, -3513.09, -4075.41, -3278.64, 0.000, 0.000, 0.000, 12:55:49.935
189, -3644.41, -4004.89, -4509.14, -3746.54, 0.000, 0.000, 0.000, 12:55:49.950
190, -3394.57, -3652.69, -4272.90, -3508.39, 0.000, 0.000, 0.000, 12:55:49.950
191, -2924.02, -3162.99, -3843.48, -3073.61, 0.000, 0.000, 0.000, 12:55:49.950
192, -3200.67, -3400.20, -4063.11, -3288.18, 0.000, 0.000, 0.000, 12:55:49.950
193, -3685.69, -3925.31, -4477.35, -3734.16, 0.000, 0.000, 0.000, 12:55:49.965
194, -3459.10, -3659.62, -4262.95, -3517.24, 0.000, 0.000, 0.000, 12:55:49.965
195, -3003.56, -3089.37, -3846.38, -3064.22, 0.000, 0.000, 0.000, 12:55:49.980
196, -3283.81, -3431.83, -4078.60, -3291.29, 0.000, 0.000, 0.000, 12:55:49.980
197, -3765.72, -3986.82, -4497.76, -3760.13, 0.000, 0.000, 0.000, 12:55:49.981
198, -3521.11, -3610.80, -4271.14, -3529.68, 0.000, 0.000, 0.000, 12:55:49.981
199, -3070.79, -3102.60, -3860.28, -3083.56, 0.000, 0.000, 0.000, 12:55:50.025
200, -3319.06, -3411.51, -4064.86, -3296.26, 0.000, 0.000, 0.000, 12:55:50.025
0, -3807.79, -3901.87, -4489.83, -3758.29, 0.000, 0.000, 0.000, 12:55:50.025
1, -3557.00, -3680.42, -4265.26, -3539.75, 0.000, 0.000, 0.000, 12:55:50.026
2, -3085.47, -3047.52, -3860.05, -3075.72, 0.000, 0.000, 0.000, 12:55:50.026
3, -3332.02, -3352.63, -4074.34, -3298.55, 0.000, 0.000, 0.000, 12:55:50.027
4, -3822.84, -3910.24, -4491.46, -3764.51, 0.000, 0.000, 0.000, 12:55:50.027
5, -3578.54, -3590.55, -4275.55, -3541.34, 0.000, 0.000, 0.000, 12:55:50.027
6, -3104.13, -3067.07, -3859.39, -3091.46, 0.000, 0.000, 0.000, 12:55:50.027
7, -3345.88, -3357.36, -4073.72, -3300.43, 0.000, 0.000, 0.000, 12:55:50.040
8, -3820.47, -3883.97, -4491.25, -3757.37, 0.000, 0.000, 0.000, 12:55:50.040
9, -3569.10, -3600.26, -4264.00, -3535.01, 0.000, 0.000, 0.000, 12:55:50.070
10, -3099.60, -3042.69, -3851.10, -3084.14, 0.000, 0.000, 0.000, 12:55:50.070
11, -3328.45, -3361.93, -4072.15, -3286.45, 0.000, 0.000, 0.000, 12:55:50.071
12, -3814.07, -3914.29, -4495.74, -3747.33, 0.000, 0.000, 0.000, 12:55:50.071
13, -3565.16, -3617.88, -4272.44, -3539.83, 0.000, 0.000, 0.000, 12:55:50.072
14, -3096.44, -3096.28, -3863.93, -3079.63, 0.000, 0.000, 0.000, 12:55:50.072
15, -3322.98, -3355.34, -4068.79, -3281.43, 0.000, 0.000, 0.000, 12:55:50.085
16, -3819.14, -3945.26, -4508.02, -3761.01, 0.000, 0.000, 0.000, 12:55:50.085
17, -3561.66, -3592.13, -4286.38, -3544.11, 0.000, 0.000, 0.000, 12:55:50.086
18, -3086.46, -3114.84, -3859.62, -3079.36, 0.000, 0.000, 0.000, 12:55:50.086
19, -3310.74, -3325.08, -4061.31, -3278.79, 0.000, 0.000, 0.000, 12:55:50.190
20, -3797.80, -3899.18, -4494.45, -3744.54, 0.000, 0.000, 0.000, 12:55:50.190
21, -3550.39, -3674.51, -4274.46, -3522.88, 0.000, 0.000, 0.000, 12:55:50.190
22, -3072.68, -3090.06, -3861.20, -3077.88, 0.000, 0.000, 0.000, 12:55:50.190
23, -3299.89, -3363.21, -4055.48, -3283.74, 0.000, 0.000, 0.000, 12:55:50.191
24, -3798.16, -3982.66, -4496.42, -3763.83, 0.000, 0.000, 0.000, 12:55:50.191
25, -3555.17, -3621.35, -4292.20, -3534.56, 0.000, 0.000, 0.000, 12:55:50.192
26, -3088.44, -3108.93, -3873.12, -3099.01, 0.000, 0.000, 0.000, 12:55:50.192
27, -3298.96, -3354.73, -4065.74, -3283.13, 0.000, 0.000, 0.000, 12:55:50.205
28, -3777.35, -3916.23, -4496.72, -3747.77, 0.000, 0.000, 0.000, 12:55:50.205
29, -3529.22, -3631.89, -4278.20, -3547.84, 0.000, 0.000, 0.000, 12:55:50.206
30, -3061.02, -3126.87, -3859.02, -3087.40, 0.000, 0.000, 0.000, 12:55:50.207
31, -3273.64, -3346.58, -4050.26, -3268.19, 0.000, 0.000, 0.000, 12:55:50.207
32, -3759.14, -3931.08, -4483.42, -3745.33, 0.000, 0.000, 0.000, 12:55:50.207
41, -3538.56, -3681.47, -4293.30, -3541.51, 0.000, 0.000, 0.000, 12:55:50.207
42, -3071.56, -3181.36, -3884.34, -3104.67, 0.000, 0.000, 0.000, 12:55:50.207
43, -3269.05, -3421.53, -4050.55, -3278.11, 0.000, 0.000, 0.000, 12:55:50.221
44, -3762.69, -3943.42, -4484.72, -3754.57, 0.000, 0.000, 0.000, 12:55:50.221
45, -3536.70, -3695.42, -4290.16, -3533.63, 0.000, 0.000, 0.000, 12:55:50.235
46, -3075.79, -3205.79, -3886.42, -3106.18, 0.000, 0.000, 0.000, 12:55:50.236
47, -3264.80, -3379.55, -4045.77, -3269.71, 0.000, 0.000, 0.000, 12:55:50.236
48, -3751.07, -3946.19, -4483.12, -3747.01, 0.000, 0.000, 0.000, 12:55:50.236
49, -3539.27, -3719.74, -4290.22, -3544.67, 0.000, 0.000, 0.000, 12:55:50.265
50, -3068.92, -3200.51, -3888.96, -3114.61, 0.000, 0.000, 0.000, 12:55:50.265
51, -3257.08, -3425.73, -4057.48, -3261.87, 0.000, 0.000, 0.000, 12:55:50.266
52, -3751.63, -3988.86, -4490.57, -3748.21, 0.000, 0.000, 0.000, 12:55:50.266
53, -3534.70, -3720.03, -4293.17, -3555.98, 0.000, 0.000, 0.000, 12:55:50.267
54, -3078.25, -3188.92, -3886.76, -3107.65, 0.000, 0.000, 0.000, 12:55:50.267
55, -3260.93, -3481.81, -4059.08, -3272.36, 0.000, 0.000, 0.000, 12:55:50.280
56, -3751.90, -3945.03, -4485.46, -3734.26, 0.000, 0.000, 0.000, 12:55:50.280
57, -3542.39, -3734.24, -4300.26, -3565.42, 0.000, 0.000, 0.000, 12:55:50.294
58, -3080.90, -3232.89, -3889.25, -3109.11, 0.000, 0.000, 0.000, 12:55:50.295
59, -3256.12, -3418.28, -4050.12, -3270.72, 0.000, 0.000, 0.000, 12:55:50.295
60, -3755.78, -3947.30, -4491.85, -3745.52, 0.000, 0.000, 0.000, 12:55:50.295
61, -3539.94, -3710.05, -4300.22, -3553.43, 0.000, 0.000, 0.000, 12:55:50.325
62, -3082.72, -3177.39, -3901.85, -3120.26, 0.000, 0.000, 0.000, 12:55:50.325
63, -3261.37, -3412.42, -4047.09, -3267.99, 0.000, 0.000, 0.000, 12:55:50.325
64, -3756.84, -3950.56, -4479.12, -3746.70, 0.000, 0.000, 0.000, 12:55:50.326
65, -3535.02, -3735.88, -4299.35, -3569.45, 0.000, 0.000, 0.000, 12:55:50.326
66, -3069.99, -3203.74, -3895.31, -3100.35, 0.000, 0.000, 0.000, 12:55:50.326
67, -3244.74, -3433.30, -4044.16, -3256.95, 0.000, 0.000, 0.000, 12:55:50.340
68, -3737.18, -3967.91, -4484.31, -3744.82, 0.000, 0.000, 0.000, 12:55:50.340
69, -3530.20, -3699.63, -4309.47, -3559.73, 0.000, 0.000, 0.000, 12:55:50.355
70, -3076.45, -3191.36, -3899.72, -3131.87, 0.000, 0.000, 0.000, 12:55:50.355
71, -3237.53, -3387.87, -4024.81, -3248.13, 0.000, 0.000, 0.000, 12:55:50.385
72, -3741.83, -3985.96, -4471.93, -3731.66, 0.000, 0.000, 0.000, 12:55:50.386
73, -3532.22, -3726.11, -4302.03, -3554.32, 0.000, 0.000, 0.000, 12:55:50.386
74, -3075.33, -3229.64, -3900.62, -3118.05, 0.000, 0.000, 0.000, 12:55:50.386
75, -3238.50, -3397.67, -4038.37, -3259.17, 0.000, 0.000, 0.000, 12:55:50.387
76, -3740.33, -3925.78, -4476.36, -3739.38, 0.000, 0.000, 0.000, 12:55:50.387
77, -3537.68, -3732.68, -4301.78, -3555.71, 0.000, 0.000, 0.000, 12:55:50.400
78, -3064.33, -3210.62, -3887.94, -3114.87, 0.000, 0.000, 0.000, 12:55:50.400
79, -3219.59, -3370.68, -4028.31, -3242.19, 0.000, 0.000, 0.000, 12:55:50.401
80, -3732.00, -3946.03, -4471.06, -3734.54, 0.000, 0.000, 0.000, 12:55:50.401
81, -3526.83, -3701.99, -4290.05, -3559.76, 0.000, 0.000, 0.000, 12:55:50.415
82, -3063.63, -3220.44, -3899.62, -3114.28, 0.000, 0.000, 0.000, 12:55:50.415
83, -3189.64, -3355.86, -4014.16, -3242.19, 0.000, 0.000, 0.000, 12:55:50.430
84, -3728.53, -3949.87, -4476.87, -3728.17, 0.000, 0.000, 0.000, 12:55:50.430
85, -3519.79, -3739.96, -4296.39, -3546.71, 0.000, 0.000, 0.000, 12:55:50.430
86, -3042.59, -3237.63, -3877.74, -3104.15, 0.000, 0.000, 0.000, 12:55:50.430
87, -3198.26, -3384.39, -4012.71, -3235.89, 0.000, 0.000, 0.000, 12:55:50.445
88, -3697.68, -3982.85, -4478.38, -3728.80, 0.000, 0.000, 0.000, 12:55:50.445
89, -3472.12, -3701.94, -4292.27, -3555.16, 0.000, 0.000, 0.000, 12:55:50.445
90, -2977.74, -3259.66, -3873.35, -3084.35, 0.000, 0.000, 0.000, 12:55:50.445
91, -3103.28, -3425.41, -4009.04, -3237.69, 0.000, 0.000, 0.000, 12:55:50.460
92, -3593.20, -3967.12, -4472.30, -3701.68, 0.000, 0.000, 0.000, 12:55:50.460
93, -3354.03, -3791.86, -4292.11, -3544.91, 0.000, 0.000, 0.000, 12:55:50.475
94, -2864.86, -3252.37, -3889.90, -3069.54, 0.000, 0.000, 0.000, 12:55:50.475
95, -3003.20, -3448.71, -4019.38, -3211.51, 0.000, 0.000, 0.000, 12:55:50.476
96, -3538.82, -4003.09, -4478.17, -3695.63, 0.000, 0.000, 0.000, 12:55:50.476
97, -3341.45, -3756.44, -4302.58, -3548.07, 0.000, 0.000, 0.000, 12:55:50.506
98, -2896.62, -3247.53, -3901.95, -3092.61, 0.000, 0.000, 0.000, 12:55:50.507
99, -3040.81, -3476.53, -4014.12, -3195.32, 0.000, 0.000, 0.000, 12:55:50.520
100, -3578.38, -3995.79, -4481.40, -3704.11, 0.000, 0.000, 0.000, 12:55:50.520
101, -3394.79, -3747.21, -4296.23, -3547.01, 0.000, 0.000, 0.000, 12:55:50.520
102, -2940.46, -3269.70, -3893.39, -3111.48, 0.000, 0.000, 0.000, 12:55:50.520
103, -3079.93, -3425.42, -4010.44, -3217.15, 0.000, 0.000, 0.000, 12:55:50.521
104, -3627.27, -4022.96, -4468.51, -3712.25, 0.000, 0.000, 0.000, 12:55:50.521
105, -3462.26, -3740.72, -4299.26, -3558.53, 0.000, 0.000, 0.000, 12:55:50.536
106, -3030.84, -3254.27, -3919.40, -3115.55, 0.000, 0.000, 0.000, 12:55:50.536
107, -3168.68, -3377.90, -4024.50, -3216.93, 0.000, 0.000, 0.000, 12:55:50.536
108, -3729.97, -3971.01, -4479.47, -3736.27, 0.000, 0.000, 0.000, 12:55:50.536
109, -3519.09, -3697.32, -4312.87, -3579.34, 0.000, 0.000, 0.000, 12:55:50.565
110, -3075.39, -3163.30, -3900.52, -3132.15, 0.000, 0.000, 0.000, 12:55:50.565
111, -3212.30, -3326.39, -4001.77, -3216.37, 0.000, 0.000, 0.000, 12:55:50.566
112, -3759.43, -3910.26, -4492.31, -3753.90, 0.000, 0.000, 0.000, 12:55:50.566
113, -3581.30, -3729.98, -4311.70, -3578.29, 0.000, 0.000, 0.000, 12:55:50.580
114, -3119.27, -3197.25, -3902.35, -3142.07, 0.000, 0.000, 0.000, 12:55:50.580
115, -3244.88, -3316.11, -4007.42, -3221.87, 0.000, 0.000, 0.000, 12:55:50.581
116, -3790.98, -3875.52, -4474.07, -3747.07, 0.000, 0.000, 0.000, 12:55:50.581
117, -3589.68, -3644.29, -4294.75, -3576.56, 0.000, 0.000, 0.000, 12:55:50.595
118, -3150.84, -3187.22, -3916.63, -3139.78, 0.000, 0.000, 0.000, 12:55:50.595
119, -3269.14, -3279.07, -4015.70, -3228.21, 0.000, 0.000, 0.000, 12:55:50.595
120, -3807.85, -3924.52, -4477.26, -3740.22, 0.000, 0.000, 0.000, 12:55:50.595
121, -3616.35, -3703.63, -4313.11, -3565.39, 0.000, 0.000, 0.000, 12:55:50.610
122, -3141.19, -3119.32, -3897.56, -3135.30, 0.000, 0.000, 0.000, 12:55:50.610
123, -3262.32, -3321.61, -3987.76, -3219.26, 0.000, 0.000, 0.000, 12:55:50.626
124, -3817.19, -3892.75, -4475.94, -3742.43, 0.000, 0.000, 0.000, 12:55:50.626
125, -3627.75, -3700.31, -4311.77, -3582.68, 0.000, 0.000, 0.000, 12:55:50.640
126, -3152.58, -3215.15, -3908.17, -3138.00, 0.000, 0.000, 0.000, 12:55:50.641
127, -3265.20, -3320.34, -4012.97, -3226.73, 0.000, 0.000, 0.000, 12:55:50.641
128, -3800.45, -3919.32, -4483.54, -3744.60, 0.000, 0.000, 0.000, 12:55:50.641
129, -3620.28, -3706.76, -4310.23, -3564.85, 0.000, 0.000, 0.000, 12:55:50.656
130, -3146.82, -3173.98, -3891.67, -3121.23, 0.000, 0.000, 0.000, 12:55:50.656
131, -3244.79, -3286.21, -3988.90, -3215.42, 0.000, 0.000, 0.000, 12:55:50.656
132, -3787.51, -3939.07, -4477.78, -3739.18, 0.000, 0.000, 0.000, 12:55:50.656
133, -3613.89, -3738.87, -4327.49, -3578.35, 0.000, 0.000, 0.000, 12:55:50.670
134, -3134.07, -3213.06, -3910.91, -3131.63, 0.000, 0.000, 0.000, 12:55:50.670
135, -3244.39, -3288.12, -3991.50, -3226.54, 0.000, 0.000, 0.000, 12:55:50.686
136, -3797.80, -3943.83, -4478.29, -3760.71, 0.000, 0.000, 0.000, 12:55:50.686
137, -3609.61, -3724.88, -4325.37, -3596.37, 0.000, 0.000, 0.000, 12:55:50.686
138, -3147.13, -3248.00, -3921.69, -3138.66, 0.000, 0.000, 0.000, 12:55:50.686
139, -3234.32, -3350.40, -3989.75, -3213.56, 0.000, 0.000, 0.000, 12:55:50.700
140, -3788.02, -3894.36, -4488.40, -3741.50, 0.000, 0.000, 0.000, 12:55:50.700
141, -3612.30, -3787.88, -4327.77, -3593.55, 0.000, 0.000, 0.000, 12:55:50.715
142, -3134.97, -3226.85, -3919.65, -3132.16, 0.000, 0.000, 0.000, 12:55:50.715
143, -3206.02, -3297.96, -3963.43, -3205.76, 0.000, 0.000, 0.000, 12:55:50.716
144, -3765.16, -3911.24, -4453.89, -3729.32, 0.000, 0.000, 0.000, 12:55:50.716
145, -3579.29, -3712.10, -4307.95, -3569.64, 0.000, 0.000, 0.000, 12:55:50.730
146, -3118.19, -3155.35, -3901.02, -3137.43, 0.000, 0.000, 0.000, 12:55:50.730
147, -3212.70, -3329.02, -3980.77, -3207.14, 0.000, 0.000, 0.000, 12:55:50.745
148, -3770.40, -3957.15, -4462.66, -3726.30, 0.000, 0.000, 0.000, 12:55:50.745
149, -3593.46, -3771.73, -4320.05, -3597.96, 0.000, 0.000, 0.000, 12:55:50.745
150, -3122.38, -3229.56, -3909.09, -3158.25, 0.000, 0.000, 0.000, 12:55:50.745
151, -3218.42, -3343.68, -3989.73, -3204.43, 0.000, 0.000, 0.000, 12:55:50.767
152, -3761.40, -3906.78, -4469.03, -3724.75, 0.000, 0.000, 0.000, 12:55:50.767
153, -3581.29, -3732.46, -4323.32, -3592.86, 0.000, 0.000, 0.000, 12:55:50.775
154, -3114.63, -3288.34, -3921.96, -3150.94, 0.000, 0.000, 0.000, 12:55:50.775
155, -3202.38, -3336.48, -3982.92, -3212.92, 0.000, 0.000, 0.000, 12:55:50.776
156, -3739.47, -3908.65, -4431.48, -3732.11, 0.000, 0.000, 0.000, 12:55:50.776
157, -3588.42, -3751.56, -4327.96, -3579.42, 0.000, 0.000, 0.000, 12:55:50.791
158, -3125.64, -3268.67, -3916.36, -3157.49, 0.000, 0.000, 0.000, 12:55:50.791
159, -3180.13, -3306.49, -3970.89, -3209.18, 0.000, 0.000, 0.000, 12:55:50.805
160, -3756.60, -3940.59, -4465.80, -3731.34, 0.000, 0.000, 0.000, 12:55:50.806
161, -3571.03, -3760.66, -4331.07, -3578.39, 0.000, 0.000, 0.000, 12:55:50.807
162, -3104.08, -3243.76, -3902.50, -3143.97, 0.000, 0.000, 0.000, 12:55:50.807
163, -3172.22, -3316.74, -3972.19, -3199.93, 0.000, 0.000, 0.000, 12:55:50.821
164, -3732.97, -3911.20, -4468.18, -3720.66, 0.000, 0.000, 0.000, 12:55:50.821
165, -3574.48, -3758.96, -4313.86, -3574.00, 0.000, 0.000, 0.000, 12:55:50.836
166, -3109.59, -3228.82, -3908.44, -3139.51, 0.000, 0.000, 0.000, 12:55:50.836
167, -3184.18, -3336.15, -3997.26, -3212.04, 0.000, 0.000, 0.000, 12:55:50.836
168, -3747.62, -3963.42, -4471.72, -3727.41, 0.000, 0.000, 0.000, 12:55:50.836
169, -3587.92, -3726.39, -4337.29, -3584.28, 0.000, 0.000, 0.000, 12:55:50.850
170, -3117.12, -3238.32, -3911.57, -3161.23, 0.000, 0.000, 0.000, 12:55:50.850
171, -3180.95, -3348.93, -3996.26, -3202.24, 0.000, 0.000, 0.000, 12:55:50.865
172, -3741.16, -3903.17, -4475.67, -3723.64, 0.000, 0.000, 0.000, 12:55:50.865
173, -3582.94, -3766.48, -4339.75, -3580.25, 0.000, 0.000, 0.000, 12:55:50.866
174, -3115.45, -3259.56, -3919.33, -3147.95, 0.000, 0.000, 0.000, 12:55:50.866
175, -3179.65, -3334.97, -3980.70, -3196.13, 0.000, 0.000, 0.000, 12:55:50.880
176, -3757.55, -3944.30, -4476.73, -3732.59, 0.000, 0.000, 0.000, 12:55:50.880
177, -3570.51, -3775.23, -4325.39, -3604.08, 0.000, 0.000, 0.000, 12:55:50.895
178, -3100.74, -3218.09, -3907.73, -3143.15, 0.000, 0.000, 0.000, 12:55:50.895
179, -3165.62, -3339.59, -3974.07, -3182.87, 0.000, 0.000, 0.000, 12:55:50.895
180, -3735.34, -3957.90, -4463.86, -3729.37, 0.000, 0.000, 0.000, 12:55:50.895
181, -3567.84, -3753.46, -4332.15, -3601.97, 0.000, 0.000, 0.000, 12:55:50.925
182, -3117.62, -3281.91, -3919.50, -3127.68, 0.000, 0.000, 0.000, 12:55:50.925
183, -3161.89, -3304.87, -3974.00, -3177.52, 0.000, 0.000, 0.000, 12:55:50.925
184, -3728.88, -3933.01, -4458.34, -3710.58, 0.000, 0.000, 0.000, 12:55:50.925
185, -3571.30, -3778.79, -4335.06, -3599.12, 0.000, 0.000, 0.000, 12:55:50.926
186, -3114.57, -3220.65, -3937.94, -3161.93, 0.000, 0.000, 0.000, 12:55:50.926
187, -3162.23, -3314.83, -3973.80, -3188.26, 0.000, 0.000, 0.000, 12:55:50.940
188, -3718.71, -3931.36, -4465.05, -3716.37, 0.000, 0.000, 0.000, 12:55:50.941
189, -3585.14, -3782.86, -4349.66, -3597.70, 0.000, 0.000, 0.000, 12:55:50.955
190, -3125.03, -3271.11, -3944.26, -3155.65, 0.000, 0.000, 0.000, 12:55:50.955
191, -3166.09, -3315.58, -3973.97, -3181.88, 0.000, 0.000, 0.000, 12:55:50.956
192, -3734.40, -3946.14, -4469.99, -3720.70, 0.000, 0.000, 0.000, 12:55:50.956
193, -3570.56, -3773.62, -4331.06, -3597.32, 0.000, 0.000, 0.000, 12:55:50.971
194, -3110.41, -3231.30, -3944.22, -3164.38, 0.000, 0.000, 0.000, 12:55:50.971
195, -3154.27, -3298.82, -3966.74, -3184.30, 0.000, 0.000, 0.000, 12:55:50.985
196, -3733.60, -3944.46, -4478.61, -3719.18, 0.000, 0.000, 0.000, 12:55:50.986
197, -3585.75, -3762.83, -4345.84, -3604.29, 0.000, 0.000, 0.000, 12:55:50.986
198, -3124.23, -3254.38, -3939.61, -3163.46, 0.000, 0.000, 0.000, 12:55:50.986
199, -3161.01, -3304.58, -3975.39, -3174.71, 0.000, 0.000, 0.000, 12:55:51.000
200, -3727.01, -3934.74, -4459.14, -3709.13, 0.000, 0.000, 0.000, 12:55:51.000
0, -3586.29, -3764.56, -4344.79, -3594.52, 0.000, 0.000, 0.000, 12:55:51.000
1, -3118.35, -3207.22, -3937.00, -3156.98, 0.000, 0.000, 0.000, 12:55:51.015
2, -3153.08, -3236.61, -3957.59, -3170.49, 0.000, 0.000, 0.000, 12:55:51.015
3, -3719.78, -3892.53, -4456.92, -3711.70, 0.000, 0.000, 0.000, 12:55:51.030
4, -3570.48, -3721.22, -4338.46, -3593.49, 0.000, 0.000, 0.000, 12:55:51.030
5, -3115.65, -3229.72, -3932.77, -3158.55, 0.000, 0.000, 0.000, 12:55:51.030
6, -3144.79, -3254.90, -3961.80, -3178.02, 0.000, 0.000, 0.000, 12:55:51.031
7, -3724.85, -3876.78, -4455.14, -3706.40, 0.000, 0.000, 0.000, 12:55:51.045
8, -3585.97, -3694.52, -4332.83, -3594.60, 0.000, 0.000, 0.000, 12:55:51.045
9, -3128.09, -3248.09, -3931.50, -3171.88, 0.000, 0.000, 0.000, 12:55:51.060
10, -3146.08, -3264.11, -3960.12, -3169.17, 0.000, 0.000, 0.000, 12:55:51.060
11, -3727.01, -3905.91, -4468.50, -3712.64, 0.000, 0.000, 0.000, 12:55:51.061
12, -3573.69, -3701.16, -4339.89, -3594.37, 0.000, 0.000, 0.000, 12:55:51.061
13, -3122.19, -3227.27, -3935.37, -3168.78, 0.000, 0.000, 0.000, 12:55:51.075
14, -3134.01, -3226.05, -3948.71, -3157.38, 0.000, 0.000, 0.000, 12:55:51.075
15, -3714.98, -3849.97, -4457.35, -3694.54, 0.000, 0.000, 0.000, 12:55:51.090
16, -3584.37, -3722.83, -4331.06, -3596.72, 0.000, 0.000, 0.000, 12:55:51.090
17, -3127.18, -3230.96, -3942.84, -3164.90, 0.000, 0.000, 0.000, 12:55:51.090
18, -3137.47, -3226.15, -3959.49, -3171.35, 0.000, 0.000, 0.000, 12:55:51.090
19, -3715.35, -3916.61, -4442.20, -3711.76, 0.000, 0.000, 0.000, 12:55:51.121
20, -3577.86, -3803.21, -4332.30, -3598.19, 0.000, 0.000, 0.000, 12:55:51.121
21, -3116.76, -3180.68, -3937.49, -3170.20, 0.000, 0.000, 0.000, 12:55:51.121
22, -3134.63, -3229.28, -3945.69, -3164.87, 0.000, 0.000, 0.000, 12:55:51.121
23, -3699.88, -3872.78, -4441.30, -3707.43, 0.000, 0.000, 0.000, 12:55:51.121
24, -3575.36, -3755.81, -4334.72, -3594.26, 0.000, 0.000, 0.000, 12:55:51.121
25, -3118.35, -3213.43, -3937.87, -3172.61, 0.000, 0.000, 0.000, 12:55:51.135
26, -3134.47, -3253.07, -3946.26, -3155.61, 0.000, 0.000, 0.000, 12:55:51.135
27, -3711.77, -3860.58, -4450.37, -3705.89, 0.000, 0.000, 0.000, 12:55:51.150
28, -3584.67, -3697.92, -4345.61, -3599.43, 0.000, 0.000, 0.000, 12:55:51.151
29, -3131.81, -3263.83, -3951.34, -3185.32, 0.000, 0.000, 0.000, 12:55:51.157
30, -3135.45, -3254.11, -3941.18, -3167.52, 0.000, 0.000, 0.000, 12:55:51.157
31, -3710.19, -3855.42, -4443.89, -3708.57, 0.000, 0.000, 0.000, 12:55:51.165
32, -3589.67, -3708.03, -4339.70, -3617.91, 0.000, 0.000, 0.000, 12:55:51.165
33, -3135.97, -3238.57, -3951.82, -3171.07, 0.000, 0.000, 0.000, 12:55:51.195
34, -3130.86, -3258.32, -3956.38, -3162.67, 0.000, 0.000, 0.000, 12:55:51.195
35, -3711.15, -3859.43, -4456.87, -3709.29, 0.000, 0.000, 0.000, 12:55:51.196
36, -3577.01, -3697.14, -4341.90, -3593.07, 0.000, 0.000, 0.000, 12:55:51.196
37, -3145.13, -3239.06, -3950.51, -3183.11, 0.000, 0.000, 0.000, 12:55:51.196
38, -3126.01, -3234.60, -3936.76, -3152.38, 0.000, 0.000, 0.000, 12:55:51.197
39, -3712.18, -3879.79, -4453.47, -3711.98, 0.000, 0.000, 0.000, 12:55:51.210
40, -3588.45, -3741.07, -4350.75, -3603.89, 0.000, 0.000, 0.000, 12:55:51.210
41, -3126.35, -3265.02, -3938.58, -3172.58, 0.000, 0.000, 0.000, 12:55:51.211
42, -3115.83, -3210.72, -3935.49, -3133.55, 0.000, 0.000, 0.000, 12:55:51.211
43, -3704.99, -3849.28, -4445.83, -3690.76, 0.000, 0.000, 0.000, 12:55:51.225
44, -3585.57, -3719.32, -4356.53, -3606.79, 0.000, 0.000, 0.000, 12:55:51.225
45, -3132.53, -3259.39, -3958.21, -3173.45, 0.000, 0.000, 0.000, 12:55:51.240
46, -3112.83, -3216.61, -3928.64, -3159.96, 0.000, 0.000, 0.000, 12:55:51.240
47, -3711.87, -3903.86, -4455.98, -3705.13, 0.000, 0.000, 0.000, 12:55:51.240
48, -3587.15, -3737.05, -4346.33, -3608.35, 0.000, 0.000, 0.000, 12:55:51.240
49, -3132.98, -3243.47, -3948.58, -3169.76, 0.000, 0.000, 0.000, 12:55:51.255
50, -3124.22, -3218.78, -3934.43, -3139.69, 0.000, 0.000, 0.000, 12:55:51.255
51, -3682.39, -3860.95, -4427.34, -3687.42, 0.000, 0.000, 0.000, 12:55:51.271
52, -3564.75, -3735.00, -4330.62, -3585.66, 0.000, 0.000, 0.000, 12:55:51.271
53, -3104.93, -3175.26, -3930.61, -3159.91, 0.000, 0.000, 0.000, 12:55:51.272
54, -3091.00, -3243.35, -3932.74, -3125.15, 0.000, 0.000, 0.000, 12:55:51.272
55, -3691.76, -3839.04, -4446.81, -3680.01, 0.000, 0.000, 0.000, 12:55:51.286
56, -3588.78, -3754.54, -4345.36, -3611.27, 0.000, 0.000, 0.000, 12:55:51.286
57, -3133.37, -3193.38, -3955.24, -3187.02, 0.000, 0.000, 0.000, 12:55:51.300
58, -3120.76, -3194.06, -3931.36, -3129.57, 0.000, 0.000, 0.000, 12:55:51.300
59, -3717.66, -3909.03, -4458.05, -3707.00, 0.000, 0.000, 0.000, 12:55:51.301
60, -3625.40, -3765.03, -4377.24, -3623.80, 0.000, 0.000, 0.000, 12:55:51.301
61, -3143.79, -3245.19, -3956.40, -3196.31, 0.000, 0.000, 0.000, 12:55:51.315
62, -3128.32, -3215.00, -3935.71, -3145.47, 0.000, 0.000, 0.000, 12:55:51.315
63, -3697.80, -3861.39, -4427.79, -3687.02, 0.000, 0.000, 0.000, 12:55:51.330
64, -3602.51, -3733.25, -4360.63, -3608.14, 0.000, 0.000, 0.000, 12:55:51.330
65, -3156.29, -3264.67, -3956.27, -3194.88, 0.000, 0.000, 0.000, 12:55:51.330
66, -3115.06, -3197.23, -3925.86, -3142.19, 0.000, 0.000, 0.000, 12:55:51.330
67, -3710.98, -3897.29, -4445.11, -3696.17, 0.000, 0.000, 0.000, 12:55:51.344
68, -3603.99, -3763.61, -4345.92, -3617.02, 0.000, 0.000, 0.000, 12:55:51.345
69, -3146.89, -3227.22, -3954.02, -3182.90, 0.000, 0.000, 0.000, 12:55:51.360
70, -3106.74, -3194.14, -3907.91, -3138.30, 0.000, 0.000, 0.000, 12:55:51.360
71, -3676.61, -3844.62, -4422.81, -3684.70, 0.000, 0.000, 0.000, 12:55:51.361
72, -3593.38, -3778.02, -4330.81, -3623.30, 0.000, 0.000, 0.000, 12:55:51.361
73, -3144.06, -3236.28, -3960.13, -3191.50, 0.000, 0.000, 0.000, 12:55:51.375
74, -3118.17, -3211.67, -3931.51, -3152.83, 0.000, 0.000, 0.000, 12:55:51.375
75, -3717.77, -3895.43, -4447.73, -3701.67, 0.000, 0.000, 0.000, 12:55:51.391
76, -3591.37, -3721.98, -4341.11, -3608.75, 0.000, 0.000, 0.000, 12:55:51.391
77, -3137.78, -3242.92, -3947.32, -3197.67, 0.000, 0.000, 0.000, 12:55:51.391
78, -3114.41, -3220.82, -3944.34, -3137.93, 0.000, 0.000, 0.000, 12:55:51.391
79, -3696.29, -3823.87, -4432.00, -3696.23, 0.000, 0.000, 0.000, 12:55:51.405
80, -3617.85, -3783.23, -4373.70, -3628.08, 0.000, 0.000, 0.000, 12:55:51.406
81, -3156.12, -3252.46, -3966.59, -3182.19, 0.000, 0.000, 0.000, 12:55:51.435
82, -3107.87, -3227.64, -3930.36, -3147.89, 0.000, 0.000, 0.000, 12:55:51.435
83, -3702.42, -3875.20, -4446.05, -3692.45, 0.000, 0.000, 0.000, 12:55:51.435
84, -3594.73, -3750.17, -4362.16, -3621.81, 0.000, 0.000, 0.000, 12:55:51.436
85, -3145.57, -3238.20, -3954.79, -3200.62, 0.000, 0.000, 0.000, 12:55:51.436
86, -3102.43, -3223.06, -3914.86, -3137.98, 0.000, 0.000, 0.000, 12:55:51.436
87, -3703.91, -3880.48, -4440.34, -3693.41, 0.000, 0.000, 0.000, 12:55:51.436
88, -3616.26, -3767.15, -4364.46, -3623.74, 0.000, 0.000, 0.000, 12:55:51.436
89, -3154.61, -3289.36, -3964.03, -3189.41, 0.000, 0.000, 0.000, 12:55:51.450
90, -3110.36, -3211.85, -3927.04, -3130.49, 0.000, 0.000, 0.000, 12:55:51.450
91, -3699.33, -3868.63, -4442.28, -3702.41, 0.000, 0.000, 0.000, 12:55:51.465
92, -3610.39, -3781.31, -4369.56, -3630.81, 0.000, 0.000, 0.000, 12:55:51.465
93, -3162.00, -3239.10, -3961.28, -3200.02, 0.000, 0.000, 0.000, 12:55:51.480
94, -3106.94, -3197.43, -3920.08, -3133.31, 0.000, 0.000, 0.000, 12:55:51.480
95, -3696.74, -3880.42, -4434.67, -3675.51, 0.000, 0.000, 0.000, 12:55:51.481
96, -3602.62, -3767.71, -4363.93, -3615.22, 0.000, 0.000, 0.000, 12:55:51.481
97, -3169.51, -3258.17, -3986.53, -3213.73, 0.000, 0.000, 0.000, 12:55:51.494
98, -3084.88, -3166.41, -3902.57, -3096.62, 0.000, 0.000, 0.000, 12:55:51.494
99, -3703.21, -3858.89, -4449.32, -3688.09, 0.000, 0.000, 0.000, 12:55:51.510
100, -3626.08, -3783.01, -4373.95, -3640.41, 0.000, 0.000, 0.000, 12:55:51.510
101, -3136.77, -3232.30, -3940.68, -3174.83, 0.000, 0.000, 0.000, 12:55:51.518
102, -3095.71, -3205.59, -3918.06, -3145.53, 0.000, 0.000, 0.000, 12:55:51.518
103, -3678.75, -3851.56, -4423.18, -3669.76, 0.000, 0.000, 0.000, 12:55:51.525
104, -3622.32, -3818.62, -4391.56, -3642.67, 0.000, 0.000, 0.000, 12:55:51.525
105, -3153.65, -3249.81, -3974.00, -3195.53, 0.000, 0.000, 0.000, 12:55:51.540
106, -3074.87, -3210.24, -3890.43, -3108.27, 0.000, 0.000, 0.000, 12:55:51.540
107, -3667.16, -3830.85, -4407.12, -3676.32, 0.000, 0.000, 0.000, 12:55:51.541
108, -3606.18, -3777.02, -4361.30, -3641.59, 0.000, 0.000, 0.000, 12:55:51.541
