%OpenBCI Raw EEG Data
%
%Sample Rate = 200.0 Hz
%First Column = SampleIndex
%Last Column = Timestamp 
%Other Columns = EEG data in microvolts followed by Accel Data (in G) interleaved with Aux Data
0, -3821.95, -4102.53, -4701.59, -3990.70, 0.000, 0.000, 0.000, 13:01:11.480
1, -3447.30, -3694.30, -4354.29, -3643.47, 0.000, 0.000, 0.000, 13:01:11.481
2, -2997.77, -3210.48, -3945.98, -3183.93, 0.000, 0.000, 0.000, 13:01:11.481
3, -3470.35, -3705.52, -4384.61, -3641.25, 0.000, 0.000, 0.000, 13:01:11.482
4, -3804.82, -4065.51, -4684.19, -3976.50, 0.000, 0.000, 0.000, 13:01:11.482
5, -3431.20, -3650.91, -4336.08, -3619.22, 0.000, 0.000, 0.000, 13:01:11.584
6, -2980.29, -3172.15, -3930.67, -3173.20, 0.000, 0.000, 0.000, 13:01:11.585
7, -3440.46, -3695.15, -4362.27, -3623.29, 0.000, 0.000, 0.000, 13:01:11.585
8, -3780.70, -4026.08, -4661.82, -3959.70, 0.000, 0.000, 0.000, 13:01:11.585
9, -3404.74, -3655.66, -4304.97, -3598.40, 0.000, 0.000, 0.000, 13:01:11.629
10, -2954.66, -3158.05, -3907.18, -3148.29, 0.000, 0.000, 0.000, 13:01:11.629
11, -3419.81, -3682.65, -4328.21, -3605.03, 0.000, 0.000, 0.000, 13:01:11.630
12, -3762.20, -3977.94, -4640.31, -3945.39, 0.000, 0.000, 0.000, 13:01:11.630
37, -3403.80, -3620.40, -4309.98, -3577.72, 0.000, 0.000, 0.000, 13:01:11.630
38, -2938.34, -3123.96, -3892.82, -3135.44, 0.000, 0.000, 0.000, 13:01:11.631
39, -3384.55, -3614.84, -4314.27, -3561.24, 0.000, 0.000, 0.000, 13:01:11.631
40, -3747.74, -4016.07, -4657.72, -3937.65, 0.000, 0.000, 0.000, 13:01:11.631
41, -3387.93, -3632.38, -4321.77, -3586.74, 0.000, 0.000, 0.000, 13:01:11.632
42, -2935.89, -3107.48, -3906.35, -3133.72, 0.000, 0.000, 0.000, 13:01:11.632
59, -3339.20, -3526.30, -4275.59, -3522.61, 0.000, 0.000, 0.000, 13:01:11.633
60, -3724.20, -3970.18, -4629.33, -3941.68, 0.000, 0.000, 0.000, 13:01:11.633
61, -3396.38, -3605.66, -4308.34, -3614.22, 0.000, 0.000, 0.000, 13:01:11.634
62, -2928.91, -3103.81, -3884.97, -3168.76, 0.000, 0.000, 0.000, 13:01:11.634
67, -3344.51, -3518.01, -4269.70, -3575.53, 0.000, 0.000, 0.000, 13:01:11.674
68, -3776.73, -3949.15, -4640.31, -3980.89, 0.000, 0.000, 0.000, 13:01:11.674
69, -3408.73, -3579.79, -4318.11, -3640.68, 0.000, 0.000, 0.000, 13:01:11.675
70, -2956.55, -3062.12, -3888.58, -3186.70, 0.000, 0.000, 0.000, 13:01:11.675
71, -3354.28, -3518.17, -4266.55, -3585.96, 0.000, 0.000, 0.000, 13:01:11.677
72, -3762.77, -3950.92, -4634.64, -3982.63, 0.000, 0.000, 0.000, 13:01:11.677
73, -3419.15, -3574.07, -4317.06, -3643.76, 0.000, 0.000, 0.000, 13:01:11.677
74, -2966.86, -3036.40, -3901.60, -3175.48, 0.000, 0.000, 0.000, 13:01:11.677
75, -3368.83, -3517.25, -4276.04, -3573.02, 0.000, 0.000, 0.000, 13:01:11.677
76, -3786.77, -3960.33, -4652.27, -3975.03, 0.000, 0.000, 0.000, 13:01:11.677
77, -3435.38, -3575.94, -4337.57, -3628.44, 0.000, 0.000, 0.000, 13:01:11.704
78, -2964.19, -3075.01, -3913.23, -3169.48, 0.000, 0.000, 0.000, 13:01:11.704
79, -3349.42, -3511.51, -4285.93, -3543.79, 0.000, 0.000, 0.000, 13:01:11.705
80, -3790.53, -3973.32, -4676.84, -3970.28, 0.000, 0.000, 0.000, 13:01:11.705
81, -3442.03, -3587.77, -4366.82, -3624.71, 0.000, 0.000, 0.000, 13:01:11.719
82, -2981.20, -3106.06, -3941.82, -3168.14, 0.000, 0.000, 0.000, 13:01:11.719
83, -3363.46, -3511.64, -4316.83, -3542.44, 0.000, 0.000, 0.000, 13:01:11.719
84, -3801.72, -3960.19, -4704.36, -3958.36, 0.000, 0.000, 0.000, 13:01:11.720
85, -3473.34, -3598.83, -4379.42, -3617.11, 0.000, 0.000, 0.000, 13:01:11.749
86, -2978.98, -3097.70, -3956.37, -3156.63, 0.000, 0.000, 0.000, 13:01:11.750
87, -3345.32, -3540.66, -4315.73, -3535.36, 0.000, 0.000, 0.000, 13:01:11.750
88, -3776.78, -3984.99, -4706.40, -3942.00, 0.000, 0.000, 0.000, 13:01:11.750
89, -3435.71, -3581.31, -4392.02, -3611.45, 0.000, 0.000, 0.000, 13:01:11.751
90, -2980.52, -3109.07, -3967.64, -3153.58, 0.000, 0.000, 0.000, 13:01:11.751
91, -3353.36, -3529.75, -4318.74, -3518.42, 0.000, 0.000, 0.000, 13:01:11.764
92, -3784.41, -3950.45, -4705.63, -3943.53, 0.000, 0.000, 0.000, 13:01:11.764
93, -3444.86, -3660.17, -4393.83, -3614.33, 0.000, 0.000, 0.000, 13:01:11.914
94, -2994.71, -3129.96, -3968.60, -3145.78, 0.000, 0.000, 0.000, 13:01:11.914
95, -3362.24, -3544.45, -4319.86, -3516.03, 0.000, 0.000, 0.000, 13:01:11.915
96, -3805.92, -3995.81, -4713.90, -3938.97, 0.000, 0.000, 0.000, 13:01:11.915
97, -3441.35, -3638.77, -4401.81, -3621.49, 0.000, 0.000, 0.000, 13:01:11.929
98, -2972.75, -3146.80, -3974.92, -3143.89, 0.000, 0.000, 0.000, 13:01:11.929
99, -3345.57, -3488.02, -4323.03, -3501.70, 0.000, 0.000, 0.000, 13:01:11.959
100, -3781.36, -3971.64, -4712.37, -3940.77, 0.000, 0.000, 0.000, 13:01:11.959
101, -3443.34, -3568.88, -4400.04, -3614.86, 0.000, 0.000, 0.000, 13:01:12.139
102, -2983.99, -3118.29, -3980.61, -3149.88, 0.000, 0.000, 0.000, 13:01:12.139
103, -3334.00, -3511.90, -4316.78, -3497.98, 0.000, 0.000, 0.000, 13:01:12.139
104, -3782.85, -4007.86, -4719.39, -3937.27, 0.000, 0.000, 0.000, 13:01:12.139
105, -3439.14, -3591.73, -4406.24, -3613.45, 0.000, 0.000, 0.000, 13:01:12.140
106, -2963.09, -3105.38, -3977.30, -3144.87, 0.000, 0.000, 0.000, 13:01:12.140
125, -2625.44, -2720.86, -3676.73, -2830.32, 0.000, 0.000, 0.000, 13:01:12.141
126, -2150.99, -2237.04, -3243.68, -2354.56, 0.000, 0.000, 0.000, 13:01:12.141
127, -2493.89, -2589.34, -3569.53, -2680.02, 0.000, 0.000, 0.000, 13:01:12.142
128, -2944.97, -3093.63, -3994.58, -3143.48, 0.000, 0.000, 0.000, 13:01:12.142
129, -2597.46, -2749.26, -3685.84, -2831.67, 0.000, 0.000, 0.000, 13:01:12.185
130, -2130.71, -2219.34, -3252.36, -2350.04, 0.000, 0.000, 0.000, 13:01:12.185
135, -2479.99, -2566.71, -3562.92, -2673.20, 0.000, 0.000, 0.000, 13:01:12.186
136, -2946.93, -3088.97, -3981.10, -3132.21, 0.000, 0.000, 0.000, 13:01:12.186
169, -2624.07, -2760.65, -3694.12, -2818.25, 0.000, 0.000, 0.000, 13:01:12.199
170, -2141.47, -2220.79, -3252.59, -2348.08, 0.000, 0.000, 0.000, 13:01:12.199
171, -2428.31, -2540.63, -3520.20, -2637.07, 0.000, 0.000, 0.000, 13:01:12.199
172, -2934.71, -3105.77, -3971.42, -3136.96, 0.000, 0.000, 0.000, 13:01:12.199
173, -2633.10, -2721.10, -3696.63, -2830.44, 0.000, 0.000, 0.000, 13:01:12.229
174, -2146.64, -2228.09, -3235.32, -2358.85, 0.000, 0.000, 0.000, 13:01:12.229
175, -2416.48, -2555.98, -3487.91, -2632.85, 0.000, 0.000, 0.000, 13:01:12.229
176, -2911.69, -3098.77, -3963.55, -3142.33, 0.000, 0.000, 0.000, 13:01:12.230
177, -2585.31, -2790.41, -3664.35, -2840.53, 0.000, 0.000, 0.000, 13:01:12.230
178, -2090.91, -2275.86, -3220.51, -2353.96, 0.000, 0.000, 0.000, 13:01:12.230
179, -2360.54, -2568.90, -3491.13, -2621.85, 0.000, 0.000, 0.000, 13:01:12.231
180, -2868.67, -3151.28, -3949.01, -3136.29, 0.000, 0.000, 0.000, 13:01:12.231
181, -2588.41, -2810.71, -3655.36, -2834.81, 0.000, 0.000, 0.000, 13:01:12.232
182, -2106.16, -2287.33, -3231.89, -2364.49, 0.000, 0.000, 0.000, 13:01:12.232
183, -2329.10, -2576.98, -3477.75, -2622.64, 0.000, 0.000, 0.000, 13:01:12.232
184, -2878.54, -3116.39, -3945.33, -3126.76, 0.000, 0.000, 0.000, 13:01:12.232
185, -2600.10, -2785.12, -3678.10, -2835.90, 0.000, 0.000, 0.000, 13:01:12.233
186, -2158.29, -2276.95, -3227.51, -2350.64, 0.000, 0.000, 0.000, 13:01:12.233
187, -2423.58, -2568.56, -3492.06, -2620.68, 0.000, 0.000, 0.000, 13:01:12.259
188, -2953.64, -3130.36, -3967.44, -3125.57, 0.000, 0.000, 0.000, 13:01:12.259
189, -2698.26, -2767.55, -3682.74, -2832.33, 0.000, 0.000, 0.000, 13:01:12.260
190, -2218.83, -2248.49, -3245.27, -2348.50, 0.000, 0.000, 0.000, 13:01:12.260
191, -2507.43, -2498.05, -3501.57, -2619.22, 0.000, 0.000, 0.000, 13:01:12.261
192, -3018.79, -3097.52, -3971.07, -3123.10, 0.000, 0.000, 0.000, 13:01:12.261
193, -2742.03, -2753.04, -3696.58, -2841.89, 0.000, 0.000, 0.000, 13:01:12.274
194, -2273.66, -2231.31, -3252.63, -2342.90, 0.000, 0.000, 0.000, 13:01:12.274
195, -2542.35, -2504.36, -3498.55, -2607.16, 0.000, 0.000, 0.000, 13:01:12.304
196, -3083.98, -3077.45, -3974.53, -3121.87, 0.000, 0.000, 0.000, 13:01:12.304
197, -2799.24, -2744.72, -3699.78, -2828.68, 0.000, 0.000, 0.000, 13:01:12.320
198, -2311.82, -2207.62, -3252.71, -2344.79, 0.000, 0.000, 0.000, 13:01:12.320
199, -2575.87, -2480.61, -3491.38, -2601.96, 0.000, 0.000, 0.000, 13:01:12.320
200, -3109.29, -3066.04, -3973.68, -3117.71, 0.000, 0.000, 0.000, 13:01:12.320
0, -3531.50, -3711.84, -4356.87, -3663.42, 0.000, 0.000, 0.000, 13:01:12.320
1, -3057.87, -3176.16, -3902.16, -3186.50, 0.000, 0.000, 0.000, 13:01:12.322
2, -3295.91, -3458.96, -4146.68, -3423.30, 0.000, 0.000, 0.000, 13:01:12.322
3, -3829.74, -4030.62, -4616.36, -3954.10, 0.000, 0.000, 0.000, 13:01:12.322
4, -3541.89, -3717.98, -4353.24, -3674.14, 0.000, 0.000, 0.000, 13:01:12.323
5, -3026.32, -3178.52, -3901.28, -3177.04, 0.000, 0.000, 0.000, 13:01:12.350
6, -3278.72, -3444.11, -4132.90, -3421.94, 0.000, 0.000, 0.000, 13:01:12.350
7, -3818.37, -4021.82, -4618.72, -3954.60, 0.000, 0.000, 0.000, 13:01:12.514
8, -3525.55, -3700.28, -4347.33, -3668.87, 0.000, 0.000, 0.000, 13:01:12.514
9, -3032.92, -3174.74, -3901.07, -3177.92, 0.000, 0.000, 0.000, 13:01:12.515
10, -3269.76, -3455.50, -4126.13, -3409.78, 0.000, 0.000, 0.000, 13:01:12.515
11, -3811.98, -4022.49, -4622.58, -3961.23, 0.000, 0.000, 0.000, 13:01:12.515
12, -3520.05, -3737.80, -4351.50, -3674.86, 0.000, 0.000, 0.000, 13:01:12.515
13, -3016.69, -3177.59, -3896.30, -3188.10, 0.000, 0.000, 0.000, 13:01:12.590
14, -3241.95, -3455.65, -4130.47, -3415.44, 0.000, 0.000, 0.000, 13:01:12.590
15, -3779.86, -4050.14, -4618.84, -3955.36, 0.000, 0.000, 0.000, 13:01:12.590
16, -3503.61, -3699.14, -4355.85, -3669.38, 0.000, 0.000, 0.000, 13:01:12.590
17, -3004.86, -3167.72, -3913.14, -3187.97, 0.000, 0.000, 0.000, 13:01:12.590
18, -3236.13, -3419.18, -4131.94, -3414.21, 0.000, 0.000, 0.000, 13:01:12.590
19, -3799.76, -4010.43, -4628.31, -3957.03, 0.000, 0.000, 0.000, 13:01:12.590
20, -3499.67, -3724.66, -4362.89, -3677.91, 0.000, 0.000, 0.000, 13:01:12.590
43, -4082.26, -4361.84, -4901.09, -4248.57, 0.000, 0.000, 0.000, 13:01:12.591
44, -3820.46, -4054.76, -4645.79, -3975.10, 0.000, 0.000, 0.000, 13:01:12.591
45, -3333.62, -3500.59, -4190.99, -3485.89, 0.000, 0.000, 0.000, 13:01:12.592
46, -3558.98, -3730.17, -4387.62, -3669.60, 0.000, 0.000, 0.000, 13:01:12.592
47, -4112.80, -4336.47, -4912.17, -4234.08, 0.000, 0.000, 0.000, 13:01:12.592
48, -3868.60, -4051.29, -4656.96, -3964.43, 0.000, 0.000, 0.000, 13:01:12.593
59, -4459.18, -4740.40, -5187.74, -4535.90, 0.000, 0.000, 0.000, 13:01:12.695
60, -4193.36, -4412.45, -4946.06, -4274.75, 0.000, 0.000, 0.000, 13:01:12.695
61, -3708.89, -3906.86, -4495.71, -3784.96, 0.000, 0.000, 0.000, 13:01:12.696
62, -3893.87, -4095.16, -4663.44, -3964.95, 0.000, 0.000, 0.000, 13:01:12.696
63, -4470.42, -4725.37, -5191.25, -4529.92, 0.000, 0.000, 0.000, 13:01:12.739
64, -4202.23, -4429.67, -4940.13, -4275.43, 0.000, 0.000, 0.000, 13:01:12.739
65, -3712.16, -3876.55, -4491.50, -3782.67, 0.000, 0.000, 0.000, 13:01:12.741
66, -3888.07, -4066.36, -4664.87, -3960.08, 0.000, 0.000, 0.000, 13:01:12.741
67, -4466.73, -4723.32, -5194.01, -4537.52, 0.000, 0.000, 0.000, 13:01:12.741
68, -4201.01, -4432.17, -4949.79, -4294.70, 0.000, 0.000, 0.000, 13:01:12.741
69, -3708.72, -3894.11, -4494.79, -3799.49, 0.000, 0.000, 0.000, 13:01:12.742
70, -3886.22, -4097.29, -4666.63, -3960.74, 0.000, 0.000, 0.000, 13:01:12.742
71, -4447.44, -4737.92, -5185.19, -4526.76, 0.000, 0.000, 0.000, 13:01:12.742
72, -4196.45, -4446.04, -4949.58, -4282.40, 0.000, 0.000, 0.000, 13:01:12.742
79, -4790.48, -5085.13, -5490.09, -4864.13, 0.000, 0.000, 0.000, 13:01:12.743
80, -4541.63, -4828.75, -5257.67, -4614.30, 0.000, 0.000, 0.000, 13:01:12.743
81, -4033.03, -4277.76, -4800.03, -4121.91, 0.000, 0.000, 0.000, 13:01:12.744
82, -4187.46, -4460.71, -4956.42, -4270.68, 0.000, 0.000, 0.000, 13:01:12.744
89, -3685.48, -3953.79, -4500.08, -3774.98, 0.000, 0.000, 0.000, 13:01:12.785
90, -3836.78, -4102.61, -4650.20, -3913.19, 0.000, 0.000, 0.000, 13:01:12.785
91, -4429.34, -4748.87, -5193.85, -4505.23, 0.000, 0.000, 0.000, 13:01:12.785
92, -4174.62, -4470.67, -4957.27, -4256.86, 0.000, 0.000, 0.000, 13:01:12.785
93, -3687.78, -3934.81, -4512.75, -3768.78, 0.000, 0.000, 0.000, 13:01:12.786
94, -3820.11, -4075.21, -4652.21, -3901.49, 0.000, 0.000, 0.000, 13:01:12.786
95, -4423.24, -4747.38, -5203.07, -4495.18, 0.000, 0.000, 0.000, 13:01:12.786
96, -4181.51, -4482.03, -4976.71, -4259.75, 0.000, 0.000, 0.000, 13:01:12.786
97, -3683.00, -3928.40, -4520.23, -3772.24, 0.000, 0.000, 0.000, 13:01:12.814
98, -3823.63, -4076.04, -4659.26, -3911.71, 0.000, 0.000, 0.000, 13:01:12.814
99, -4419.26, -4720.29, -5202.44, -4500.06, 0.000, 0.000, 0.000, 13:01:12.814
100, -4188.26, -4472.37, -4985.15, -4267.98, 0.000, 0.000, 0.000, 13:01:12.814
101, -3677.64, -3929.81, -4521.97, -3771.53, 0.000, 0.000, 0.000, 13:01:12.815
102, -3810.51, -4071.32, -4652.08, -3909.14, 0.000, 0.000, 0.000, 13:01:12.815
103, -4426.79, -4721.74, -5207.95, -4505.95, 0.000, 0.000, 0.000, 13:01:12.829
104, -4184.79, -4485.40, -4986.57, -4281.36, 0.000, 0.000, 0.000, 13:01:12.829
105, -3681.18, -3939.28, -4522.80, -3778.49, 0.000, 0.000, 0.000, 13:01:12.859
106, -3802.78, -4075.87, -4651.70, -3896.03, 0.000, 0.000, 0.000, 13:01:12.859
107, -4412.76, -4722.21, -5200.71, -4499.59, 0.000, 0.000, 0.000, 13:01:12.859
108, -4174.18, -4465.45, -4977.53, -4263.94, 0.000, 0.000, 0.000, 13:01:12.859
109, -3693.70, -3929.71, -4530.51, -3788.21, 0.000, 0.000, 0.000, 13:01:12.860
110, -3807.70, -4084.27, -4645.41, -3898.75, 0.000, 0.000, 0.000, 13:01:12.860
111, -4425.92, -4728.98, -5208.08, -4507.51, 0.000, 0.000, 0.000, 13:01:12.860
112, -4187.87, -4479.15, -4980.74, -4275.52, 0.000, 0.000, 0.000, 13:01:12.860
113, -3682.13, -3947.52, -4527.23, -3790.99, 0.000, 0.000, 0.000, 13:01:12.874
114, -3808.03, -4095.65, -4656.56, -3903.89, 0.000, 0.000, 0.000, 13:01:12.874
115, -4423.25, -4729.06, -5203.42, -4506.23, 0.000, 0.000, 0.000, 13:01:12.905
116, -4191.59, -4487.05, -4984.96, -4291.84, 0.000, 0.000, 0.000, 13:01:12.905
117, -3684.26, -3975.79, -4528.49, -3792.76, 0.000, 0.000, 0.000, 13:01:13.114
118, -3799.39, -4045.88, -4643.61, -3906.03, 0.000, 0.000, 0.000, 13:01:13.114
119, -4411.41, -4747.15, -5195.71, -4514.50, 0.000, 0.000, 0.000, 13:01:13.114
120, -4201.58, -4535.17, -5002.33, -4297.18, 0.000, 0.000, 0.000, 13:01:13.115
121, -3689.64, -3921.17, -4528.41, -3791.25, 0.000, 0.000, 0.000, 13:01:13.116
122, -3791.15, -4072.91, -4638.09, -3889.72, 0.000, 0.000, 0.000, 13:01:13.116
123, -4398.52, -4760.03, -5205.29, -4499.17, 0.000, 0.000, 0.000, 13:01:13.116
124, -4164.05, -4513.64, -4985.17, -4265.43, 0.000, 0.000, 0.000, 13:01:13.116
125, -3668.12, -3952.90, -4524.75, -3790.06, 0.000, 0.000, 0.000, 13:01:13.117
126, -3775.96, -4077.82, -4634.75, -3888.91, 0.000, 0.000, 0.000, 13:01:13.117
127, -4396.95, -4751.14, -5202.65, -4507.04, 0.000, 0.000, 0.000, 13:01:13.118
128, -4167.79, -4519.30, -4992.37, -4284.40, 0.000, 0.000, 0.000, 13:01:13.118
129, -3682.17, -3967.39, -4537.02, -3802.47, 0.000, 0.000, 0.000, 13:01:13.295
130, -3784.75, -4065.96, -4642.34, -3896.19, 0.000, 0.000, 0.000, 13:01:13.295
163, -4420.98, -4742.33, -5230.04, -4510.17, 0.000, 0.000, 0.000, 13:01:13.296
164, -4213.16, -4570.23, -5034.57, -4313.73, 0.000, 0.000, 0.000, 13:01:13.296
165, -3726.51, -4026.04, -4588.70, -3812.53, 0.000, 0.000, 0.000, 13:01:13.340
166, -3822.81, -4041.18, -4661.65, -3891.71, 0.000, 0.000, 0.000, 13:01:13.340
167, -4487.11, -4768.22, -5236.26, -4519.19, 0.000, 0.000, 0.000, 13:01:13.340
168, -4277.59, -4523.54, -5050.20, -4318.77, 0.000, 0.000, 0.000, 13:01:13.340
169, -3796.95, -3985.41, -4592.89, -3836.40, 0.000, 0.000, 0.000, 13:01:13.341
170, -3866.22, -4027.18, -4656.49, -3894.80, 0.000, 0.000, 0.000, 13:01:13.341
171, -4537.96, -4689.09, -5239.50, -4525.15, 0.000, 0.000, 0.000, 13:01:13.342
172, -4372.68, -4493.93, -5057.01, -4338.98, 0.000, 0.000, 0.000, 13:01:13.342
173, -3933.12, -3969.13, -4597.30, -3842.73, 0.000, 0.000, 0.000, 13:01:13.342
174, -3919.84, -3994.20, -4658.86, -3890.09, 0.000, 0.000, 0.000, 13:01:13.343
199, -4575.16, -4752.20, -5248.87, -4522.56, 0.000, 0.000, 0.000, 13:01:13.343
200, -4380.74, -4539.08, -5073.05, -4344.64, 0.000, 0.000, 0.000, 13:01:13.344
0, -3095.55, -3252.12, -4007.94, -3261.22, 0.000, 0.000, 0.000, 13:01:13.344
7, -2910.62, -3055.95, -3834.84, -3090.96, 0.000, 0.000, 0.000, 13:01:13.355
8, -2416.53, -2494.32, -3382.91, -2594.25, 0.000, 0.000, 0.000, 13:01:13.355
9, -2427.86, -2496.09, -3402.58, -2609.56, 0.000, 0.000, 0.000, 13:01:13.369
10, -3086.05, -3212.57, -3999.13, -3268.23, 0.000, 0.000, 0.000, 13:01:13.369
11, -2925.26, -3013.16, -3840.50, -3099.93, 0.000, 0.000, 0.000, 13:01:13.370
12, -2408.27, -2530.73, -3378.43, -2599.73, 0.000, 0.000, 0.000, 13:01:13.370
13, -2418.03, -2566.01, -3407.09, -2611.53, 0.000, 0.000, 0.000, 13:01:13.385
14, -3060.96, -3154.80, -3998.16, -3250.98, 0.000, 0.000, 0.000, 13:01:13.385
15, -2897.72, -2971.78, -3830.67, -3092.06, 0.000, 0.000, 0.000, 13:01:13.414
16, -2403.84, -2498.34, -3375.38, -2603.90, 0.000, 0.000, 0.000, 13:01:13.414
17, -2413.81, -2521.72, -3397.81, -2602.88, 0.000, 0.000, 0.000, 13:01:13.414
18, -3068.10, -3235.79, -3999.46, -3258.43, 0.000, 0.000, 0.000, 13:01:13.414
19, -2896.37, -3021.93, -3841.41, -3095.73, 0.000, 0.000, 0.000, 13:01:13.416
20, -2413.01, -2497.97, -3378.50, -2606.24, 0.000, 0.000, 0.000, 13:01:13.416
21, -2413.25, -2513.04, -3393.78, -2609.36, 0.000, 0.000, 0.000, 13:01:13.416
22, -3074.30, -3243.72, -4004.17, -3261.09, 0.000, 0.000, 0.000, 13:01:13.416
23, -2901.40, -3037.80, -3839.59, -3096.17, 0.000, 0.000, 0.000, 13:01:13.429
24, -2407.21, -2526.09, -3385.77, -2605.06, 0.000, 0.000, 0.000, 13:01:13.429
25, -2399.71, -2518.82, -3387.02, -2602.56, 0.000, 0.000, 0.000, 13:01:13.474
26, -3053.86, -3231.44, -3988.82, -3258.28, 0.000, 0.000, 0.000, 13:01:13.474
27, -2886.92, -3056.18, -3831.21, -3096.55, 0.000, 0.000, 0.000, 13:01:13.474
28, -2399.97, -2507.90, -3374.80, -2604.33, 0.000, 0.000, 0.000, 13:01:13.474
29, -2400.82, -2507.34, -3389.71, -2607.76, 0.000, 0.000, 0.000, 13:01:13.475
30, -3053.71, -3222.84, -3991.46, -3252.75, 0.000, 0.000, 0.000, 13:01:13.475
31, -2896.38, -3006.99, -3837.28, -3101.45, 0.000, 0.000, 0.000, 13:01:13.476
32, -2407.30, -2520.39, -3391.88, -2611.81, 0.000, 0.000, 0.000, 13:01:13.476
33, -2395.89, -2516.07, -3392.24, -2600.84, 0.000, 0.000, 0.000, 13:01:13.477
34, -3056.25, -3210.29, -3992.87, -3258.43, 0.000, 0.000, 0.000, 13:01:13.477
35, -2900.56, -3052.96, -3839.48, -3098.13, 0.000, 0.000, 0.000, 13:01:13.519
36, -2407.27, -2519.22, -3391.70, -2617.84, 0.000, 0.000, 0.000, 13:01:13.519
37, -2387.57, -2513.89, -3380.88, -2593.37, 0.000, 0.000, 0.000, 13:01:13.519
38, -3047.46, -3227.16, -3985.59, -3252.00, 0.000, 0.000, 0.000, 13:01:13.519
39, -2891.10, -3050.44, -3841.43, -3104.18, 0.000, 0.000, 0.000, 13:01:13.520
40, -2400.63, -2518.85, -3390.82, -2613.00, 0.000, 0.000, 0.000, 13:01:13.520
41, -2388.39, -2510.18, -3384.31, -2598.08, 0.000, 0.000, 0.000, 13:01:13.522
42, -3038.70, -3214.06, -3987.19, -3255.00, 0.000, 0.000, 0.000, 13:01:13.522
43, -2881.30, -3044.42, -3840.91, -3101.29, 0.000, 0.000, 0.000, 13:01:13.564
44, -2399.39, -2522.99, -3386.18, -2612.33, 0.000, 0.000, 0.000, 13:01:13.564
45, -2376.86, -2516.44, -3373.99, -2585.47, 0.000, 0.000, 0.000, 13:01:13.564
46, -3038.31, -3227.06, -3983.31, -3253.66, 0.000, 0.000, 0.000, 13:01:13.564
47, -2895.16, -3081.22, -3838.77, -3108.28, 0.000, 0.000, 0.000, 13:01:13.744
48, -2409.44, -2522.33, -3392.78, -2614.95, 0.000, 0.000, 0.000, 13:01:13.744
49, -2379.15, -2511.60, -3381.74, -2580.80, 0.000, 0.000, 0.000, 13:01:13.745
50, -3043.86, -3224.48, -3994.44, -3250.83, 0.000, 0.000, 0.000, 13:01:13.745
51, -2892.61, -3031.68, -3844.43, -3102.22, 0.000, 0.000, 0.000, 13:01:13.790
52, -2411.82, -2526.13, -3384.15, -2615.53, 0.000, 0.000, 0.000, 13:01:13.790
53, -2380.58, -2499.87, -3371.18, -2585.89, 0.000, 0.000, 0.000, 13:01:13.790
54, -3035.17, -3209.08, -3979.53, -3248.74, 0.000, 0.000, 0.000, 13:01:13.791
55, -2893.83, -3038.15, -3834.90, -3109.94, 0.000, 0.000, 0.000, 13:01:13.791
56, -2408.78, -2518.07, -3394.02, -2626.61, 0.000, 0.000, 0.000, 13:01:13.791
57, -2372.91, -2507.49, -3366.97, -2587.75, 0.000, 0.000, 0.000, 13:01:13.792
58, -3034.35, -3238.93, -3979.86, -3250.33, 0.000, 0.000, 0.000, 13:01:13.792
59, -2896.76, -3047.53, -3847.33, -3113.42, 0.000, 0.000, 0.000, 13:01:13.793
60, -2406.23, -2533.14, -3393.84, -2619.24, 0.000, 0.000, 0.000, 13:01:13.793
89, -2340.52, -2494.37, -3343.74, -2558.54, 0.000, 0.000, 0.000, 13:01:13.794
90, -3009.10, -3213.69, -3966.15, -3236.90, 0.000, 0.000, 0.000, 13:01:13.794
91, -2898.42, -3114.73, -3860.19, -3129.06, 0.000, 0.000, 0.000, 13:01:13.834
92, -2413.04, -2545.71, -3401.96, -2636.51, 0.000, 0.000, 0.000, 13:01:13.834
97, -2321.94, -2432.42, -3329.63, -2536.25, 0.000, 0.000, 0.000, 13:01:13.835
98, -2982.18, -3143.96, -3956.05, -3204.04, 0.000, 0.000, 0.000, 13:01:13.835
99, -2863.59, -3064.13, -3848.15, -3098.56, 0.000, 0.000, 0.000, 13:01:13.835
100, -2375.54, -2516.02, -3399.91, -2601.69, 0.000, 0.000, 0.000, 13:01:13.835
101, -2296.37, -2426.09, -3332.97, -2517.03, 0.000, 0.000, 0.000, 13:01:13.837
102, -2987.79, -3211.22, -3971.04, -3214.00, 0.000, 0.000, 0.000, 13:01:13.837
103, -2870.55, -3052.32, -3854.92, -3098.40, 0.000, 0.000, 0.000, 13:01:13.838
104, -2390.19, -2524.86, -3403.95, -2600.84, 0.000, 0.000, 0.000, 13:01:13.838
105, -2311.68, -2442.15, -3332.93, -2527.46, 0.000, 0.000, 0.000, 13:01:13.850
106, -2999.79, -3196.63, -3971.22, -3212.19, 0.000, 0.000, 0.000, 13:01:13.850
107, -2887.61, -3053.74, -3859.50, -3116.67, 0.000, 0.000, 0.000, 13:01:13.850
108, -2401.07, -2544.87, -3402.03, -2613.82, 0.000, 0.000, 0.000, 13:01:13.850
109, -2324.15, -2434.76, -3328.41, -2537.05, 0.000, 0.000, 0.000, 13:01:13.879
110, -2997.39, -3186.68, -3958.47, -3209.51, 0.000, 0.000, 0.000, 13:01:13.879
111, -2889.65, -3054.77, -3855.00, -3105.04, 0.000, 0.000, 0.000, 13:01:13.880
112, -2399.70, -2519.93, -3402.60, -2620.93, 0.000, 0.000, 0.000, 13:01:13.880
113, -2323.50, -2425.33, -3329.12, -2531.77, 0.000, 0.000, 0.000, 13:01:13.881
114, -2991.92, -3157.20, -3949.67, -3208.60, 0.000, 0.000, 0.000, 13:01:13.881
115, -2887.89, -3064.84, -3847.22, -3102.21, 0.000, 0.000, 0.000, 13:01:13.924
116, -2409.47, -2510.73, -3401.66, -2623.75, 0.000, 0.000, 0.000, 13:01:13.924
117, -2318.58, -2418.29, -3315.92, -2536.77, 0.000, 0.000, 0.000, 13:01:13.925
118, -2990.79, -3193.32, -3945.55, -3190.48, 0.000, 0.000, 0.000, 13:01:13.925
119, -2898.04, -3067.51, -3849.32, -3105.96, 0.000, 0.000, 0.000, 13:01:13.925
120, -2420.44, -2555.37, -3406.08, -2636.35, 0.000, 0.000, 0.000, 13:01:13.926
121, -2315.54, -2409.77, -3322.42, -2535.57, 0.000, 0.000, 0.000, 13:01:13.926
122, -2993.88, -3155.22, -3949.34, -3197.93, 0.000, 0.000, 0.000, 13:01:13.926
123, -2897.97, -3037.61, -3852.55, -3113.32, 0.000, 0.000, 0.000, 13:01:13.927
124, -2422.97, -2518.02, -3402.54, -2635.61, 0.000, 0.000, 0.000, 13:01:13.927
125, -2315.63, -2403.25, -3315.27, -2535.27, 0.000, 0.000, 0.000, 13:01:13.939
126, -2994.54, -3163.13, -3948.53, -3200.27, 0.000, 0.000, 0.000, 13:01:13.940
127, -2899.25, -3048.45, -3848.26, -3102.90, 0.000, 0.000, 0.000, 13:01:13.969
128, -2413.46, -2531.87, -3398.61, -2632.56, 0.000, 0.000, 0.000, 13:01:13.969
129, -2300.21, -2407.54, -3310.47, -2520.77, 0.000, 0.000, 0.000, 13:01:13.969
130, -2977.98, -3143.09, -3933.97, -3192.47, 0.000, 0.000, 0.000, 13:01:13.969
131, -2896.41, -3079.88, -3843.45, -3107.40, 0.000, 0.000, 0.000, 13:01:13.970
132, -2418.60, -2515.29, -3402.94, -2631.02, 0.000, 0.000, 0.000, 13:01:13.970
133, -2309.73, -2414.96, -3312.66, -2526.91, 0.000, 0.000, 0.000, 13:01:13.991
134, -2986.18, -3158.84, -3938.98, -3200.33, 0.000, 0.000, 0.000, 13:01:13.991
135, -2893.31, -3070.50, -3851.29, -3116.91, 0.000, 0.000, 0.000, 13:01:14.014
136, -2417.24, -2529.39, -3398.07, -2634.17, 0.000, 0.000, 0.000, 13:01:14.014
137, -2304.24, -2392.59, -3308.30, -2524.82, 0.000, 0.000, 0.000, 13:01:14.014
138, -2987.60, -3163.36, -3936.45, -3194.96, 0.000, 0.000, 0.000, 13:01:14.014
139, -2897.55, -3036.49, -3842.49, -3118.81, 0.000, 0.000, 0.000, 13:01:14.015
140, -2416.96, -2568.47, -3403.98, -2638.03, 0.000, 0.000, 0.000, 13:01:14.015
141, -2295.29, -2408.39, -3306.62, -2509.54, 0.000, 0.000, 0.000, 13:01:14.016
142, -2978.88, -3144.29, -3933.08, -3194.48, 0.000, 0.000, 0.000, 13:01:14.016
143, -2897.98, -3058.38, -3849.52, -3128.45, 0.000, 0.000, 0.000, 13:01:14.044
144, -2412.62, -2475.89, -3404.01, -2635.56, 0.000, 0.000, 0.000, 13:01:14.044
145, -2303.84, -2406.49, -3300.85, -2516.76, 0.000, 0.000, 0.000, 13:01:14.059
146, -2977.07, -3166.83, -3931.65, -3184.25, 0.000, 0.000, 0.000, 13:01:14.059
147, -2903.77, -3093.44, -3853.45, -3110.28, 0.000, 0.000, 0.000, 13:01:14.059
148, -2425.73, -2540.87, -3407.72, -2642.60, 0.000, 0.000, 0.000, 13:01:14.059
149, -2305.05, -2420.21, -3303.74, -2519.56, 0.000, 0.000, 0.000, 13:01:14.105
150, -2987.15, -3145.69, -3933.03, -3193.56, 0.000, 0.000, 0.000, 13:01:14.105
151, -2908.70, -3054.59, -3853.36, -3116.03, 0.000, 0.000, 0.000, 13:01:14.105
152, -2414.93, -2513.16, -3398.01, -2642.67, 0.000, 0.000, 0.000, 13:01:14.105
153, -2291.13, -2378.40, -3295.33, -2510.65, 0.000, 0.000, 0.000, 13:01:14.105
154, -2973.09, -3164.88, -3929.53, -3186.82, 0.000, 0.000, 0.000, 13:01:14.105
155, -2899.74, -3078.69, -3853.07, -3119.17, 0.000, 0.000, 0.000, 13:01:14.106
156, -2421.94, -2524.13, -3409.01, -2645.58, 0.000, 0.000, 0.000, 13:01:14.106
157, -2296.30, -2384.68, -3293.80, -2511.39, 0.000, 0.000, 0.000, 13:01:14.106
158, -2975.54, -3146.01, -3928.24, -3179.65, 0.000, 0.000, 0.000, 13:01:14.106
159, -2902.92, -3057.83, -3849.06, -3124.16, 0.000, 0.000, 0.000, 13:01:14.107
160, -2427.86, -2534.65, -3409.38, -2645.14, 0.000, 0.000, 0.000, 13:01:14.107
161, -2292.84, -2381.01, -3297.10, -2511.46, 0.000, 0.000, 0.000, 13:01:14.150
162, -2968.84, -3141.23, -3930.96, -3181.74, 0.000, 0.000, 0.000, 13:01:14.150
163, -2901.43, -3099.29, -3860.01, -3121.86, 0.000, 0.000, 0.000, 13:01:14.164
164, -2431.03, -2538.80, -3411.41, -2650.29, 0.000, 0.000, 0.000, 13:01:14.164
165, -2284.28, -2391.34, -3292.56, -2512.06, 0.000, 0.000, 0.000, 13:01:14.255
166, -2948.01, -3165.07, -3915.03, -3177.49, 0.000, 0.000, 0.000, 13:01:14.255
167, -2881.46, -3100.09, -3849.34, -3120.68, 0.000, 0.000, 0.000, 13:01:14.255
168, -2423.35, -2521.40, -3409.65, -2660.94, 0.000, 0.000, 0.000, 13:01:14.255
169, -2245.04, -2402.20, -3255.96, -2506.94, 0.000, 0.000, 0.000, 13:01:14.256
170, -2903.51, -3143.00, -3887.70, -3170.64, 0.000, 0.000, 0.000, 13:01:14.256
171, -2822.25, -3064.20, -3821.70, -3121.29, 0.000, 0.000, 0.000, 13:01:14.256
172, -2332.83, -2560.06, -3384.14, -2667.15, 0.000, 0.000, 0.000, 13:01:14.256
173, -2146.85, -2424.06, -3242.93, -2512.60, 0.000, 0.000, 0.000, 13:01:14.258
174, -2798.25, -3192.64, -3868.88, -3182.12, 0.000, 0.000, 0.000, 13:01:14.258
175, -2748.29, -3086.07, -3823.37, -3130.52, 0.000, 0.000, 0.000, 13:01:14.284
176, -2276.14, -2613.11, -3397.44, -2676.61, 0.000, 0.000, 0.000, 13:01:14.285
177, -2108.95, -2430.88, -3266.30, -2502.63, 0.000, 0.000, 0.000, 13:01:14.285
178, -2794.01, -3192.46, -3898.53, -3167.91, 0.000, 0.000, 0.000, 13:01:14.285
191, -2759.52, -3197.31, -3856.43, -3124.22, 0.000, 0.000, 0.000, 13:01:14.286
192, -2306.32, -2655.28, -3420.28, -2663.44, 0.000, 0.000, 0.000, 13:01:14.286
193, -2146.92, -2476.54, -3272.20, -2497.77, 0.000, 0.000, 0.000, 13:01:14.286
194, -2846.65, -3218.68, -3911.27, -3167.34, 0.000, 0.000, 0.000, 13:01:14.286
195, -2814.58, -3145.51, -3865.95, -3139.40, 0.000, 0.000, 0.000, 13:01:14.287
196, -2344.69, -2638.48, -3423.26, -2680.35, 0.000, 0.000, 0.000, 13:01:14.287
197, -2184.42, -2467.84, -3277.30, -2504.98, 0.000, 0.000, 0.000, 13:01:14.314
198, -2859.89, -3212.76, -3913.35, -3165.73, 0.000, 0.000, 0.000, 13:01:14.314
199, -2822.52, -3159.03, -3866.69, -3129.99, 0.000, 0.000, 0.000, 13:01:14.360
200, -2345.35, -2609.50, -3417.13, -2658.91, 0.000, 0.000, 0.000, 13:01:14.360
0, -3056.84, -3175.41, -3928.57, -3186.55, 0.000, 0.000, 0.000, 13:01:14.361
1, -3732.55, -3938.38, -4559.47, -3867.58, 0.000, 0.000, 0.000, 13:01:14.361
2, -3697.91, -3865.04, -4516.55, -3828.16, 0.000, 0.000, 0.000, 13:01:14.361
3, -3229.97, -3334.57, -4087.03, -3356.24, 0.000, 0.000, 0.000, 13:01:14.361
4, -3052.42, -3170.81, -3927.77, -3190.47, 0.000, 0.000, 0.000, 13:01:14.361
5, -3741.78, -3948.50, -4571.41, -3876.84, 0.000, 0.000, 0.000, 13:01:14.362
6, -3714.59, -3853.94, -4536.15, -3838.67, 0.000, 0.000, 0.000, 13:01:14.363
7, -3222.62, -3354.33, -4097.90, -3363.70, 0.000, 0.000, 0.000, 13:01:14.363
8, -3043.07, -3153.81, -3937.56, -3183.93, 0.000, 0.000, 0.000, 13:01:14.363
9, -3725.74, -3931.08, -4570.98, -3859.66, 0.000, 0.000, 0.000, 13:01:14.364
10, -3695.09, -3868.35, -4534.00, -3835.28, 0.000, 0.000, 0.000, 13:01:14.364
11, -3217.54, -3344.49, -4091.38, -3358.04, 0.000, 0.000, 0.000, 13:01:14.405
12, -3035.04, -3172.32, -3934.00, -3185.34, 0.000, 0.000, 0.000, 13:01:14.405
13, -3706.37, -3914.57, -4568.46, -3845.59, 0.000, 0.000, 0.000, 13:01:14.405
14, -3678.43, -3862.59, -4522.77, -3836.63, 0.000, 0.000, 0.000, 13:01:14.405
15, -3213.60, -3356.46, -4091.16, -3369.52, 0.000, 0.000, 0.000, 13:01:14.405
16, -3018.85, -3182.10, -3931.61, -3188.99, 0.000, 0.000, 0.000, 13:01:14.405
17, -3701.28, -3939.48, -4563.02, -3857.16, 0.000, 0.000, 0.000, 13:01:14.406
18, -3671.81, -3860.42, -4527.15, -3834.76, 0.000, 0.000, 0.000, 13:01:14.406
19, -3210.73, -3417.00, -4091.29, -3382.62, 0.000, 0.000, 0.000, 13:01:14.451
20, -3023.45, -3194.02, -3931.22, -3188.45, 0.000, 0.000, 0.000, 13:01:14.451
21, -3692.63, -3895.64, -4560.02, -3856.10, 0.000, 0.000, 0.000, 13:01:14.452
22, -3662.61, -3895.43, -4527.54, -3844.54, 0.000, 0.000, 0.000, 13:01:14.452
23, -3196.47, -3401.02, -4097.55, -3370.15, 0.000, 0.000, 0.000, 13:01:14.452
24, -3004.44, -3182.91, -3929.41, -3184.12, 0.000, 0.000, 0.000, 13:01:14.452
25, -3688.21, -3922.84, -4568.38, -3859.54, 0.000, 0.000, 0.000, 13:01:14.452
26, -3658.85, -3933.15, -4537.52, -3832.83, 0.000, 0.000, 0.000, 13:01:14.452
27, -3187.20, -3343.30, -4098.93, -3372.30, 0.000, 0.000, 0.000, 13:01:14.479
28, -3000.40, -3183.70, -3924.26, -3171.38, 0.000, 0.000, 0.000, 13:01:14.479
29, -3686.95, -3974.58, -4563.84, -3855.00, 0.000, 0.000, 0.000, 13:01:14.479
30, -3669.46, -3940.30, -4538.76, -3837.84, 0.000, 0.000, 0.000, 13:01:14.480
31, -3201.77, -3384.85, -4108.93, -3371.15, 0.000, 0.000, 0.000, 13:01:14.480
32, -3002.95, -3157.75, -3929.48, -3176.35, 0.000, 0.000, 0.000, 13:01:14.480
33, -3682.93, -3920.74, -4559.72, -3852.48, 0.000, 0.000, 0.000, 13:01:14.481
34, -3660.71, -3906.43, -4540.51, -3841.35, 0.000, 0.000, 0.000, 13:01:14.481
35, -3191.08, -3379.00, -4101.16, -3382.94, 0.000, 0.000, 0.000, 13:01:14.494
36, -2988.99, -3183.05, -3921.14, -3173.36, 0.000, 0.000, 0.000, 13:01:14.494
37, -3667.28, -3948.28, -4551.65, -3846.33, 0.000, 0.000, 0.000, 13:01:14.524
38, -3658.65, -3926.59, -4533.14, -3839.01, 0.000, 0.000, 0.000, 13:01:14.524
39, -3196.26, -3368.85, -4105.63, -3392.21, 0.000, 0.000, 0.000, 13:01:14.525
40, -2994.00, -3162.60, -3935.19, -3181.17, 0.000, 0.000, 0.000, 13:01:14.525
41, -3654.82, -3880.97, -4547.47, -3833.78, 0.000, 0.000, 0.000, 13:01:14.525
42, -3643.93, -3905.16, -4524.36, -3842.33, 0.000, 0.000, 0.000, 13:01:14.526
43, -3195.97, -3405.86, -4113.27, -3394.15, 0.000, 0.000, 0.000, 13:01:14.539
44, -2998.71, -3190.66, -3931.25, -3199.91, 0.000, 0.000, 0.000, 13:01:14.539
45, -3630.85, -3929.52, -4529.77, -3832.35, 0.000, 0.000, 0.000, 13:01:14.569
46, -3643.94, -3924.33, -4525.93, -3840.73, 0.000, 0.000, 0.000, 13:01:14.569
47, -3199.67, -3412.22, -4109.82, -3389.82, 0.000, 0.000, 0.000, 13:01:14.569
48, -2999.97, -3173.20, -3930.45, -3194.93, 0.000, 0.000, 0.000, 13:01:14.570
49, -3660.94, -3948.22, -4547.63, -3840.41, 0.000, 0.000, 0.000, 13:01:14.570
50, -3644.79, -3846.15, -4526.20, -3842.46, 0.000, 0.000, 0.000, 13:01:14.570
51, -3204.76, -3428.98, -4113.14, -3393.19, 0.000, 0.000, 0.000, 13:01:14.571
52, -2994.91, -3161.71, -3931.90, -3192.10, 0.000, 0.000, 0.000, 13:01:14.571
53, -3649.79, -3913.95, -4531.35, -3829.60, 0.000, 0.000, 0.000, 13:01:14.585
54, -3642.31, -3853.25, -4517.25, -3823.06, 0.000, 0.000, 0.000, 13:01:14.585
55, -3192.74, -3396.83, -4108.87, -3386.10, 0.000, 0.000, 0.000, 13:01:14.614
56, -2983.59, -3163.47, -3923.55, -3176.64, 0.000, 0.000, 0.000, 13:01:14.614
57, -3644.27, -3897.61, -4524.27, -3823.66, 0.000, 0.000, 0.000, 13:01:14.615
58, -3644.47, -3880.64, -4518.48, -3832.13, 0.000, 0.000, 0.000, 13:01:14.615
59, -3191.40, -3417.46, -4102.34, -3384.54, 0.000, 0.000, 0.000, 13:01:14.616
60, -2987.14, -3178.01, -3918.69, -3183.03, 0.000, 0.000, 0.000, 13:01:14.616
61, -3636.91, -3908.54, -4521.57, -3818.50, 0.000, 0.000, 0.000, 13:01:14.793
62, -3652.03, -3900.29, -4522.36, -3837.43, 0.000, 0.000, 0.000, 13:01:14.794
63, -3208.82, -3413.67, -4106.87, -3405.76, 0.000, 0.000, 0.000, 13:01:14.794
64, -2990.01, -3200.05, -3919.10, -3193.75, 0.000, 0.000, 0.000, 13:01:14.794
65, -3657.85, -3864.24, -4532.36, -3833.57, 0.000, 0.000, 0.000, 13:01:14.795
66, -3668.29, -3946.93, -4530.69, -3837.90, 0.000, 0.000, 0.000, 13:01:14.795
67, -3203.26, -3408.43, -4111.08, -3396.16, 0.000, 0.000, 0.000, 13:01:14.795
68, -2988.43, -3181.65, -3924.31, -3185.86, 0.000, 0.000, 0.000, 13:01:14.795
69, -3640.91, -3905.83, -4529.68, -3835.93, 0.000, 0.000, 0.000, 13:01:14.796
70, -3664.07, -3911.43, -4537.00, -3851.23, 0.000, 0.000, 0.000, 13:01:14.796
71, -3200.68, -3413.92, -4114.47, -3392.93, 0.000, 0.000, 0.000, 13:01:14.799
72, -2979.85, -3197.45, -3923.78, -3170.10, 0.000, 0.000, 0.000, 13:01:14.799
73, -3656.94, -3913.91, -4546.02, -3832.65, 0.000, 0.000, 0.000, 13:01:14.884
74, -3662.32, -3936.90, -4534.51, -3853.45, 0.000, 0.000, 0.000, 13:01:14.884
97, -4313.57, -4643.92, -5146.33, -4510.82, 0.000, 0.000, 0.000, 13:01:14.959
98, -4358.33, -4704.29, -5166.19, -4540.73, 0.000, 0.000, 0.000, 13:01:14.959
99, -3911.52, -4170.72, -4750.72, -4083.54, 0.000, 0.000, 0.000, 13:01:15.005
100, -3658.97, -3938.43, -4539.29, -3844.43, 0.000, 0.000, 0.000, 13:01:15.005
101, -4312.06, -4655.95, -5144.09, -4496.07, 0.000, 0.000, 0.000, 13:01:15.006
102, -4354.82, -4692.82, -5162.65, -4538.39, 0.000, 0.000, 0.000, 13:01:15.006
103, -3902.46, -4207.87, -4753.32, -4101.70, 0.000, 0.000, 0.000, 13:01:15.036
104, -3666.00, -3917.95, -4532.28, -3835.96, 0.000, 0.000, 0.000, 13:01:15.036
105, -4314.89, -4621.83, -5145.30, -4496.49, 0.000, 0.000, 0.000, 13:01:15.036
106, -4354.13, -4717.98, -5172.49, -4538.61, 0.000, 0.000, 0.000, 13:01:15.036
107, -3899.37, -4166.35, -4755.35, -4087.53, 0.000, 0.000, 0.000, 13:01:15.036
108, -3655.31, -3921.15, -4527.06, -3838.26, 0.000, 0.000, 0.000, 13:01:15.036
115, -3203.75, -3460.37, -4106.53, -3384.44, 0.000, 0.000, 0.000, 13:01:15.037
116, -2946.08, -3191.81, -3881.13, -3123.82, 0.000, 0.000, 0.000, 13:01:15.037
131, -2490.73, -2651.22, -3447.54, -2663.59, 0.000, 0.000, 0.000, 13:01:15.038
132, -2208.62, -2358.39, -3208.43, -2394.77, 0.000, 0.000, 0.000, 13:01:15.038
139, -1754.89, -1841.71, -2795.10, -1951.89, 0.000, 0.000, 0.000, 13:01:15.038
140, -1473.32, -1554.40, -2536.37, -1660.46, 0.000, 0.000, 0.000, 13:01:15.038
141, -2143.40, -2286.23, -3156.13, -2328.70, 0.000, 0.000, 0.000, 13:01:15.038
142, -2207.32, -2360.54, -3214.45, -2395.99, 0.000, 0.000, 0.000, 13:01:15.038
145, -2879.79, -3082.20, -3844.16, -3068.97, 0.000, 0.000, 0.000, 13:01:15.049
146, -2956.11, -3177.83, -3895.82, -3145.07, 0.000, 0.000, 0.000, 13:01:15.049
147, -2497.57, -2662.11, -3459.42, -2683.78, 0.000, 0.000, 0.000, 13:01:15.064
148, -2193.45, -2338.95, -3204.36, -2391.43, 0.000, 0.000, 0.000, 13:01:15.064
149, -2877.95, -3066.11, -3826.33, -3061.01, 0.000, 0.000, 0.000, 13:01:15.065
150, -2944.71, -3167.28, -3888.57, -3151.41, 0.000, 0.000, 0.000, 13:01:15.065
151, -2500.73, -2682.59, -3470.36, -2690.07, 0.000, 0.000, 0.000, 13:01:15.079
152, -2203.77, -2364.27, -3212.30, -2395.04, 0.000, 0.000, 0.000, 13:01:15.079
153, -2879.06, -3100.69, -3837.12, -3064.57, 0.000, 0.000, 0.000, 13:01:15.093
154, -2960.38, -3209.35, -3903.68, -3142.04, 0.000, 0.000, 0.000, 13:01:15.094
155, -2504.02, -2706.34, -3478.43, -2692.71, 0.000, 0.000, 0.000, 13:01:15.094
156, -2214.12, -2354.74, -3216.94, -2390.67, 0.000, 0.000, 0.000, 13:01:15.094
157, -2886.57, -3097.91, -3842.49, -3073.56, 0.000, 0.000, 0.000, 13:01:15.109
158, -2985.27, -3217.77, -3926.75, -3182.76, 0.000, 0.000, 0.000, 13:01:15.109
159, -2519.31, -2706.23, -3493.64, -2700.49, 0.000, 0.000, 0.000, 13:01:15.124
160, -2190.97, -2338.45, -3210.11, -2365.56, 0.000, 0.000, 0.000, 13:01:15.124
161, -2845.79, -3081.20, -3830.81, -3045.44, 0.000, 0.000, 0.000, 13:01:15.124
162, -2930.65, -3161.12, -3905.21, -3127.92, 0.000, 0.000, 0.000, 13:01:15.124
163, -2488.39, -2675.34, -3495.77, -2679.35, 0.000, 0.000, 0.000, 13:01:15.154
164, -2189.57, -2363.41, -3229.32, -2372.55, 0.000, 0.000, 0.000, 13:01:15.155
165, -2854.04, -3098.46, -3855.53, -3040.55, 0.000, 0.000, 0.000, 13:01:15.155
166, -2952.46, -3174.72, -3922.50, -3130.22, 0.000, 0.000, 0.000, 13:01:15.155
167, -2495.42, -2696.62, -3501.86, -2685.44, 0.000, 0.000, 0.000, 13:01:15.155
168, -2184.78, -2345.26, -3221.92, -2375.57, 0.000, 0.000, 0.000, 13:01:15.155
169, -2872.07, -3073.72, -3861.14, -3055.73, 0.000, 0.000, 0.000, 13:01:15.169
170, -2964.99, -3195.47, -3931.54, -3143.86, 0.000, 0.000, 0.000, 13:01:15.169
171, -2510.36, -2695.99, -3501.16, -2697.30, 0.000, 0.000, 0.000, 13:01:15.199
172, -2198.12, -2370.65, -3228.43, -2374.23, 0.000, 0.000, 0.000, 13:01:15.199
173, -2860.32, -3080.70, -3846.58, -3048.61, 0.000, 0.000, 0.000, 13:01:15.199
174, -2960.45, -3197.33, -3916.45, -3151.67, 0.000, 0.000, 0.000, 13:01:15.200
175, -2517.78, -2700.80, -3501.08, -2697.30, 0.000, 0.000, 0.000, 13:01:15.200
176, -2194.86, -2380.84, -3210.24, -2367.08, 0.000, 0.000, 0.000, 13:01:15.201
177, -2880.47, -3092.25, -3843.21, -3064.37, 0.000, 0.000, 0.000, 13:01:15.201
178, -2977.69, -3165.34, -3921.40, -3161.68, 0.000, 0.000, 0.000, 13:01:15.201
179, -2510.50, -2671.73, -3486.10, -2687.85, 0.000, 0.000, 0.000, 13:01:15.214
180, -2201.49, -2330.81, -3211.09, -2375.83, 0.000, 0.000, 0.000, 13:01:15.214
181, -2865.71, -3110.03, -3831.05, -3061.86, 0.000, 0.000, 0.000, 13:01:15.230
182, -2970.19, -3201.32, -3913.92, -3163.17, 0.000, 0.000, 0.000, 13:01:15.230
183, -2518.43, -2676.97, -3491.67, -2704.57, 0.000, 0.000, 0.000, 13:01:15.259
184, -2182.39, -2330.64, -3195.10, -2380.87, 0.000, 0.000, 0.000, 13:01:15.259
185, -2868.61, -3061.83, -3829.74, -3053.13, 0.000, 0.000, 0.000, 13:01:15.260
186, -2975.86, -3211.13, -3920.34, -3152.47, 0.000, 0.000, 0.000, 13:01:15.260
187, -2509.62, -2663.93, -3489.81, -2697.08, 0.000, 0.000, 0.000, 13:01:15.260
188, -2180.47, -2324.24, -3192.31, -2382.44, 0.000, 0.000, 0.000, 13:01:15.260
189, -2855.06, -3090.25, -3809.33, -3052.08, 0.000, 0.000, 0.000, 13:01:15.268
190, -2965.05, -3180.49, -3910.39, -3156.05, 0.000, 0.000, 0.000, 13:01:15.268
191, -2502.59, -2671.51, -3482.36, -2710.87, 0.000, 0.000, 0.000, 13:01:15.305
192, -2183.63, -2316.59, -3195.67, -2370.81, 0.000, 0.000, 0.000, 13:01:15.305
193, -2862.10, -3062.32, -3824.17, -3055.66, 0.000, 0.000, 0.000, 13:01:15.305
194, -2967.46, -3172.93, -3911.80, -3155.74, 0.000, 0.000, 0.000, 13:01:15.306
195, -2515.54, -2704.13, -3492.81, -2709.25, 0.000, 0.000, 0.000, 13:01:15.306
196, -2181.45, -2343.23, -3198.65, -2375.06, 0.000, 0.000, 0.000, 13:01:15.306
197, -2853.26, -3072.01, -3816.41, -3041.97, 0.000, 0.000, 0.000, 13:01:15.306
198, -2981.70, -3198.34, -3923.50, -3170.40, 0.000, 0.000, 0.000, 13:01:15.306
199, -2520.48, -2691.05, -3491.05, -2703.30, 0.000, 0.000, 0.000, 13:01:15.319
200, -2177.09, -2326.79, -3186.01, -2377.63, 0.000, 0.000, 0.000, 13:01:15.319
0, -3580.63, -3853.54, -4495.85, -3775.32, 0.000, 0.000, 0.000, 13:01:15.320
1, -3696.17, -3974.31, -4588.38, -3897.39, 0.000, 0.000, 0.000, 13:01:15.364
2, -3237.71, -3457.97, -4169.98, -3452.71, 0.000, 0.000, 0.000, 13:01:15.364
3, -2918.77, -3083.91, -3869.98, -3104.72, 0.000, 0.000, 0.000, 13:01:15.365
4, -3579.42, -3838.12, -4494.98, -3775.65, 0.000, 0.000, 0.000, 13:01:15.365
5, -3686.54, -3995.66, -4590.79, -3907.55, 0.000, 0.000, 0.000, 13:01:15.365
6, -3232.83, -3448.49, -4155.88, -3442.02, 0.000, 0.000, 0.000, 13:01:15.365
7, -2900.75, -3121.86, -3860.19, -3100.74, 0.000, 0.000, 0.000, 13:01:15.368
8, -3573.68, -3831.45, -4486.66, -3778.79, 0.000, 0.000, 0.000, 13:01:15.368
9, -3697.21, -3976.77, -4593.05, -3900.17, 0.000, 0.000, 0.000, 13:01:15.369
10, -3250.58, -3471.11, -4173.06, -3433.19, 0.000, 0.000, 0.000, 13:01:15.369
11, -2912.17, -3141.46, -3862.52, -3103.22, 0.000, 0.000, 0.000, 13:01:15.409
12, -3576.31, -3885.32, -4488.42, -3773.03, 0.000, 0.000, 0.000, 13:01:15.409
13, -3717.01, -4048.94, -4606.07, -3907.03, 0.000, 0.000, 0.000, 13:01:15.410
14, -3251.09, -3461.89, -4166.62, -3457.34, 0.000, 0.000, 0.000, 13:01:15.410
15, -2889.61, -3038.25, -3856.25, -3100.45, 0.000, 0.000, 0.000, 13:01:15.410
16, -3563.01, -3851.61, -4472.04, -3764.11, 0.000, 0.000, 0.000, 13:01:15.410
17, -3705.47, -3965.81, -4591.59, -3910.36, 0.000, 0.000, 0.000, 13:01:15.411
18, -3254.60, -3457.08, -4172.51, -3459.34, 0.000, 0.000, 0.000, 13:01:15.411
19, -2908.87, -3089.29, -3857.39, -3103.81, 0.000, 0.000, 0.000, 13:01:15.424
20, -3567.73, -3802.53, -4476.46, -3768.59, 0.000, 0.000, 0.000, 13:01:15.424
21, -3715.39, -3963.70, -4602.64, -3905.98, 0.000, 0.000, 0.000, 13:01:15.439
22, -3253.98, -3474.39, -4164.72, -3448.79, 0.000, 0.000, 0.000, 13:01:15.439
23, -2897.02, -3082.40, -3849.56, -3095.06, 0.000, 0.000, 0.000, 13:01:15.439
24, -3556.41, -3838.61, -4460.07, -3763.61, 0.000, 0.000, 0.000, 13:01:15.439
25, -3717.41, -3992.67, -4595.75, -3914.73, 0.000, 0.000, 0.000, 13:01:15.470
26, -3259.39, -3488.15, -4185.43, -3454.61, 0.000, 0.000, 0.000, 13:01:15.470
27, -2914.90, -3100.78, -3863.69, -3104.75, 0.000, 0.000, 0.000, 13:01:15.471
28, -3565.43, -3821.82, -4478.68, -3767.09, 0.000, 0.000, 0.000, 13:01:15.471
29, -3698.73, -3984.93, -4586.98, -3904.78, 0.000, 0.000, 0.000, 13:01:15.472
30, -3252.42, -3476.43, -4162.73, -3460.17, 0.000, 0.000, 0.000, 13:01:15.472
31, -2893.72, -3117.65, -3851.53, -3106.08, 0.000, 0.000, 0.000, 13:01:15.560
32, -3542.00, -3822.13, -4455.20, -3759.65, 0.000, 0.000, 0.000, 13:01:15.560
33, -3704.67, -3981.03, -4585.57, -3912.43, 0.000, 0.000, 0.000, 13:01:15.574
34, -3262.84, -3513.93, -4172.34, -3471.51, 0.000, 0.000, 0.000, 13:01:15.574
35, -2905.36, -3110.48, -3857.97, -3107.56, 0.000, 0.000, 0.000, 13:01:15.575
36, -3573.31, -3827.82, -4465.01, -3774.12, 0.000, 0.000, 0.000, 13:01:15.575
37, -3718.36, -4002.53, -4601.07, -3926.70, 0.000, 0.000, 0.000, 13:01:15.575
38, -3264.45, -3498.69, -4177.56, -3475.38, 0.000, 0.000, 0.000, 13:01:15.575
39, -2912.97, -3110.98, -3859.97, -3111.25, 0.000, 0.000, 0.000, 13:01:15.576
40, -3563.63, -3788.44, -4473.90, -3752.86, 0.000, 0.000, 0.000, 13:01:15.576
41, -3721.56, -3983.94, -4612.38, -3910.76, 0.000, 0.000, 0.000, 13:01:15.577
42, -3272.53, -3497.11, -4192.13, -3472.12, 0.000, 0.000, 0.000, 13:01:15.577
43, -2912.55, -3120.48, -3869.70, -3117.62, 0.000, 0.000, 0.000, 13:01:15.578
44, -3569.03, -3853.42, -4464.35, -3759.59, 0.000, 0.000, 0.000, 13:01:15.578
49, -3725.74, -4055.70, -4619.74, -3925.57, 0.000, 0.000, 0.000, 13:01:15.578
50, -3269.45, -3525.92, -4184.12, -3473.55, 0.000, 0.000, 0.000, 13:01:15.579
53, -3444.38, -3751.04, -4326.25, -3642.62, 0.000, 0.000, 0.000, 13:01:15.590
54, -2994.39, -3242.77, -3907.38, -3202.93, 0.000, 0.000, 0.000, 13:01:15.590
55, -2625.34, -2855.70, -3586.22, -2832.64, 0.000, 0.000, 0.000, 13:01:15.619
56, -3269.70, -3537.79, -4171.90, -3466.26, 0.000, 0.000, 0.000, 13:01:15.619
57, -3425.99, -3721.97, -4313.01, -3627.48, 0.000, 0.000, 0.000, 13:01:15.619
58, -2966.10, -3232.55, -3899.50, -3176.27, 0.000, 0.000, 0.000, 13:01:15.619
59, -2613.48, -2827.32, -3570.71, -2808.65, 0.000, 0.000, 0.000, 13:01:15.620
60, -3250.91, -3540.42, -4168.67, -3453.52, 0.000, 0.000, 0.000, 13:01:15.621
61, -3423.66, -3740.82, -4316.28, -3630.59, 0.000, 0.000, 0.000, 13:01:15.664
62, -2993.83, -3260.83, -3909.00, -3200.56, 0.000, 0.000, 0.000, 13:01:15.664
63, -2607.92, -2834.76, -3560.82, -2814.75, 0.000, 0.000, 0.000, 13:01:15.665
64, -3245.38, -3525.62, -4167.01, -3444.17, 0.000, 0.000, 0.000, 13:01:15.665
65, -3419.09, -3732.01, -4319.21, -3632.43, 0.000, 0.000, 0.000, 13:01:15.665
66, -2986.64, -3253.56, -3911.55, -3191.05, 0.000, 0.000, 0.000, 13:01:15.665
67, -2614.49, -2807.81, -3578.25, -2807.19, 0.000, 0.000, 0.000, 13:01:15.666
68, -3254.48, -3537.50, -4167.44, -3453.70, 0.000, 0.000, 0.000, 13:01:15.666
69, -3435.46, -3764.92, -4341.31, -3640.68, 0.000, 0.000, 0.000, 13:01:15.667
70, -2997.03, -3266.59, -3918.59, -3195.32, 0.000, 0.000, 0.000, 13:01:15.667
71, -2609.60, -2856.33, -3574.92, -2816.82, 0.000, 0.000, 0.000, 13:01:15.679
72, -3254.01, -3523.83, -4173.00, -3461.80, 0.000, 0.000, 0.000, 13:01:15.679
73, -3440.18, -3755.46, -4334.60, -3650.86, 0.000, 0.000, 0.000, 13:01:15.709
74, -2977.75, -3251.32, -3918.05, -3200.73, 0.000, 0.000, 0.000, 13:01:15.710
75, -2578.47, -2844.42, -3557.99, -2824.40, 0.000, 0.000, 0.000, 13:01:15.710
76, -3205.34, -3567.80, -4148.70, -3455.14, 0.000, 0.000, 0.000, 13:01:15.710
77, -3383.83, -3749.08, -4303.86, -3652.27, 0.000, 0.000, 0.000, 13:01:15.710
78, -2929.86, -3282.12, -3898.58, -3210.78, 0.000, 0.000, 0.000, 13:01:15.711
79, -2539.00, -2884.77, -3541.64, -2824.84, 0.000, 0.000, 0.000, 13:01:15.724
80, -3158.04, -3573.55, -4137.25, -3457.74, 0.000, 0.000, 0.000, 13:01:15.724
81, -3337.23, -3768.30, -4305.08, -3652.79, 0.000, 0.000, 0.000, 13:01:15.755
82, -2901.71, -3297.31, -3905.07, -3212.63, 0.000, 0.000, 0.000, 13:01:15.755
83, -2508.03, -2900.15, -3554.23, -2819.53, 0.000, 0.000, 0.000, 13:01:15.755
84, -3144.81, -3539.32, -4141.80, -3451.68, 0.000, 0.000, 0.000, 13:01:15.755
85, -3349.25, -3760.56, -4308.45, -3639.66, 0.000, 0.000, 0.000, 13:01:15.755
86, -2937.96, -3315.90, -3916.98, -3214.72, 0.000, 0.000, 0.000, 13:01:15.755
87, -2545.07, -2886.21, -3556.44, -2811.68, 0.000, 0.000, 0.000, 13:01:15.756
88, -3196.60, -3540.22, -4156.12, -3455.02, 0.000, 0.000, 0.000, 13:01:15.756
89, -3403.79, -3772.33, -4323.50, -3648.65, 0.000, 0.000, 0.000, 13:01:15.769
90, -2981.98, -3267.75, -3927.99, -3215.96, 0.000, 0.000, 0.000, 13:01:15.769
91, -2595.14, -2849.13, -3575.79, -2824.20, 0.000, 0.000, 0.000, 13:01:15.785
92, -3230.67, -3508.69, -4161.22, -3442.61, 0.000, 0.000, 0.000, 13:01:15.785
93, -3442.77, -3716.92, -4334.59, -3645.80, 0.000, 0.000, 0.000, 13:01:15.814
94, -3015.08, -3288.48, -3930.69, -3220.25, 0.000, 0.000, 0.000, 13:01:15.814
95, -2635.19, -2824.95, -3590.67, -2826.14, 0.000, 0.000, 0.000, 13:01:15.815
96, -3257.42, -3538.96, -4165.96, -3440.48, 0.000, 0.000, 0.000, 13:01:15.815
97, -3460.63, -3707.29, -4340.53, -3638.66, 0.000, 0.000, 0.000, 13:01:15.815
98, -3024.99, -3250.93, -3931.20, -3210.95, 0.000, 0.000, 0.000, 13:01:15.815
99, -2636.94, -2829.15, -3573.20, -2813.87, 0.000, 0.000, 0.000, 13:01:15.817
100, -3257.39, -3478.17, -4150.76, -3439.61, 0.000, 0.000, 0.000, 13:01:15.817
101, -3475.40, -3725.38, -4345.06, -3646.80, 0.000, 0.000, 0.000, 13:01:15.874
102, -3033.09, -3263.19, -3940.63, -3212.79, 0.000, 0.000, 0.000, 13:01:15.874
103, -2641.35, -2835.14, -3577.42, -2808.64, 0.000, 0.000, 0.000, 13:01:15.875
104, -3265.98, -3501.82, -4151.80, -3428.80, 0.000, 0.000, 0.000, 13:01:15.875
105, -3474.39, -3754.04, -4345.55, -3648.31, 0.000, 0.000, 0.000, 13:01:15.890
106, -3039.15, -3247.27, -3939.05, -3220.43, 0.000, 0.000, 0.000, 13:01:15.890
107, -2641.61, -2813.06, -3571.73, -2815.84, 0.000, 0.000, 0.000, 13:01:15.905
108, -3258.19, -3507.62, -4146.75, -3429.83, 0.000, 0.000, 0.000, 13:01:15.905
109, -3472.66, -3754.50, -4339.79, -3643.70, 0.000, 0.000, 0.000, 13:01:15.906
110, -3034.36, -3273.47, -3938.32, -3217.09, 0.000, 0.000, 0.000, 13:01:15.906
111, -2636.79, -2807.72, -3575.72, -2814.77, 0.000, 0.000, 0.000, 13:01:15.906
112, -3245.18, -3502.89, -4148.13, -3415.07, 0.000, 0.000, 0.000, 13:01:15.906
113, -3466.48, -3711.43, -4340.90, -3647.54, 0.000, 0.000, 0.000, 13:01:15.907
114, -3045.20, -3280.05, -3942.85, -3222.91, 0.000, 0.000, 0.000, 13:01:15.907
115, -2624.42, -2809.05, -3562.34, -2808.64, 0.000, 0.000, 0.000, 13:01:15.965
116, -3232.67, -3474.70, -4134.88, -3420.68, 0.000, 0.000, 0.000, 13:01:15.965
117, -3460.49, -3758.75, -4336.18, -3643.35, 0.000, 0.000, 0.000, 13:01:15.965
118, -3040.51, -3248.59, -3943.52, -3226.14, 0.000, 0.000, 0.000, 13:01:15.965
119, -2638.93, -2814.49, -3573.54, -2817.36, 0.000, 0.000, 0.000, 13:01:15.966
120, -3241.89, -3466.77, -4136.14, -3411.43, 0.000, 0.000, 0.000, 13:01:15.966
121, -3460.94, -3691.21, -4340.80, -3640.22, 0.000, 0.000, 0.000, 13:01:15.966
122, -3034.06, -3268.90, -3945.58, -3222.09, 0.000, 0.000, 0.000, 13:01:15.967
123, -2639.30, -2830.40, -3579.07, -2820.45, 0.000, 0.000, 0.000, 13:01:15.968
124, -3239.49, -3503.40, -4132.83, -3408.86, 0.000, 0.000, 0.000, 13:01:15.968
125, -3457.34, -3714.65, -4336.60, -3638.09, 0.000, 0.000, 0.000, 13:01:15.968
126, -3038.37, -3289.60, -3951.02, -3229.45, 0.000, 0.000, 0.000, 13:01:15.968
127, -2618.81, -2829.00, -3573.42, -2829.05, 0.000, 0.000, 0.000, 13:01:15.968
128, -3211.44, -3516.78, -4125.35, -3408.77, 0.000, 0.000, 0.000, 13:01:15.968
131, -2792.04, -3075.37, -3751.36, -2999.89, 0.000, 0.000, 0.000, 13:01:15.979
132, -3379.72, -3698.27, -4303.56, -3583.90, 0.000, 0.000, 0.000, 13:01:15.979
133, -3617.25, -4004.47, -4512.48, -3823.99, 0.000, 0.000, 0.000, 13:01:16.009
134, -3212.30, -3522.68, -4128.35, -3422.28, 0.000, 0.000, 0.000, 13:01:16.009
135, -2784.51, -3052.64, -3745.30, -3010.15, 0.000, 0.000, 0.000, 13:01:16.010
136, -3379.04, -3691.87, -4302.68, -3587.24, 0.000, 0.000, 0.000, 13:01:16.010
137, -3621.06, -3970.24, -4507.97, -3823.28, 0.000, 0.000, 0.000, 13:01:16.010
138, -3202.78, -3521.01, -4128.85, -3420.46, 0.000, 0.000, 0.000, 13:01:16.011
139, -2794.42, -3065.72, -3748.71, -3004.31, 0.000, 0.000, 0.000, 13:01:16.039
140, -3386.64, -3726.84, -4296.53, -3580.65, 0.000, 0.000, 0.000, 13:01:16.039
141, -3624.91, -3979.99, -4514.32, -3815.32, 0.000, 0.000, 0.000, 13:01:16.040
142, -3196.14, -3515.13, -4120.60, -3418.50, 0.000, 0.000, 0.000, 13:01:16.040
143, -2786.36, -3065.60, -3750.23, -3011.37, 0.000, 0.000, 0.000, 13:01:16.040
144, -3389.43, -3733.06, -4306.87, -3584.76, 0.000, 0.000, 0.000, 13:01:16.040
145, -3632.17, -3973.63, -4514.96, -3822.24, 0.000, 0.000, 0.000, 13:01:16.055
146, -3200.54, -3504.31, -4128.57, -3417.14, 0.000, 0.000, 0.000, 13:01:16.055
147, -2797.53, -3065.23, -3759.96, -3016.10, 0.000, 0.000, 0.000, 13:01:16.085
148, -3375.14, -3722.14, -4296.45, -3581.55, 0.000, 0.000, 0.000, 13:01:16.085
149, -3626.62, -3989.27, -4518.20, -3832.30, 0.000, 0.000, 0.000, 13:01:16.085
150, -3219.63, -3550.83, -4133.91, -3428.89, 0.000, 0.000, 0.000, 13:01:16.085
151, -2803.24, -3079.49, -3749.52, -3015.23, 0.000, 0.000, 0.000, 13:01:16.100
152, -3373.28, -3702.80, -4288.35, -3575.78, 0.000, 0.000, 0.000, 13:01:16.100
153, -3635.78, -3996.55, -4510.67, -3832.17, 0.000, 0.000, 0.000, 13:01:16.100
154, -3216.74, -3522.51, -4127.12, -3427.76, 0.000, 0.000, 0.000, 13:01:16.100
155, -2801.05, -3083.27, -3752.31, -3012.25, 0.000, 0.000, 0.000, 13:01:16.101
156, -3370.77, -3690.15, -4286.35, -3574.46, 0.000, 0.000, 0.000, 13:01:16.101
157, -3628.44, -3947.17, -4515.16, -3809.83, 0.000, 0.000, 0.000, 13:01:16.129
158, -3211.96, -3574.39, -4124.69, -3416.43, 0.000, 0.000, 0.000, 13:01:16.129
159, -2796.94, -3063.53, -3742.82, -3007.05, 0.000, 0.000, 0.000, 13:01:16.129
160, -3368.90, -3692.80, -4277.14, -3570.37, 0.000, 0.000, 0.000, 13:01:16.130
161, -3637.95, -3993.15, -4520.78, -3837.73, 0.000, 0.000, 0.000, 13:01:16.130
162, -3223.43, -3507.02, -4134.59, -3426.59, 0.000, 0.000, 0.000, 13:01:16.130
163, -2806.07, -3077.97, -3749.68, -2998.51, 0.000, 0.000, 0.000, 13:01:16.144
164, -3369.13, -3691.22, -4284.45, -3569.70, 0.000, 0.000, 0.000, 13:01:16.144
165, -3639.11, -3978.18, -4519.94, -3833.06, 0.000, 0.000, 0.000, 13:01:16.159
166, -3219.29, -3530.76, -4138.78, -3425.58, 0.000, 0.000, 0.000, 13:01:16.159
167, -2796.30, -3054.90, -3759.30, -2995.56, 0.000, 0.000, 0.000, 13:01:16.174
168, -3379.69, -3676.88, -4292.57, -3572.41, 0.000, 0.000, 0.000, 13:01:16.174
169, -3631.10, -3972.44, -4519.68, -3832.49, 0.000, 0.000, 0.000, 13:01:16.175
170, -3213.54, -3525.96, -4134.87, -3427.51, 0.000, 0.000, 0.000, 13:01:16.175
171, -2795.86, -3062.71, -3747.90, -2997.70, 0.000, 0.000, 0.000, 13:01:16.189
172, -3349.36, -3680.75, -4268.88, -3559.16, 0.000, 0.000, 0.000, 13:01:16.189
173, -3619.39, -3996.63, -4511.06, -3824.61, 0.000, 0.000, 0.000, 13:01:16.190
174, -3206.63, -3529.74, -4137.29, -3420.77, 0.000, 0.000, 0.000, 13:01:16.190
175, -2786.57, -3100.18, -3748.78, -3004.91, 0.000, 0.000, 0.000, 13:01:16.219
176, -3360.23, -3652.22, -4277.41, -3549.51, 0.000, 0.000, 0.000, 13:01:16.219
177, -3628.99, -3954.58, -4519.08, -3821.45, 0.000, 0.000, 0.000, 13:01:16.220
178, -3218.48, -3520.52, -4135.74, -3430.01, 0.000, 0.000, 0.000, 13:01:16.220
179, -2777.53, -3057.35, -3743.23, -2999.70, 0.000, 0.000, 0.000, 13:01:16.221
180, -3350.22, -3700.29, -4284.34, -3553.54, 0.000, 0.000, 0.000, 13:01:16.222
181, -3626.29, -4003.75, -4517.29, -3827.01, 0.000, 0.000, 0.000, 13:01:16.235
182, -3227.27, -3562.30, -4139.63, -3427.43, 0.000, 0.000, 0.000, 13:01:16.235
183, -2794.79, -3032.30, -3754.47, -2996.36, 0.000, 0.000, 0.000, 13:01:16.249
184, -3366.42, -3663.67, -4286.60, -3559.10, 0.000, 0.000, 0.000, 13:01:16.249
185, -3633.50, -3933.14, -4532.78, -3835.57, 0.000, 0.000, 0.000, 13:01:16.250
186, -3215.80, -3532.61, -4146.07, -3423.51, 0.000, 0.000, 0.000, 13:01:16.250
187, -2774.99, -3063.00, -3747.26, -2990.89, 0.000, 0.000, 0.000, 13:01:16.264
188, -3329.85, -3679.16, -4275.17, -3547.41, 0.000, 0.000, 0.000, 13:01:16.264
189, -3622.66, -3973.78, -4519.11, -3833.04, 0.000, 0.000, 0.000, 13:01:16.279
190, -3213.56, -3525.07, -4140.25, -3427.05, 0.000, 0.000, 0.000, 13:01:16.279
191, -2776.58, -3066.06, -3744.93, -2993.97, 0.000, 0.000, 0.000, 13:01:16.280
192, -3338.59, -3660.21, -4268.86, -3548.99, 0.000, 0.000, 0.000, 13:01:16.280
193, -3641.73, -4046.71, -4521.69, -3828.39, 0.000, 0.000, 0.000, 13:01:16.294
194, -3209.13, -3490.49, -4143.55, -3436.58, 0.000, 0.000, 0.000, 13:01:16.294
195, -2777.28, -3057.59, -3746.25, -2993.04, 0.000, 0.000, 0.000, 13:01:16.309
196, -3340.57, -3648.18, -4275.08, -3545.85, 0.000, 0.000, 0.000, 13:01:16.309
197, -3643.83, -3957.55, -4530.97, -3842.50, 0.000, 0.000, 0.000, 13:01:16.310
198, -3226.16, -3527.36, -4154.14, -3427.47, 0.000, 0.000, 0.000, 13:01:16.310
199, -2793.49, -3055.39, -3763.22, -2998.00, 0.000, 0.000, 0.000, 13:01:16.324
200, -3335.39, -3675.60, -4258.03, -3549.00, 0.000, 0.000, 0.000, 13:01:16.324
0, -3736.62, -4003.99, -4635.04, -3934.23, 0.000, 0.000, 0.000, 13:01:16.325
1, -3336.44, -3567.51, -4259.63, -3536.21, 0.000, 0.000, 0.000, 13:01:16.339
2, -2902.44, -3107.97, -3861.83, -3101.71, 0.000, 0.000, 0.000, 13:01:16.339
3, -3452.40, -3713.15, -4374.55, -3647.82, 0.000, 0.000, 0.000, 13:01:16.369
4, -3742.15, -4036.63, -4627.43, -3942.18, 0.000, 0.000, 0.000, 13:01:16.370
5, -3342.35, -3588.02, -4254.17, -3551.90, 0.000, 0.000, 0.000, 13:01:16.370
6, -2895.21, -3078.25, -3854.53, -3107.59, 0.000, 0.000, 0.000, 13:01:16.370
7, -3453.07, -3761.82, -4372.58, -3653.86, 0.000, 0.000, 0.000, 13:01:16.371
8, -3740.94, -3978.62, -4620.43, -3948.90, 0.000, 0.000, 0.000, 13:01:16.371
9, -3346.16, -3584.88, -4261.50, -3556.03, 0.000, 0.000, 0.000, 13:01:16.371
10, -2905.95, -3116.73, -3861.46, -3120.62, 0.000, 0.000, 0.000, 13:01:16.372
11, -3458.46, -3681.97, -4365.60, -3652.62, 0.000, 0.000, 0.000, 13:01:16.385
12, -3768.56, -4021.67, -4641.87, -3957.74, 0.000, 0.000, 0.000, 13:01:16.385
13, -3369.70, -3602.12, -4281.44, -3577.37, 0.000, 0.000, 0.000, 13:01:16.414
14, -2911.63, -3143.40, -3873.74, -3096.71, 0.000, 0.000, 0.000, 13:01:16.414
15, -3447.85, -3703.77, -4380.56, -3624.24, 0.000, 0.000, 0.000, 13:01:16.415
16, -3754.43, -4010.45, -4642.25, -3941.98, 0.000, 0.000, 0.000, 13:01:16.415
17, -3347.46, -3607.05, -4286.35, -3530.19, 0.000, 0.000, 0.000, 13:01:16.416
18, -2907.54, -3090.70, -3886.87, -3084.81, 0.000, 0.000, 0.000, 13:01:16.416
19, -3428.28, -3702.08, -4374.43, -3614.77, 0.000, 0.000, 0.000, 13:01:16.429
20, -3738.83, -3998.74, -4645.25, -3917.22, 0.000, 0.000, 0.000, 13:01:16.429
21, -3348.34, -3596.92, -4289.71, -3533.82, 0.000, 0.000, 0.000, 13:01:16.458
22, -2903.23, -3114.65, -3873.99, -3097.79, 0.000, 0.000, 0.000, 13:01:16.459
23, -3445.06, -3691.95, -4372.59, -3626.89, 0.000, 0.000, 0.000, 13:01:16.459
24, -3750.15, -4007.93, -4649.54, -3953.80, 0.000, 0.000, 0.000, 13:01:16.459
25, -3358.31, -3591.70, -4280.78, -3539.62, 0.000, 0.000, 0.000, 13:01:16.460
26, -2913.96, -3081.37, -3868.30, -3102.50, 0.000, 0.000, 0.000, 13:01:16.460
27, -3455.25, -3674.85, -4379.78, -3631.11, 0.000, 0.000, 0.000, 13:01:16.460
28, -3769.32, -4048.76, -4661.23, -3944.40, 0.000, 0.000, 0.000, 13:01:16.461
29, -3352.78, -3597.31, -4288.37, -3549.28, 0.000, 0.000, 0.000, 13:01:16.504
30, -2902.55, -3087.14, -3873.44, -3109.07, 0.000, 0.000, 0.000, 13:01:16.504
31, -3442.32, -3688.50, -4367.59, -3638.26, 0.000, 0.000, 0.000, 13:01:16.505
32, -3759.19, -4053.27, -4648.25, -3955.92, 0.000, 0.000, 0.000, 13:01:16.505
33, -3350.14, -3571.25, -4276.59, -3556.26, 0.000, 0.000, 0.000, 13:01:16.506
34, -2915.80, -3086.63, -3863.48, -3110.95, 0.000, 0.000, 0.000, 13:01:16.506
35, -3446.94, -3704.78, -4364.09, -3635.48, 0.000, 0.000, 0.000, 13:01:16.506
36, -3762.67, -4026.73, -4641.85, -3944.32, 0.000, 0.000, 0.000, 13:01:16.506
37, -3355.26, -3603.50, -4274.17, -3550.36, 0.000, 0.000, 0.000, 13:01:16.526
38, -2916.11, -3110.34, -3867.39, -3105.56, 0.000, 0.000, 0.000, 13:01:16.526
39, -3441.70, -3679.03, -4348.48, -3622.01, 0.000, 0.000, 0.000, 13:01:16.549
40, -3772.38, -4033.38, -4639.35, -3951.05, 0.000, 0.000, 0.000, 13:01:16.549
41, -3369.08, -3605.73, -4278.63, -3574.23, 0.000, 0.000, 0.000, 13:01:16.550
42, -2901.58, -3106.98, -3858.38, -3104.18, 0.000, 0.000, 0.000, 13:01:16.550
43, -3436.53, -3682.21, -4351.73, -3627.93, 0.000, 0.000, 0.000, 13:01:16.550
44, -3758.36, -3974.31, -4641.65, -3951.92, 0.000, 0.000, 0.000, 13:01:16.550
45, -3359.01, -3595.91, -4267.00, -3559.38, 0.000, 0.000, 0.000, 13:01:16.564
46, -2907.25, -3056.86, -3854.96, -3119.41, 0.000, 0.000, 0.000, 13:01:16.564
47, -3430.89, -3693.19, -4351.66, -3623.18, 0.000, 0.000, 0.000, 13:01:16.579
48, -3757.45, -4030.23, -4638.25, -3947.26, 0.000, 0.000, 0.000, 13:01:16.579
49, -3358.25, -3578.53, -4269.37, -3553.82, 0.000, 0.000, 0.000, 13:01:16.580
50, -2914.42, -3155.40, -3869.01, -3118.83, 0.000, 0.000, 0.000, 13:01:16.580
51, -3435.56, -3660.03, -4350.21, -3624.49, 0.000, 0.000, 0.000, 13:01:16.594
52, -3751.91, -3959.27, -4638.90, -3944.86, 0.000, 0.000, 0.000, 13:01:16.594
53, -3346.76, -3631.50, -4265.44, -3544.43, 0.000, 0.000, 0.000, 13:01:16.595
54, -2894.94, -3105.87, -3855.75, -3105.07, 0.000, 0.000, 0.000, 13:01:16.595
55, -3419.52, -3646.16, -4344.72, -3607.67, 0.000, 0.000, 0.000, 13:01:16.609
56, -3761.54, -4063.18, -4645.82, -3951.67, 0.000, 0.000, 0.000, 13:01:16.609
57, -3367.07, -3598.27, -4269.37, -3563.23, 0.000, 0.000, 0.000, 13:01:16.624
58, -2897.34, -3099.71, -3849.60, -3110.05, 0.000, 0.000, 0.000, 13:01:16.624
59, -3406.33, -3642.61, -4332.58, -3618.02, 0.000, 0.000, 0.000, 13:01:16.624
60, -3758.26, -4032.78, -4642.03, -3952.29, 0.000, 0.000, 0.000, 13:01:16.624
61, -3359.74, -3609.39, -4278.17, -3563.95, 0.000, 0.000, 0.000, 13:01:16.670
62, -2891.93, -3086.06, -3848.42, -3104.55, 0.000, 0.000, 0.000, 13:01:16.670
63, -3406.34, -3640.38, -4339.17, -3619.71, 0.000, 0.000, 0.000, 13:01:16.670
64, -3747.61, -3994.44, -4641.47, -3957.78, 0.000, 0.000, 0.000, 13:01:16.670
65, -3359.51, -3588.58, -4283.54, -3584.96, 0.000, 0.000, 0.000, 13:01:16.671
66, -2882.86, -3080.92, -3835.97, -3102.89, 0.000, 0.000, 0.000, 13:01:16.671
67, -3410.72, -3686.47, -4333.96, -3615.52, 0.000, 0.000, 0.000, 13:01:16.672
68, -3730.81, -4036.67, -4630.85, -3948.82, 0.000, 0.000, 0.000, 13:01:16.672
69, -3351.15, -3602.06, -4271.69, -3571.00, 0.000, 0.000, 0.000, 13:01:16.672
70, -2896.64, -3108.48, -3865.34, -3109.89, 0.000, 0.000, 0.000, 13:01:16.672
71, -3391.96, -3589.79, -4321.87, -3599.59, 0.000, 0.000, 0.000, 13:01:16.686
72, -3757.09, -4043.15, -4651.88, -3958.52, 0.000, 0.000, 0.000, 13:01:16.688
73, -3385.66, -3644.96, -4308.16, -3612.83, 0.000, 0.000, 0.000, 13:01:16.699
74, -2894.94, -3068.40, -3843.21, -3106.02, 0.000, 0.000, 0.000, 13:01:16.699
75, -3386.38, -3617.41, -4288.83, -3577.61, 0.000, 0.000, 0.000, 13:01:16.714
76, -3755.43, -3972.79, -4610.08, -3950.19, 0.000, 0.000, 0.000, 13:01:16.714
77, -3359.32, -3554.95, -4246.07, -3586.76, 0.000, 0.000, 0.000, 13:01:16.714
78, -2894.97, -3074.31, -3804.64, -3122.66, 0.000, 0.000, 0.000, 13:01:16.714
79, -3403.42, -3590.11, -4269.53, -3620.49, 0.000, 0.000, 0.000, 13:01:16.729
80, -3754.41, -3984.30, -4588.31, -3968.55, 0.000, 0.000, 0.000, 13:01:16.729
81, -3374.24, -3554.08, -4231.47, -3608.50, 0.000, 0.000, 0.000, 13:01:16.759
82, -2908.30, -3016.84, -3801.73, -3131.69, 0.000, 0.000, 0.000, 13:01:16.759
83, -3403.63, -3627.40, -4277.41, -3624.12, 0.000, 0.000, 0.000, 13:01:16.774
84, -3757.68, -4002.64, -4599.79, -3982.00, 0.000, 0.000, 0.000, 13:01:16.774
85, -3378.67, -3592.79, -4250.00, -3599.88, 0.000, 0.000, 0.000, 13:01:16.774
86, -2908.85, -3096.07, -3832.77, -3121.66, 0.000, 0.000, 0.000, 13:01:16.774
87, -3397.71, -3581.45, -4295.77, -3607.68, 0.000, 0.000, 0.000, 13:01:16.775
88, -3761.15, -4062.14, -4619.03, -3984.08, 0.000, 0.000, 0.000, 13:01:16.775
89, -3362.68, -3576.99, -4254.18, -3601.17, 0.000, 0.000, 0.000, 13:01:16.776
90, -2919.56, -3082.60, -3842.79, -3106.63, 0.000, 0.000, 0.000, 13:01:16.776
91, -3394.86, -3620.74, -4302.67, -3599.16, 0.000, 0.000, 0.000, 13:01:16.789
92, -3745.70, -4012.39, -4618.72, -3962.47, 0.000, 0.000, 0.000, 13:01:16.789
93, -3380.65, -3649.05, -4285.42, -3597.01, 0.000, 0.000, 0.000, 13:01:16.819
94, -2901.88, -3126.57, -3842.58, -3120.09, 0.000, 0.000, 0.000, 13:01:16.819
95, -3395.97, -3631.79, -4300.34, -3598.04, 0.000, 0.000, 0.000, 13:01:16.820
96, -3768.31, -4055.62, -4633.77, -3975.30, 0.000, 0.000, 0.000, 13:01:16.820
97, -3389.72, -3683.01, -4296.52, -3590.48, 0.000, 0.000, 0.000, 13:01:16.821
98, -2907.37, -3145.33, -3855.26, -3119.36, 0.000, 0.000, 0.000, 13:01:16.821
99, -3397.66, -3614.44, -4312.09, -3591.21, 0.000, 0.000, 0.000, 13:01:16.827
100, -3783.31, -4088.91, -4657.83, -3986.15, 0.000, 0.000, 0.000, 13:01:16.828
101, -3398.42, -3694.71, -4298.29, -3601.26, 0.000, 0.000, 0.000, 13:01:16.834
102, -2911.90, -3085.79, -3858.60, -3126.70, 0.000, 0.000, 0.000, 13:01:16.835
103, -3393.27, -3623.87, -4310.43, -3601.78, 0.000, 0.000, 0.000, 13:01:16.850
104, -3773.80, -4041.66, -4661.83, -3969.28, 0.000, 0.000, 0.000, 13:01:16.850
105, -3393.38, -3644.81, -4305.05, -3583.70, 0.000, 0.000, 0.000, 13:01:16.865
106, -2915.07, -3099.87, -3863.81, -3112.78, 0.000, 0.000, 0.000, 13:01:16.865
107, -3375.34, -3625.56, -4304.58, -3585.52, 0.000, 0.000, 0.000, 13:01:16.865
108, -3746.56, -4066.84, -4638.09, -3948.52, 0.000, 0.000, 0.000, 13:01:16.865
109, -3409.86, -3640.94, -4313.34, -3595.48, 0.000, 0.000, 0.000, 13:01:16.879
110, -2931.72, -3144.17, -3883.06, -3122.68, 0.000, 0.000, 0.000, 13:01:16.879
111, -3396.23, -3627.09, -4321.50, -3600.50, 0.000, 0.000, 0.000, 13:01:16.894
112, -3784.01, -4029.33, -4664.84, -3969.24, 0.000, 0.000, 0.000, 13:01:16.894
113, -3386.17, -3605.78, -4292.65, -3580.62, 0.000, 0.000, 0.000, 13:01:16.924
114, -2927.93, -3172.94, -3871.77, -3132.66, 0.000, 0.000, 0.000, 13:01:16.924
115, -3382.35, -3648.11, -4310.47, -3573.77, 0.000, 0.000, 0.000, 13:01:16.924
116, -3765.79, -4085.72, -4650.09, -3945.99, 0.000, 0.000, 0.000, 13:01:16.925
117, -3393.88, -3635.79, -4304.06, -3586.30, 0.000, 0.000, 0.000, 13:01:16.925
118, -2918.10, -3116.05, -3878.51, -3115.92, 0.000, 0.000, 0.000, 13:01:16.925
119, -3366.08, -3635.16, -4299.76, -3573.53, 0.000, 0.000, 0.000, 13:01:16.926
120, -3756.94, -4060.24, -4646.62, -3955.82, 0.000, 0.000, 0.000, 13:01:16.926
121, -3382.03, -3625.36, -4297.03, -3602.23, 0.000, 0.000, 0.000, 13:01:16.939
122, -2913.61, -3106.70, -3871.94, -3119.34, 0.000, 0.000, 0.000, 13:01:16.939
123, -3374.56, -3631.01, -4315.49, -3558.04, 0.000, 0.000, 0.000, 13:01:16.969
124, -3775.39, -4075.00, -4650.65, -3971.26, 0.000, 0.000, 0.000, 13:01:16.969
125, -3397.04, -3660.00, -4305.24, -3600.17, 0.000, 0.000, 0.000, 13:01:16.970
126, -2889.83, -3099.64, -3854.49, -3118.10, 0.000, 0.000, 0.000, 13:01:16.970
127, -3366.82, -3614.99, -4293.21, -3561.91, 0.000, 0.000, 0.000, 13:01:16.971
128, -3783.17, -4083.49, -4671.63, -3962.39, 0.000, 0.000, 0.000, 13:01:16.971
129, -3397.96, -3633.09, -4304.06, -3587.19, 0.000, 0.000, 0.000, 13:01:16.985
130, -2907.69, -3092.48, -3866.15, -3127.13, 0.000, 0.000, 0.000, 13:01:16.985
131, -3370.68, -3591.13, -4293.34, -3564.18, 0.000, 0.000, 0.000, 13:01:16.985
132, -3773.33, -4049.91, -4656.48, -3961.46, 0.000, 0.000, 0.000, 13:01:16.985
133, -3400.06, -3651.79, -4302.48, -3591.21, 0.000, 0.000, 0.000, 13:01:17.014
134, -2924.61, -3108.94, -3872.37, -3118.34, 0.000, 0.000, 0.000, 13:01:17.014
135, -3369.36, -3601.69, -4290.17, -3568.29, 0.000, 0.000, 0.000, 13:01:17.029
136, -3771.93, -4053.09, -4653.36, -3958.85, 0.000, 0.000, 0.000, 13:01:17.029
137, -3405.01, -3626.86, -4312.37, -3599.06, 0.000, 0.000, 0.000, 13:01:17.029
138, -2908.63, -3108.09, -3862.31, -3110.16, 0.000, 0.000, 0.000, 13:01:17.029
139, -3367.31, -3613.94, -4300.25, -3574.89, 0.000, 0.000, 0.000, 13:01:17.030
140, -3764.73, -4023.76, -4656.39, -3967.12, 0.000, 0.000, 0.000, 13:01:17.030
141, -3391.20, -3602.26, -4304.24, -3607.55, 0.000, 0.000, 0.000, 13:01:17.031
142, -2903.57, -3126.12, -3863.84, -3126.17, 0.000, 0.000, 0.000, 13:01:17.031
143, -3383.77, -3626.88, -4316.73, -3595.60, 0.000, 0.000, 0.000, 13:01:17.059
144, -3790.39, -4078.88, -4676.31, -3984.40, 0.000, 0.000, 0.000, 13:01:17.059
145, -3390.44, -3643.34, -4322.07, -3588.05, 0.000, 0.000, 0.000, 13:01:17.060
146, -2881.99, -3099.84, -3862.52, -3101.74, 0.000, 0.000, 0.000, 13:01:17.060
147, -3320.04, -3611.51, -4290.49, -3537.99, 0.000, 0.000, 0.000, 13:01:17.074
148, -3748.29, -4046.83, -4673.96, -3968.70, 0.000, 0.000, 0.000, 13:01:17.074
149, -3387.94, -3643.37, -4343.19, -3596.78, 0.000, 0.000, 0.000, 13:01:17.089
150, -2874.65, -3111.75, -3876.44, -3103.41, 0.000, 0.000, 0.000, 13:01:17.089
151, -3334.07, -3595.13, -4290.65, -3537.05, 0.000, 0.000, 0.000, 13:01:17.097
152, -3750.12, -4076.96, -4673.67, -3953.61, 0.000, 0.000, 0.000, 13:01:17.097
153, -3392.64, -3644.44, -4318.27, -3595.79, 0.000, 0.000, 0.000, 13:01:17.104
154, -2912.59, -3129.30, -3891.18, -3122.75, 0.000, 0.000, 0.000, 13:01:17.104
155, -3357.22, -3648.00, -4310.02, -3558.04, 0.000, 0.000, 0.000, 13:01:17.104
156, -3778.96, -4084.07, -4678.99, -3964.41, 0.000, 0.000, 0.000, 13:01:17.104
157, -3399.95, -3640.66, -4326.20, -3602.06, 0.000, 0.000, 0.000, 13:01:17.134
158, -2924.58, -3130.78, -3884.57, -3133.37, 0.000, 0.000, 0.000, 13:01:17.134
159, -3352.23, -3605.86, -4291.19, -3555.39, 0.000, 0.000, 0.000, 13:01:17.135
160, -3784.11, -4068.78, -4672.98, -3974.78, 0.000, 0.000, 0.000, 13:01:17.135
161, -3404.87, -3668.18, -4326.67, -3605.25, 0.000, 0.000, 0.000, 13:01:17.136
162, -2916.12, -3129.99, -3877.71, -3116.48, 0.000, 0.000, 0.000, 13:01:17.136
163, -3360.62, -3645.09, -4293.53, -3544.40, 0.000, 0.000, 0.000, 13:01:17.150
164, -3773.43, -4065.27, -4677.72, -3961.27, 0.000, 0.000, 0.000, 13:01:17.150
165, -3415.32, -3648.26, -4326.82, -3608.90, 0.000, 0.000, 0.000, 13:01:17.165
166, -2918.12, -3120.47, -3880.71, -3127.72, 0.000, 0.000, 0.000, 13:01:17.165
167, -3364.06, -3626.98, -4288.57, -3559.51, 0.000, 0.000, 0.000, 13:01:17.166
168, -3789.25, -4070.69, -4671.10, -3972.55, 0.000, 0.000, 0.000, 13:01:17.166
169, -3398.14, -3653.60, -4322.56, -3609.86, 0.000, 0.000, 0.000, 13:01:17.179
170, -2908.15, -3080.89, -3871.49, -3126.25, 0.000, 0.000, 0.000, 13:01:17.179
171, -3345.22, -3602.02, -4281.39, -3548.94, 0.000, 0.000, 0.000, 13:01:17.224
172, -3767.61, -4114.38, -4663.80, -3968.98, 0.000, 0.000, 0.000, 13:01:17.224
173, -3407.36, -3659.99, -4325.93, -3614.27, 0.000, 0.000, 0.000, 13:01:17.224
174, -2919.29, -3125.19, -3879.94, -3134.66, 0.000, 0.000, 0.000, 13:01:17.224
175, -3335.09, -3592.68, -4273.56, -3540.43, 0.000, 0.000, 0.000, 13:01:17.225
176, -3769.02, -4041.31, -4662.45, -3983.09, 0.000, 0.000, 0.000, 13:01:17.225
177, -3418.87, -3664.84, -4327.10, -3635.70, 0.000, 0.000, 0.000, 13:01:17.238
178, -2922.01, -3110.82, -3870.26, -3138.37, 0.000, 0.000, 0.000, 13:01:17.239
179, -3335.74, -3597.25, -4270.51, -3544.82, 0.000, 0.000, 0.000, 13:01:17.239
180, -3758.89, -4007.44, -4646.07, -3983.54, 0.000, 0.000, 0.000, 13:01:17.239
181, -3405.42, -3675.00, -4322.70, -3629.63, 0.000, 0.000, 0.000, 13:01:17.240
182, -2916.91, -3135.37, -3878.83, -3136.74, 0.000, 0.000, 0.000, 13:01:17.240
183, -3340.01, -3589.73, -4258.87, -3537.62, 0.000, 0.000, 0.000, 13:01:17.240
184, -3776.28, -4069.40, -4655.78, -3966.13, 0.000, 0.000, 0.000, 13:01:17.240
185, -3409.29, -3674.05, -4320.37, -3612.12, 0.000, 0.000, 0.000, 13:01:17.255
186, -2918.83, -3091.94, -3873.41, -3124.05, 0.000, 0.000, 0.000, 13:01:17.255
187, -3337.99, -3575.25, -4261.96, -3542.80, 0.000, 0.000, 0.000, 13:01:17.269
188, -3785.48, -4066.00, -4661.85, -3972.25, 0.000, 0.000, 0.000, 13:01:17.269
189, -3424.35, -3657.90, -4330.61, -3623.59, 0.000, 0.000, 0.000, 13:01:17.285
190, -2930.92, -3139.15, -3882.98, -3137.97, 0.000, 0.000, 0.000, 13:01:17.285
191, -3332.91, -3555.76, -4254.93, -3540.40, 0.000, 0.000, 0.000, 13:01:17.285
192, -3774.03, -4019.71, -4658.11, -3981.61, 0.000, 0.000, 0.000, 13:01:17.285
193, -3425.05, -3704.53, -4327.65, -3627.97, 0.000, 0.000, 0.000, 13:01:17.300
194, -2932.75, -3106.71, -3872.37, -3131.30, 0.000, 0.000, 0.000, 13:01:17.300
195, -3333.43, -3579.68, -4262.66, -3531.66, 0.000, 0.000, 0.000, 13:01:17.329
196, -3776.60, -4060.04, -4660.08, -3979.31, 0.000, 0.000, 0.000, 13:01:17.329
197, -3422.03, -3647.53, -4322.63, -3623.15, 0.000, 0.000, 0.000, 13:01:17.330
198, -2928.56, -3142.87, -3879.04, -3128.38, 0.000, 0.000, 0.000, 13:01:17.330
199, -3331.52, -3555.97, -4258.40, -3524.21, 0.000, 0.000, 0.000, 13:01:17.331
200, -3780.66, -4024.62, -4667.81, -3968.03, 0.000, 0.000, 0.000, 13:01:17.331
0, -3426.67, -3668.69, -4334.37, -3628.14, 0.000, 0.000, 0.000, 13:01:17.331
1, -2930.25, -3118.02, -3885.37, -3127.43, 0.000, 0.000, 0.000, 13:01:17.344
2, -3329.59, -3587.85, -4259.44, -3526.25, 0.000, 0.000, 0.000, 13:01:17.344
3, -3782.21, -3996.31, -4663.22, -3968.04, 0.000, 0.000, 0.000, 13:01:17.359
4, -3431.95, -3697.91, -4341.71, -3621.58, 0.000, 0.000, 0.000, 13:01:17.359
5, -2932.71, -3122.04, -3881.01, -3117.76, 0.000, 0.000, 0.000, 13:01:17.374
6, -3325.70, -3553.50, -4250.40, -3508.20, 0.000, 0.000, 0.000, 13:01:17.374
7, -3789.04, -4053.69, -4670.22, -3973.51, 0.000, 0.000, 0.000, 13:01:17.375
8, -3434.84, -3668.51, -4349.14, -3626.27, 0.000, 0.000, 0.000, 13:01:17.375
9, -2933.20, -3141.48, -3881.15, -3133.10, 0.000, 0.000, 0.000, 13:01:17.389
10, -3326.67, -3560.81, -4251.37, -3516.52, 0.000, 0.000, 0.000, 13:01:17.389
11, -3789.12, -4047.42, -4668.13, -3974.78, 0.000, 0.000, 0.000, 13:01:17.390
12, -3422.84, -3667.68, -4335.77, -3634.98, 0.000, 0.000, 0.000, 13:01:17.390
13, -2922.77, -3127.97, -3875.36, -3133.75, 0.000, 0.000, 0.000, 13:01:17.404
14, -3317.00, -3570.28, -4237.06, -3511.95, 0.000, 0.000, 0.000, 13:01:17.404
15, -3774.59, -4041.46, -4654.05, -3970.96, 0.000, 0.000, 0.000, 13:01:17.419
16, -3418.44, -3674.58, -4329.37, -3632.14, 0.000, 0.000, 0.000, 13:01:17.419
17, -2925.34, -3131.15, -3882.09, -3139.97, 0.000, 0.000, 0.000, 13:01:17.420
18, -3326.68, -3558.64, -4256.85, -3535.02, 0.000, 0.000, 0.000, 13:01:17.420
19, -3805.57, -4073.64, -4682.18, -3996.01, 0.000, 0.000, 0.000, 13:01:17.434
20, -3431.83, -3696.40, -4347.34, -3613.05, 0.000, 0.000, 0.000, 13:01:17.434
21, -2918.21, -3124.70, -3885.52, -3124.83, 0.000, 0.000, 0.000, 13:01:17.449
22, -3300.08, -3543.02, -4241.98, -3504.91, 0.000, 0.000, 0.000, 13:01:17.449
23, -3780.82, -4063.38, -4683.56, -3970.18, 0.000, 0.000, 0.000, 13:01:17.450
24, -3426.34, -3657.67, -4353.77, -3620.90, 0.000, 0.000, 0.000, 13:01:17.450
25, -2926.16, -3127.44, -3885.63, -3129.78, 0.000, 0.000, 0.000, 13:01:17.479
26, -3302.95, -3536.03, -4237.25, -3494.75, 0.000, 0.000, 0.000, 13:01:17.479
27, -3783.34, -4057.76, -4661.98, -3969.86, 0.000, 0.000, 0.000, 13:01:17.480
28, -3430.72, -3660.54, -4344.37, -3634.42, 0.000, 0.000, 0.000, 13:01:17.480
29, -2928.78, -3126.82, -3885.31, -3146.30, 0.000, 0.000, 0.000, 13:01:17.481
30, -3300.30, -3546.89, -4244.22, -3500.32, 0.000, 0.000, 0.000, 13:01:17.481
31, -3786.18, -4096.33, -4675.44, -3973.71, 0.000, 0.000, 0.000, 13:01:17.494
32, -3438.31, -3703.09, -4355.07, -3637.35, 0.000, 0.000, 0.000, 13:01:17.494
33, -2929.06, -3130.55, -3884.36, -3148.23, 0.000, 0.000, 0.000, 13:01:17.524
34, -3300.01, -3529.75, -4252.33, -3493.84, 0.000, 0.000, 0.000, 13:01:17.524
35, -3791.42, -4071.65, -4679.11, -3970.56, 0.000, 0.000, 0.000, 13:01:17.524
36, -3443.82, -3696.56, -4346.61, -3639.48, 0.000, 0.000, 0.000, 13:01:17.524
37, -2937.91, -3169.49, -3893.28, -3138.03, 0.000, 0.000, 0.000, 13:01:17.525
38, -3297.56, -3509.82, -4245.31, -3492.42, 0.000, 0.000, 0.000, 13:01:17.525
39, -3783.35, -4033.44, -4668.08, -3959.55, 0.000, 0.000, 0.000, 13:01:17.533
40, -3431.63, -3678.46, -4345.54, -3640.30, 0.000, 0.000, 0.000, 13:01:17.533
41, -2946.23, -3147.57, -3891.97, -3145.98, 0.000, 0.000, 0.000, 13:01:17.539
42, -3291.83, -3530.03, -4230.43, -3492.68, 0.000, 0.000, 0.000, 13:01:17.539
43, -3774.20, -4032.37, -4669.75, -3979.40, 0.000, 0.000, 0.000, 13:01:17.569
44, -3456.46, -3717.02, -4367.74, -3641.57, 0.000, 0.000, 0.000, 13:01:17.569
45, -2932.62, -3145.03, -3883.67, -3126.36, 0.000, 0.000, 0.000, 13:01:17.570
46, -3290.33, -3552.68, -4226.57, -3495.84, 0.000, 0.000, 0.000, 13:01:17.570
47, -3781.29, -4051.58, -4668.11, -3982.30, 0.000, 0.000, 0.000, 13:01:17.571
48, -3431.98, -3645.14, -4349.85, -3640.96, 0.000, 0.000, 0.000, 13:01:17.571
49, -2932.20, -3156.80, -3888.54, -3140.61, 0.000, 0.000, 0.000, 13:01:17.584
50, -3298.04, -3526.12, -4225.06, -3489.71, 0.000, 0.000, 0.000, 13:01:17.584
51, -3787.00, -4069.44, -4669.37, -3977.59, 0.000, 0.000, 0.000, 13:01:17.644
52, -3438.74, -3673.17, -4357.66, -3640.56, 0.000, 0.000, 0.000, 13:01:17.644
53, -2940.91, -3136.94, -3894.73, -3143.31, 0.000, 0.000, 0.000, 13:01:17.645
54, -3298.94, -3542.75, -4255.60, -3483.88, 0.000, 0.000, 0.000, 13:01:17.645
55, -3788.07, -4071.10, -4693.61, -3976.33, 0.000, 0.000, 0.000, 13:01:17.645
56, -3437.22, -3676.36, -4331.08, -3650.02, 0.000, 0.000, 0.000, 13:01:17.646
57, -2929.93, -3136.03, -3884.80, -3141.78, 0.000, 0.000, 0.000, 13:01:17.646
58, -3279.46, -3525.00, -4217.61, -3489.64, 0.000, 0.000, 0.000, 13:01:17.646
59, -3784.05, -4084.21, -4679.54, -3968.73, 0.000, 0.000, 0.000, 13:01:17.648
60, -3438.39, -3701.65, -4348.00, -3642.48, 0.000, 0.000, 0.000, 13:01:17.648
61, -2914.92, -3131.96, -3873.74, -3139.00, 0.000, 0.000, 0.000, 13:01:17.674
62, -3280.66, -3540.61, -4216.26, -3473.04, 0.000, 0.000, 0.000, 13:01:17.674
63, -3779.92, -4060.29, -4670.51, -3980.30, 0.000, 0.000, 0.000, 13:01:17.690
64, -3437.79, -3723.52, -4355.82, -3631.43, 0.000, 0.000, 0.000, 13:01:17.690
65, -2924.31, -3130.43, -3877.84, -3140.00, 0.000, 0.000, 0.000, 13:01:17.690
66, -3243.94, -3512.91, -4196.25, -3468.73, 0.000, 0.000, 0.000, 13:01:17.690
67, -3758.08, -4047.33, -4669.30, -3967.44, 0.000, 0.000, 0.000, 13:01:17.690
68, -3406.43, -3698.93, -4344.93, -3640.67, 0.000, 0.000, 0.000, 13:01:17.690
69, -2899.41, -3145.85, -3876.68, -3144.36, 0.000, 0.000, 0.000, 13:01:17.692
70, -3210.46, -3488.69, -4166.83, -3476.77, 0.000, 0.000, 0.000, 13:01:17.692
71, -3698.32, -4038.56, -4628.46, -3972.18, 0.000, 0.000, 0.000, 13:01:17.704
72, -3368.25, -3743.71, -4330.70, -3659.36, 0.000, 0.000, 0.000, 13:01:17.704
73, -2819.71, -3205.49, -3862.16, -3145.43, 0.000, 0.000, 0.000, 13:01:17.734
74, -3133.42, -3513.88, -4182.59, -3467.72, 0.000, 0.000, 0.000, 13:01:17.734
75, -3640.61, -4136.78, -4658.92, -3982.22, 0.000, 0.000, 0.000, 13:01:17.735
76, -3296.90, -3758.74, -4352.96, -3638.46, 0.000, 0.000, 0.000, 13:01:17.735
77, -2780.95, -3241.02, -3879.95, -3117.24, 0.000, 0.000, 0.000, 13:01:17.736
78, -3109.06, -3536.86, -4180.09, -3442.70, 0.000, 0.000, 0.000, 13:01:17.736
79, -3629.72, -4153.72, -4674.72, -3955.37, 0.000, 0.000, 0.000, 13:01:17.736
80, -3303.48, -3780.82, -4364.71, -3609.71, 0.000, 0.000, 0.000, 13:01:17.736
81, -2766.45, -3160.64, -3865.15, -3103.28, 0.000, 0.000, 0.000, 13:01:17.738
82, -3113.66, -3558.77, -4195.73, -3455.95, 0.000, 0.000, 0.000, 13:01:17.738
83, -3651.18, -4169.21, -4680.67, -3952.42, 0.000, 0.000, 0.000, 13:01:17.764
84, -3329.90, -3775.53, -4371.07, -3614.94, 0.000, 0.000, 0.000, 13:01:17.764
85, -2820.57, -3169.08, -3909.01, -3118.51, 0.000, 0.000, 0.000, 13:01:17.764
86, -3135.97, -3549.62, -4204.22, -3437.18, 0.000, 0.000, 0.000, 13:01:17.765
87, -3659.34, -4073.56, -4662.46, -3970.66, 0.000, 0.000, 0.000, 13:01:17.780
88, -3367.75, -3749.68, -4406.54, -3626.48, 0.000, 0.000, 0.000, 13:01:17.780
89, -2871.66, -3204.76, -3939.21, -3109.42, 0.000, 0.000, 0.000, 13:01:17.781
90, -3164.81, -3536.97, -4225.49, -3431.95, 0.000, 0.000, 0.000, 13:01:17.781
91, -3712.33, -4131.71, -4708.00, -3963.77, 0.000, 0.000, 0.000, 13:01:17.794
92, -3372.36, -3770.26, -4397.16, -3625.15, 0.000, 0.000, 0.000, 13:01:17.794
93, -2867.34, -3167.06, -3942.96, -3113.98, 0.000, 0.000, 0.000, 13:01:17.808
94, -3206.64, -3526.35, -4253.50, -3427.57, 0.000, 0.000, 0.000, 13:01:17.809
95, -3733.98, -4102.28, -4713.78, -3945.60, 0.000, 0.000, 0.000, 13:01:17.809
96, -3413.94, -3736.26, -4412.39, -3638.26, 0.000, 0.000, 0.000, 13:01:17.809
97, -2904.32, -3133.94, -3925.88, -3118.55, 0.000, 0.000, 0.000, 13:01:17.824
98, -3252.16, -3519.90, -4241.78, -3421.84, 0.000, 0.000, 0.000, 13:01:17.824
99, -3773.53, -4064.60, -4723.57, -3948.26, 0.000, 0.000, 0.000, 13:01:17.839
100, -3452.03, -3623.37, -4423.80, -3633.11, 0.000, 0.000, 0.000, 13:01:17.839
101, -2950.62, -3161.67, -3961.32, -3122.76, 0.000, 0.000, 0.000, 13:01:17.840
102, -3273.18, -3483.53, -4251.34, -3416.81, 0.000, 0.000, 0.000, 13:01:17.840
103, -3800.52, -4039.32, -4717.51, -3943.73, 0.000, 0.000, 0.000, 13:01:17.854
104, -3490.97, -3678.47, -4434.50, -3614.08, 0.000, 0.000, 0.000, 13:01:17.854
105, -2996.37, -3151.89, -3984.91, -3115.40, 0.000, 0.000, 0.000, 13:01:17.884
106, -3304.87, -3489.11, -4270.54, -3410.01, 0.000, 0.000, 0.000, 13:01:17.884
107, -3844.25, -4088.95, -4732.19, -3950.25, 0.000, 0.000, 0.000, 13:01:17.884
108, -3515.36, -3699.00, -4432.48, -3623.16, 0.000, 0.000, 0.000, 13:01:17.884
109, -3028.44, -3186.94, -3973.02, -3115.10, 0.000, 0.000, 0.000, 13:01:17.886
110, -3338.48, -3457.68, -4274.74, -3417.20, 0.000, 0.000, 0.000, 13:01:17.886
111, -3867.93, -4037.93, -4752.02, -3944.26, 0.000, 0.000, 0.000, 13:01:17.886
112, -3571.09, -3649.00, -4457.81, -3645.51, 0.000, 0.000, 0.000, 13:01:17.886
113, -3044.13, -3083.93, -3981.54, -3112.75, 0.000, 0.000, 0.000, 13:01:17.899
114, -3336.69, -3467.41, -4235.96, -3409.14, 0.000, 0.000, 0.000, 13:01:17.899
115, -3865.10, -3963.82, -4712.08, -3954.03, 0.000, 0.000, 0.000, 13:01:17.914
116, -3553.68, -3632.79, -4431.10, -3643.59, 0.000, 0.000, 0.000, 13:01:17.914
117, -3046.69, -3182.96, -3968.52, -3144.28, 0.000, 0.000, 0.000, 13:01:17.929
118, -3356.36, -3454.53, -4237.32, -3421.23, 0.000, 0.000, 0.000, 13:01:17.929
119, -3879.31, -4022.90, -4740.18, -3955.33, 0.000, 0.000, 0.000, 13:01:17.929
120, -3568.90, -3746.47, -4428.98, -3667.23, 0.000, 0.000, 0.000, 13:01:17.929
121, -3039.13, -3111.99, -3916.66, -3151.42, 0.000, 0.000, 0.000, 13:01:17.944
122, -3338.95, -3502.07, -4224.02, -3419.97, 0.000, 0.000, 0.000, 13:01:17.944
123, -3868.29, -4038.27, -4718.53, -3951.45, 0.000, 0.000, 0.000, 13:01:17.974
124, -3558.86, -3738.61, -4422.73, -3659.45, 0.000, 0.000, 0.000, 13:01:17.974
125, -3021.70, -3143.78, -3926.89, -3155.83, 0.000, 0.000, 0.000, 13:01:17.975
126, -3323.84, -3455.27, -4201.90, -3432.53, 0.000, 0.000, 0.000, 13:01:17.975
127, -3864.91, -4035.90, -4701.71, -3972.67, 0.000, 0.000, 0.000, 13:01:17.989
128, -3534.58, -3724.22, -4398.07, -3669.55, 0.000, 0.000, 0.000, 13:01:17.989
129, -3020.77, -3175.81, -3950.19, -3169.32, 0.000, 0.000, 0.000, 13:01:17.991
130, -3314.49, -3503.56, -4238.86, -3431.45, 0.000, 0.000, 0.000, 13:01:17.991
131, -3820.20, -4040.10, -4669.85, -3966.81, 0.000, 0.000, 0.000, 13:01:17.991
132, -3524.85, -3716.09, -4394.30, -3690.77, 0.000, 0.000, 0.000, 13:01:17.991
133, -3014.45, -3153.29, -3950.97, -3176.37, 0.000, 0.000, 0.000, 13:01:18.004
134, -3295.33, -3496.82, -4200.77, -3449.73, 0.000, 0.000, 0.000, 13:01:18.006
135, -3836.81, -4089.49, -4712.28, -3973.65, 0.000, 0.000, 0.000, 13:01:18.034
136, -3519.13, -3706.75, -4408.86, -3673.95, 0.000, 0.000, 0.000, 13:01:18.034
137, -2996.10, -3176.45, -3920.82, -3168.97, 0.000, 0.000, 0.000, 13:01:18.034
138, -3253.83, -3458.85, -4163.64, -3441.90, 0.000, 0.000, 0.000, 13:01:18.034
139, -3816.52, -4039.42, -4688.93, -3978.08, 0.000, 0.000, 0.000, 13:01:18.035
140, -3492.68, -3700.37, -4397.03, -3640.04, 0.000, 0.000, 0.000, 13:01:18.035
141, -2984.60, -3179.00, -3924.01, -3154.21, 0.000, 0.000, 0.000, 13:01:18.036
142, -3260.13, -3473.69, -4189.07, -3429.60, 0.000, 0.000, 0.000, 13:01:18.037
143, -3813.25, -4022.32, -4703.02, -3976.60, 0.000, 0.000, 0.000, 13:01:18.050
144, -3502.42, -3763.03, -4390.05, -3671.22, 0.000, 0.000, 0.000, 13:01:18.050
145, -2981.68, -3170.17, -3914.32, -3162.06, 0.000, 0.000, 0.000, 13:01:18.079
146, -3244.49, -3486.94, -4182.79, -3420.83, 0.000, 0.000, 0.000, 13:01:18.079
147, -3790.01, -4025.55, -4667.73, -3972.58, 0.000, 0.000, 0.000, 13:01:18.080
148, -3503.37, -3744.95, -4408.39, -3679.57, 0.000, 0.000, 0.000, 13:01:18.080
149, -2989.36, -3150.29, -3930.37, -3170.82, 0.000, 0.000, 0.000, 13:01:18.081
150, -3241.31, -3446.88, -4171.47, -3428.92, 0.000, 0.000, 0.000, 13:01:18.081
151, -3806.94, -4092.87, -4686.50, -3995.25, 0.000, 0.000, 0.000, 13:01:18.094
152, -3506.73, -3784.23, -4399.12, -3658.44, 0.000, 0.000, 0.000, 13:01:18.094
153, -2955.74, -3138.17, -3916.47, -3133.39, 0.000, 0.000, 0.000, 13:01:18.125
154, -3217.94, -3440.03, -4160.97, -3395.30, 0.000, 0.000, 0.000, 13:01:18.125
155, -3811.28, -4066.59, -4703.48, -3971.41, 0.000, 0.000, 0.000, 13:01:18.126
156, -3498.75, -3716.39, -4411.78, -3656.06, 0.000, 0.000, 0.000, 13:01:18.126
157, -2984.20, -3169.02, -3936.34, -3153.55, 0.000, 0.000, 0.000, 13:01:18.126
158, -3233.15, -3465.31, -4164.51, -3395.00, 0.000, 0.000, 0.000, 13:01:18.126
159, -3802.72, -4073.35, -4682.07, -3971.81, 0.000, 0.000, 0.000, 13:01:18.139
160, -3497.67, -3696.13, -4391.67, -3668.39, 0.000, 0.000, 0.000, 13:01:18.139
161, -2972.73, -3170.70, -3923.04, -3155.77, 0.000, 0.000, 0.000, 13:01:18.140
162, -3202.92, -3378.83, -4131.81, -3387.90, 0.000, 0.000, 0.000, 13:01:18.140
163, -3807.12, -4095.88, -4693.73, -3980.68, 0.000, 0.000, 0.000, 13:01:18.169
164, -3496.02, -3755.08, -4402.90, -3674.63, 0.000, 0.000, 0.000, 13:01:18.169
165, -2975.57, -3147.70, -3925.32, -3156.10, 0.000, 0.000, 0.000, 13:01:18.171
166, -3204.66, -3397.62, -4146.83, -3396.83, 0.000, 0.000, 0.000, 13:01:18.171
167, -3813.62, -4110.52, -4708.15, -3991.27, 0.000, 0.000, 0.000, 13:01:18.201
168, -3488.36, -3716.75, -4389.79, -3672.35, 0.000, 0.000, 0.000, 13:01:18.201
169, -2978.06, -3167.54, -3923.91, -3158.95, 0.000, 0.000, 0.000, 13:01:18.201
170, -3222.92, -3453.83, -4158.29, -3408.00, 0.000, 0.000, 0.000, 13:01:18.201
171, -3815.04, -4081.46, -4693.73, -4003.45, 0.000, 0.000, 0.000, 13:01:18.203
172, -3503.04, -3722.35, -4392.29, -3687.75, 0.000, 0.000, 0.000, 13:01:18.203
173, -2991.91, -3183.20, -3928.54, -3171.65, 0.000, 0.000, 0.000, 13:01:18.204
174, -3232.17, -3419.92, -4161.86, -3409.49, 0.000, 0.000, 0.000, 13:01:18.204
175, -3804.02, -4127.88, -4706.89, -3981.82, 0.000, 0.000, 0.000, 13:01:18.229
176, -3478.66, -3738.55, -4388.75, -3680.34, 0.000, 0.000, 0.000, 13:01:18.229
177, -2955.58, -3129.32, -3905.49, -3164.62, 0.000, 0.000, 0.000, 13:01:18.230
178, -3170.38, -3502.74, -4139.87, -3400.36, 0.000, 0.000, 0.000, 13:01:18.230
179, -3792.23, -4068.41, -4685.42, -3975.95, 0.000, 0.000, 0.000, 13:01:18.244
180, -3446.62, -3765.88, -4383.29, -3709.78, 0.000, 0.000, 0.000, 13:01:18.244
181, -2910.67, -3179.67, -3928.36, -3112.59, 0.000, 0.000, 0.000, 13:01:18.244
182, -3106.74, -3414.33, -4121.33, -3410.20, 0.000, 0.000, 0.000, 13:01:18.244
183, -3677.94, -4182.57, -4662.69, -3991.84, 0.000, 0.000, 0.000, 13:01:18.259
184, -3375.60, -3782.45, -4391.68, -3641.44, 0.000, 0.000, 0.000, 13:01:18.259
185, -2812.35, -3229.48, -3900.07, -3157.34, 0.000, 0.000, 0.000, 13:01:18.273
186, -2996.94, -3505.69, -4114.82, -3345.44, 0.000, 0.000, 0.000, 13:01:18.274
187, -3590.50, -4162.03, -4661.32, -3921.59, 0.000, 0.000, 0.000, 13:01:18.274
188, -3297.71, -3840.04, -4388.11, -3674.84, 0.000, 0.000, 0.000, 13:01:18.274
189, -2751.21, -3268.80, -3892.14, -3145.89, 0.000, 0.000, 0.000, 13:01:18.289
190, -3009.29, -3566.20, -4118.99, -3363.99, 0.000, 0.000, 0.000, 13:01:18.289
191, -3619.02, -4187.24, -4651.60, -3935.56, 0.000, 0.000, 0.000, 13:01:18.290
192, -3332.81, -3837.98, -4370.65, -3632.89, 0.000, 0.000, 0.000, 13:01:18.290
193, -2820.76, -3300.50, -3892.68, -3130.16, 0.000, 0.000, 0.000, 13:01:18.335
194, -3050.77, -3491.32, -4091.88, -3355.49, 0.000, 0.000, 0.000, 13:01:18.335
195, -3646.56, -4084.92, -4635.59, -3953.00, 0.000, 0.000, 0.000, 13:01:18.336
196, -3386.07, -3800.28, -4385.89, -3660.98, 0.000, 0.000, 0.000, 13:01:18.336
197, -2893.94, -3250.74, -3907.80, -3187.33, 0.000, 0.000, 0.000, 13:01:18.336
198, -3108.50, -3491.43, -4096.36, -3367.95, 0.000, 0.000, 0.000, 13:01:18.336
199, -3724.47, -4127.28, -4655.76, -3966.58, 0.000, 0.000, 0.000, 13:01:18.338
200, -3478.15, -3815.18, -4405.48, -3713.92, 0.000, 0.000, 0.000, 13:01:18.338
0, -2967.07, -3200.08, -3913.29, -3193.73, 0.000, 0.000, 0.000, 13:01:18.338
1, -3211.84, -3436.85, -4144.00, -3418.63, 0.000, 0.000, 0.000, 13:01:18.349
2, -3820.88, -4061.39, -4673.09, -3994.47, 0.000, 0.000, 0.000, 13:01:18.350
3, -3532.35, -3710.81, -4386.02, -3714.36, 0.000, 0.000, 0.000, 13:01:18.364
4, -3041.89, -3204.84, -3924.65, -3218.54, 0.000, 0.000, 0.000, 13:01:18.364
5, -3244.22, -3332.67, -4116.40, -3425.81, 0.000, 0.000, 0.000, 13:01:18.364
6, -3860.56, -4080.72, -4674.67, -4011.95, 0.000, 0.000, 0.000, 13:01:18.364
7, -3596.13, -3748.14, -4415.58, -3745.97, 0.000, 0.000, 0.000, 13:01:18.379
8, -3077.33, -3203.87, -3921.86, -3222.20, 0.000, 0.000, 0.000, 13:01:18.379
9, -3285.25, -3368.84, -4141.33, -3409.32, 0.000, 0.000, 0.000, 13:01:18.394
10, -3876.17, -4020.16, -4670.04, -4011.11, 0.000, 0.000, 0.000, 13:01:18.394
11, -3617.73, -3671.53, -4421.03, -3730.42, 0.000, 0.000, 0.000, 13:01:18.395
12, -3092.76, -3205.95, -3961.70, -3227.28, 0.000, 0.000, 0.000, 13:01:18.395
13, -3282.67, -3343.58, -4143.06, -3408.59, 0.000, 0.000, 0.000, 13:01:18.409
14, -3875.04, -3974.08, -4689.44, -4007.02, 0.000, 0.000, 0.000, 13:01:18.409
15, -3618.17, -3659.19, -4428.74, -3735.73, 0.000, 0.000, 0.000, 13:01:18.439
16, -3095.92, -3142.01, -3954.90, -3230.92, 0.000, 0.000, 0.000, 13:01:18.439
17, -3271.96, -3306.99, -4131.54, -3399.45, 0.000, 0.000, 0.000, 13:01:18.440
18, -3905.30, -4068.27, -4715.72, -4025.92, 0.000, 0.000, 0.000, 13:01:18.440
19, -3604.72, -3694.17, -4438.28, -3729.76, 0.000, 0.000, 0.000, 13:01:18.441
20, -3078.59, -3180.91, -3947.66, -3225.39, 0.000, 0.000, 0.000, 13:01:18.441
21, -3272.76, -3321.12, -4134.30, -3406.33, 0.000, 0.000, 0.000, 13:01:18.441
22, -3855.79, -3995.86, -4668.61, -3994.65, 0.000, 0.000, 0.000, 13:01:18.441
23, -3584.01, -3737.14, -4432.11, -3724.61, 0.000, 0.000, 0.000, 13:01:18.454
24, -3040.33, -3120.89, -3933.17, -3187.26, 0.000, 0.000, 0.000, 13:01:18.454
25, -3257.79, -3392.73, -4159.55, -3399.92, 0.000, 0.000, 0.000, 13:01:18.485
26, -3861.63, -4037.74, -4695.63, -4002.73, 0.000, 0.000, 0.000, 13:01:18.485
27, -3580.52, -3770.43, -4440.01, -3723.67, 0.000, 0.000, 0.000, 13:01:18.485
28, -3051.68, -3186.88, -3962.07, -3209.08, 0.000, 0.000, 0.000, 13:01:18.486
29, -3234.80, -3390.98, -4132.72, -3389.52, 0.000, 0.000, 0.000, 13:01:18.486
30, -3854.46, -4058.17, -4705.14, -4004.02, 0.000, 0.000, 0.000, 13:01:18.486
31, -3539.85, -3741.81, -4401.76, -3698.76, 0.000, 0.000, 0.000, 13:01:18.500
32, -3030.14, -3192.05, -3942.13, -3209.43, 0.000, 0.000, 0.000, 13:01:18.500
33, -3235.17, -3434.55, -4141.54, -3399.81, 0.000, 0.000, 0.000, 13:01:18.514
34, -3822.27, -4061.08, -4682.81, -3987.04, 0.000, 0.000, 0.000, 13:01:18.514
35, -3554.05, -3769.45, -4423.71, -3714.52, 0.000, 0.000, 0.000, 13:01:18.529
36, -3043.58, -3215.99, -3962.61, -3209.76, 0.000, 0.000, 0.000, 13:01:18.529
37, -3196.50, -3374.35, -4116.42, -3357.40, 0.000, 0.000, 0.000, 13:01:18.529
38, -3818.39, -4070.54, -4685.62, -3985.35, 0.000, 0.000, 0.000, 13:01:18.530
39, -3543.31, -3793.22, -4430.09, -3721.64, 0.000, 0.000, 0.000, 13:01:18.543
40, -3039.56, -3258.18, -3967.61, -3211.74, 0.000, 0.000, 0.000, 13:01:18.544
41, -3218.66, -3409.84, -4136.25, -3370.14, 0.000, 0.000, 0.000, 13:01:18.544
42, -3766.30, -4041.58, -4632.63, -3959.83, 0.000, 0.000, 0.000, 13:01:18.544
43, -3524.76, -3783.33, -4404.38, -3724.98, 0.000, 0.000, 0.000, 13:01:18.559
44, -2993.74, -3190.14, -3910.99, -3192.23, 0.000, 0.000, 0.000, 13:01:18.559
45, -3186.02, -3395.20, -4106.28, -3390.79, 0.000, 0.000, 0.000, 13:01:18.604
46, -3786.26, -4051.02, -4659.60, -3989.48, 0.000, 0.000, 0.000, 13:01:18.604
47, -3532.08, -3765.78, -4418.17, -3731.61, 0.000, 0.000, 0.000, 13:01:18.606
48, -3002.72, -3164.44, -3921.91, -3209.14, 0.000, 0.000, 0.000, 13:01:18.606
49, -3161.42, -3351.16, -4070.88, -3364.69, 0.000, 0.000, 0.000, 13:01:18.606
50, -3800.46, -4092.87, -4660.63, -3986.93, 0.000, 0.000, 0.000, 13:01:18.606
51, -3537.54, -3779.61, -4426.16, -3726.53, 0.000, 0.000, 0.000, 13:01:18.607
52, -3015.74, -3220.25, -3935.61, -3203.90, 0.000, 0.000, 0.000, 13:01:18.607
53, -3175.72, -3392.01, -4110.85, -3373.71, 0.000, 0.000, 0.000, 13:01:18.607
54, -3794.64, -4087.45, -4680.47, -3989.54, 0.000, 0.000, 0.000, 13:01:18.607
55, -3523.62, -3788.51, -4424.20, -3709.63, 0.000, 0.000, 0.000, 13:01:18.635
56, -3027.26, -3216.54, -3932.79, -3204.76, 0.000, 0.000, 0.000, 13:01:18.635
57, -3185.25, -3443.90, -4122.77, -3369.48, 0.000, 0.000, 0.000, 13:01:18.635
58, -3798.29, -4085.59, -4676.78, -3985.88, 0.000, 0.000, 0.000, 13:01:18.635
59, -3517.08, -3720.91, -4416.65, -3722.31, 0.000, 0.000, 0.000, 13:01:18.636
60, -3008.93, -3241.04, -3958.51, -3214.92, 0.000, 0.000, 0.000, 13:01:18.636
61, -3174.45, -3433.10, -4102.33, -3360.23, 0.000, 0.000, 0.000, 13:01:18.649
62, -3779.71, -4088.01, -4664.51, -3972.45, 0.000, 0.000, 0.000, 13:01:18.649
63, -3552.52, -3766.11, -4452.81, -3729.59, 0.000, 0.000, 0.000, 13:01:18.694
64, -3030.84, -3244.60, -3950.54, -3208.56, 0.000, 0.000, 0.000, 13:01:18.694
65, -3155.19, -3381.44, -4091.01, -3357.42, 0.000, 0.000, 0.000, 13:01:18.695
66, -3773.76, -4075.21, -4674.74, -3975.67, 0.000, 0.000, 0.000, 13:01:18.695
67, -3509.59, -3838.27, -4429.31, -3713.24, 0.000, 0.000, 0.000, 13:01:18.696
68, -3025.59, -3246.06, -3967.16, -3205.18, 0.000, 0.000, 0.000, 13:01:18.696
69, -3154.88, -3284.61, -4067.75, -3340.36, 0.000, 0.000, 0.000, 13:01:18.739
70, -3764.67, -3978.53, -4640.68, -3962.57, 0.000, 0.000, 0.000, 13:01:18.739
71, -3538.56, -3846.61, -4456.34, -3719.68, 0.000, 0.000, 0.000, 13:01:18.740
72, -3007.90, -3225.92, -3958.60, -3207.62, 0.000, 0.000, 0.000, 13:01:18.740
73, -3142.67, -3367.00, -4072.94, -3335.97, 0.000, 0.000, 0.000, 13:01:18.741
74, -3781.51, -4061.00, -4668.19, -3964.66, 0.000, 0.000, 0.000, 13:01:18.741
75, -3523.32, -3759.30, -4419.10, -3719.93, 0.000, 0.000, 0.000, 13:01:18.741
76, -2996.63, -3178.86, -3931.33, -3202.73, 0.000, 0.000, 0.000, 13:01:18.741
77, -3142.25, -3337.37, -4086.95, -3327.41, 0.000, 0.000, 0.000, 13:01:18.742
78, -3769.16, -4001.95, -4664.21, -3960.81, 0.000, 0.000, 0.000, 13:01:18.742
79, -3515.88, -3725.67, -4412.69, -3732.24, 0.000, 0.000, 0.000, 13:01:18.743
80, -3006.27, -3182.45, -3935.56, -3193.39, 0.000, 0.000, 0.000, 13:01:18.743
81, -3143.85, -3339.34, -4080.54, -3330.63, 0.000, 0.000, 0.000, 13:01:18.743
82, -3773.07, -4063.52, -4665.20, -3967.29, 0.000, 0.000, 0.000, 13:01:18.743
83, -3521.32, -3778.21, -4404.64, -3720.26, 0.000, 0.000, 0.000, 13:01:18.754
84, -3006.31, -3215.63, -3921.75, -3206.82, 0.000, 0.000, 0.000, 13:01:18.754
85, -3140.39, -3364.31, -4090.61, -3331.30, 0.000, 0.000, 0.000, 13:01:18.799
86, -3779.89, -4111.83, -4693.97, -3962.23, 0.000, 0.000, 0.000, 13:01:18.800
87, -3524.62, -3752.39, -4428.81, -3716.19, 0.000, 0.000, 0.000, 13:01:18.800
88, -3011.17, -3240.38, -3949.97, -3224.05, 0.000, 0.000, 0.000, 13:01:18.800
89, -3130.95, -3345.07, -4071.05, -3336.23, 0.000, 0.000, 0.000, 13:01:18.801
90, -3771.74, -4065.22, -4653.29, -3981.45, 0.000, 0.000, 0.000, 13:01:18.801
91, -3528.30, -3786.59, -4447.84, -3710.91, 0.000, 0.000, 0.000, 13:01:18.801
92, -3039.10, -3279.65, -3979.77, -3207.54, 0.000, 0.000, 0.000, 13:01:18.801
93, -3142.76, -3397.51, -4106.37, -3344.45, 0.000, 0.000, 0.000, 13:01:18.802
94, -3763.17, -4044.44, -4649.17, -3958.94, 0.000, 0.000, 0.000, 13:01:18.802
95, -3548.34, -3853.72, -4442.37, -3756.39, 0.000, 0.000, 0.000, 13:01:18.829
96, -3005.14, -3205.47, -3966.00, -3210.28, 0.000, 0.000, 0.000, 13:01:18.829
97, -3139.42, -3378.40, -4085.46, -3339.77, 0.000, 0.000, 0.000, 13:01:18.829
98, -3773.22, -4067.72, -4662.48, -3958.09, 0.000, 0.000, 0.000, 13:01:18.829
99, -3550.79, -3869.84, -4457.84, -3737.59, 0.000, 0.000, 0.000, 13:01:18.844
100, -3039.77, -3256.85, -3989.86, -3226.90, 0.000, 0.000, 0.000, 13:01:18.844
101, -3117.73, -3375.91, -4070.25, -3337.46, 0.000, 0.000, 0.000, 13:01:18.845
102, -3778.48, -4076.64, -4689.88, -3972.07, 0.000, 0.000, 0.000, 13:01:18.845
103, -3537.42, -3809.71, -4430.38, -3747.39, 0.000, 0.000, 0.000, 13:01:18.874
104, -3042.82, -3288.19, -3985.91, -3242.06, 0.000, 0.000, 0.000, 13:01:18.874
105, -3132.15, -3383.50, -4087.30, -3333.04, 0.000, 0.000, 0.000, 13:01:18.874
106, -3786.85, -4146.89, -4691.73, -3982.48, 0.000, 0.000, 0.000, 13:01:18.874
107, -3551.27, -3846.34, -4465.13, -3756.19, 0.000, 0.000, 0.000, 13:01:18.875
108, -3032.84, -3251.88, -3962.76, -3233.35, 0.000, 0.000, 0.000, 13:01:18.875
109, -3132.57, -3392.75, -4091.37, -3323.49, 0.000, 0.000, 0.000, 13:01:18.904
110, -3795.35, -4118.11, -4706.79, -3986.65, 0.000, 0.000, 0.000, 13:01:18.905
111, -3536.22, -3804.82, -4441.97, -3744.83, 0.000, 0.000, 0.000, 13:01:18.905
112, -3018.38, -3201.90, -3962.92, -3225.70, 0.000, 0.000, 0.000, 13:01:18.905
113, -3162.98, -3475.11, -4126.54, -3333.86, 0.000, 0.000, 0.000, 13:01:18.905
114, -3783.32, -4111.79, -4690.64, -3975.10, 0.000, 0.000, 0.000, 13:01:18.905
115, -3559.00, -3846.18, -4485.71, -3746.07, 0.000, 0.000, 0.000, 13:01:18.934
116, -3047.42, -3296.44, -4003.76, -3236.44, 0.000, 0.000, 0.000, 13:01:18.934
117, -3131.39, -3382.40, -4093.88, -3319.67, 0.000, 0.000, 0.000, 13:01:18.934
118, -3779.30, -4088.58, -4675.73, -3969.38, 0.000, 0.000, 0.000, 13:01:18.934
119, -3546.44, -3885.83, -4444.62, -3757.72, 0.000, 0.000, 0.000, 13:01:18.935
120, -3032.04, -3235.97, -3975.29, -3245.05, 0.000, 0.000, 0.000, 13:01:18.935
121, -3137.85, -3447.85, -4132.08, -3325.33, 0.000, 0.000, 0.000, 13:01:18.950
122, -3761.79, -4070.28, -4652.85, -3947.46, 0.000, 0.000, 0.000, 13:01:18.950
123, -3585.38, -3936.24, -4511.22, -3785.03, 0.000, 0.000, 0.000, 13:01:18.964
124, -3070.08, -3304.81, -3980.75, -3299.26, 0.000, 0.000, 0.000, 13:01:18.964
125, -3112.15, -3327.04, -4036.23, -3342.10, 0.000, 0.000, 0.000, 13:01:18.964
126, -3789.22, -4094.35, -4682.06, -3963.57, 0.000, 0.000, 0.000, 13:01:18.965
127, -3559.40, -3822.38, -4404.94, -3773.50, 0.000, 0.000, 0.000, 13:01:18.979
128, -3046.51, -3278.54, -3918.43, -3268.15, 0.000, 0.000, 0.000, 13:01:18.980
129, -3130.78, -3313.76, -3999.11, -3333.52, 0.000, 0.000, 0.000, 13:01:18.994
130, -3787.48, -4073.28, -4586.58, -4013.33, 0.000, 0.000, 0.000, 13:01:18.994
131, -3590.09, -3863.59, -4423.00, -3795.65, 0.000, 0.000, 0.000, 13:01:18.995
132, -3063.15, -3238.33, -3914.93, -3288.74, 0.000, 0.000, 0.000, 13:01:18.995
133, -3156.71, -3424.19, -4005.46, -3374.02, 0.000, 0.000, 0.000, 13:01:19.009
134, -3802.75, -4077.08, -4610.36, -4033.53, 0.000, 0.000, 0.000, 13:01:19.009
135, -3564.83, -3797.17, -4351.37, -3823.46, 0.000, 0.000, 0.000, 13:01:19.024
136, -3061.03, -3298.00, -3912.69, -3316.29, 0.000, 0.000, 0.000, 13:01:19.024
137, -3113.77, -3294.00, -3945.56, -3359.09, 0.000, 0.000, 0.000, 13:01:19.039
138, -3784.41, -4082.63, -4572.34, -4009.97, 0.000, 0.000, 0.000, 13:01:19.039
139, -3581.40, -3859.31, -4417.80, -3825.62, 0.000, 0.000, 0.000, 13:01:19.039
140, -3031.67, -3211.89, -3876.13, -3288.18, 0.000, 0.000, 0.000, 13:01:19.039
141, -3140.67, -3390.02, -4020.61, -3351.83, 0.000, 0.000, 0.000, 13:01:19.054
142, -3776.82, -4080.21, -4593.18, -4019.34, 0.000, 0.000, 0.000, 13:01:19.054
143, -3566.31, -3839.55, -4402.98, -3815.87, 0.000, 0.000, 0.000, 13:01:19.055
144, -3036.88, -3242.03, -3905.59, -3275.56, 0.000, 0.000, 0.000, 13:01:19.055
145, -3124.81, -3403.13, -4066.89, -3339.30, 0.000, 0.000, 0.000, 13:01:19.069
146, -3763.62, -4018.32, -4604.54, -3983.63, 0.000, 0.000, 0.000, 13:01:19.069
147, -3570.66, -3843.53, -4431.39, -3803.18, 0.000, 0.000, 0.000, 13:01:19.099
148, -3036.62, -3240.92, -3927.18, -3280.77, 0.000, 0.000, 0.000, 13:01:19.099
149, -3109.06, -3361.27, -4023.31, -3329.92, 0.000, 0.000, 0.000, 13:01:19.100
150, -3778.48, -4113.58, -4655.26, -3990.20, 0.000, 0.000, 0.000, 13:01:19.100
151, -3556.64, -3848.66, -4442.25, -3769.59, 0.000, 0.000, 0.000, 13:01:19.100
152, -3045.24, -3225.63, -3963.30, -3275.35, 0.000, 0.000, 0.000, 13:01:19.101
153, -3092.44, -3315.25, -4006.03, -3308.40, 0.000, 0.000, 0.000, 13:01:19.101
154, -3740.09, -4057.14, -4612.45, -3978.04, 0.000, 0.000, 0.000, 13:01:19.101
155, -3560.39, -3874.85, -4454.11, -3781.78, 0.000, 0.000, 0.000, 13:01:19.121
156, -3032.91, -3260.18, -3970.04, -3249.04, 0.000, 0.000, 0.000, 13:01:19.121
157, -3091.75, -3321.23, -4029.94, -3317.76, 0.000, 0.000, 0.000, 13:01:19.129
158, -3761.89, -4112.77, -4642.27, -3978.57, 0.000, 0.000, 0.000, 13:01:19.129
159, -3552.02, -3845.60, -4464.09, -3778.37, 0.000, 0.000, 0.000, 13:01:19.144
160, -3045.88, -3308.68, -3965.95, -3258.59, 0.000, 0.000, 0.000, 13:01:19.144
161, -3084.12, -3370.32, -4047.36, -3292.16, 0.000, 0.000, 0.000, 13:01:19.144
162, -3741.43, -4014.67, -4612.49, -3964.51, 0.000, 0.000, 0.000, 13:01:19.144
163, -3549.09, -3843.71, -4453.24, -3770.47, 0.000, 0.000, 0.000, 13:01:19.204
164, -3025.06, -3263.05, -3973.90, -3273.02, 0.000, 0.000, 0.000, 13:01:19.204
165, -3054.56, -3343.12, -4015.91, -3291.53, 0.000, 0.000, 0.000, 13:01:19.205
166, -3686.50, -4089.28, -4621.92, -3948.13, 0.000, 0.000, 0.000, 13:01:19.206
167, -3466.46, -3895.90, -4433.30, -3776.66, 0.000, 0.000, 0.000, 13:01:19.249
168, -2946.32, -3286.95, -3986.11, -3261.99, 0.000, 0.000, 0.000, 13:01:19.249
169, -2943.51, -3314.67, -4009.01, -3292.98, 0.000, 0.000, 0.000, 13:01:19.250
170, -3565.27, -4079.32, -4595.62, -3953.60, 0.000, 0.000, 0.000, 13:01:19.250
171, -3390.90, -3913.51, -4471.65, -3766.95, 0.000, 0.000, 0.000, 13:01:19.250
172, -2883.49, -3425.19, -3987.01, -3251.78, 0.000, 0.000, 0.000, 13:01:19.250
173, -2926.14, -3296.01, -4010.02, -3305.51, 0.000, 0.000, 0.000, 13:01:19.251
174, -3616.54, -4127.54, -4660.33, -3947.00, 0.000, 0.000, 0.000, 13:01:19.251
175, -3423.52, -3869.73, -4438.36, -3773.21, 0.000, 0.000, 0.000, 13:01:19.251
176, -2920.48, -3291.75, -3965.79, -3269.99, 0.000, 0.000, 0.000, 13:01:19.251
177, -2980.68, -3411.19, -4034.39, -3287.80, 0.000, 0.000, 0.000, 13:01:19.252
178, -3647.57, -4074.56, -4654.72, -3942.63, 0.000, 0.000, 0.000, 13:01:19.253
179, -3491.62, -3860.28, -4425.14, -3788.51, 0.000, 0.000, 0.000, 13:01:19.253
180, -2989.54, -3320.29, -3990.92, -3259.01, 0.000, 0.000, 0.000, 13:01:19.253
185, -3067.12, -3393.50, -4069.03, -3282.34, 0.000, 0.000, 0.000, 13:01:19.294
186, -3722.73, -4118.48, -4640.68, -3936.98, 0.000, 0.000, 0.000, 13:01:19.294
187, -3570.82, -3852.32, -4454.83, -3784.98, 0.000, 0.000, 0.000, 13:01:19.294
188, -3055.93, -3246.59, -3977.10, -3274.26, 0.000, 0.000, 0.000, 13:01:19.294
189, -3093.28, -3383.86, -4038.19, -3302.03, 0.000, 0.000, 0.000, 13:01:19.295
190, -3808.41, -4067.46, -4681.99, -3938.62, 0.000, 0.000, 0.000, 13:01:19.295
191, -3624.54, -3924.80, -4472.73, -3784.43, 0.000, 0.000, 0.000, 13:01:19.296
192, -3104.24, -3417.16, -4027.07, -3281.71, 0.000, 0.000, 0.000, 13:01:19.296
193, -3140.56, -3344.73, -4033.51, -3273.32, 0.000, 0.000, 0.000, 13:01:19.354
194, -3786.26, -4039.82, -4597.85, -3955.14, 0.000, 0.000, 0.000, 13:01:19.354
195, -3654.23, -3951.84, -4502.69, -3783.59, 0.000, 0.000, 0.000, 13:01:19.356
196, -3109.86, -3326.58, -4022.60, -3273.37, 0.000, 0.000, 0.000, 13:01:19.356
197, -3117.58, -3346.43, -4031.74, -3292.31, 0.000, 0.000, 0.000, 13:01:19.356
198, -3792.75, -4098.55, -4667.05, -3947.74, 0.000, 0.000, 0.000, 13:01:19.356
199, -3612.84, -3876.51, -4470.65, -3784.06, 0.000, 0.000, 0.000, 13:01:19.399
200, -3098.64, -3321.08, -3998.47, -3272.83, 0.000, 0.000, 0.000, 13:01:19.400
0, -3189.93, -3333.69, -4048.04, -3295.13, 0.000, 0.000, 0.000, 13:01:19.400
1, -3838.44, -4062.19, -4676.00, -3961.09, 0.000, 0.000, 0.000, 13:01:19.401
2, -3660.80, -3821.50, -4484.68, -3791.71, 0.000, 0.000, 0.000, 13:01:19.401
3, -3129.24, -3252.32, -3988.49, -3266.75, 0.000, 0.000, 0.000, 13:01:19.401
4, -3152.24, -3326.67, -4044.19, -3267.70, 0.000, 0.000, 0.000, 13:01:19.401
5, -3807.16, -3991.59, -4634.74, -3954.16, 0.000, 0.000, 0.000, 13:01:19.401
6, -3622.60, -3757.21, -4438.43, -3773.94, 0.000, 0.000, 0.000, 13:01:19.401
7, -3119.44, -3242.67, -3996.44, -3285.95, 0.000, 0.000, 0.000, 13:01:19.402
8, -3134.37, -3267.27, -4016.54, -3292.83, 0.000, 0.000, 0.000, 13:01:19.402
9, -3797.54, -4057.36, -4674.12, -3949.25, 0.000, 0.000, 0.000, 13:01:19.404
10, -3631.11, -3798.92, -4495.24, -3771.48, 0.000, 0.000, 0.000, 13:01:19.404
13, -4280.12, -4449.38, -5094.57, -4439.56, 0.000, 0.000, 0.000, 13:01:19.444
14, -4101.68, -4264.20, -4894.62, -4274.64, 0.000, 0.000, 0.000, 13:01:19.444
15, -3580.72, -3733.83, -4496.69, -3784.02, 0.000, 0.000, 0.000, 13:01:19.445
16, -3561.74, -3667.09, -4449.67, -3814.68, 0.000, 0.000, 0.000, 13:01:19.446
17, -4208.86, -4493.27, -5109.60, -4467.71, 0.000, 0.000, 0.000, 13:01:19.446
18, -3971.07, -4381.74, -4932.05, -4251.41, 0.000, 0.000, 0.000, 13:01:19.446
19, -3423.89, -3797.85, -4513.78, -3740.42, 0.000, 0.000, 0.000, 13:01:19.448
20, -3392.49, -3754.31, -4484.91, -3715.34, 0.000, 0.000, 0.000, 13:01:19.448
21, -4059.27, -4526.69, -5126.74, -4387.54, 0.000, 0.000, 0.000, 13:01:19.448
22, -3877.58, -4365.14, -4946.67, -4241.65, 0.000, 0.000, 0.000, 13:01:19.448
23, -3389.58, -3833.01, -4545.95, -3701.15, 0.000, 0.000, 0.000, 13:01:19.459
24, -3370.79, -3745.31, -4528.63, -3682.95, 0.000, 0.000, 0.000, 13:01:19.459
25, -4039.18, -4558.90, -5113.52, -4386.92, 0.000, 0.000, 0.000, 13:01:19.474
26, -3914.00, -4331.24, -4977.40, -4185.39, 0.000, 0.000, 0.000, 13:01:19.474
27, -3436.55, -3856.51, -4539.39, -3687.41, 0.000, 0.000, 0.000, 13:01:19.490
28, -3414.57, -3775.92, -4531.18, -3655.14, 0.000, 0.000, 0.000, 13:01:19.490
29, -4105.20, -4474.54, -5147.28, -4346.88, 0.000, 0.000, 0.000, 13:01:19.504
30, -3952.63, -4353.11, -5000.67, -4196.61, 0.000, 0.000, 0.000, 13:01:19.504
31, -3461.36, -3813.74, -4551.49, -3679.98, 0.000, 0.000, 0.000, 13:01:19.504
32, -3497.60, -3772.72, -4558.49, -3650.74, 0.000, 0.000, 0.000, 13:01:19.505
33, -4166.70, -4488.78, -5154.55, -4357.74, 0.000, 0.000, 0.000, 13:01:19.519
34, -4028.57, -4352.86, -5059.80, -4213.33, 0.000, 0.000, 0.000, 13:01:19.520
35, -3526.75, -3760.15, -4565.99, -3679.53, 0.000, 0.000, 0.000, 13:01:19.520
36, -3539.68, -3741.56, -4556.07, -3676.62, 0.000, 0.000, 0.000, 13:01:19.521
37, -4213.98, -4466.95, -5159.32, -4361.99, 0.000, 0.000, 0.000, 13:01:19.535
38, -4121.78, -4308.73, -5032.02, -4217.01, 0.000, 0.000, 0.000, 13:01:19.535
39, -3610.60, -3757.10, -4576.58, -3706.81, 0.000, 0.000, 0.000, 13:01:19.549
40, -3557.29, -3652.27, -4530.43, -3702.22, 0.000, 0.000, 0.000, 13:01:19.550
41, -4266.29, -4411.88, -5161.71, -4358.74, 0.000, 0.000, 0.000, 13:01:19.550
42, -4162.14, -4298.28, -5039.67, -4230.08, 0.000, 0.000, 0.000, 13:01:19.550
43, -3669.72, -3674.14, -4561.86, -3725.31, 0.000, 0.000, 0.000, 13:01:19.564
44, -3652.02, -3672.39, -4543.61, -3699.51, 0.000, 0.000, 0.000, 13:01:19.564
45, -4346.13, -4398.10, -5155.85, -4386.75, 0.000, 0.000, 0.000, 13:01:19.594
46, -4207.83, -4185.62, -5014.78, -4267.05, 0.000, 0.000, 0.000, 13:01:19.594
47, -3722.33, -3652.00, -4534.96, -3732.17, 0.000, 0.000, 0.000, 13:01:19.594
48, -3690.14, -3637.13, -4516.30, -3695.35, 0.000, 0.000, 0.000, 13:01:19.595
49, -4370.04, -4372.64, -5150.26, -4399.17, 0.000, 0.000, 0.000, 13:01:19.595
50, -4227.94, -4184.91, -5001.81, -4267.00, 0.000, 0.000, 0.000, 13:01:19.595
51, -3741.69, -3663.24, -4540.52, -3765.82, 0.000, 0.000, 0.000, 13:01:19.596
52, -3680.55, -3591.28, -4499.84, -3721.01, 0.000, 0.000, 0.000, 13:01:19.596
53, -4373.61, -4367.59, -5133.11, -4428.78, 0.000, 0.000, 0.000, 13:01:19.609
54, -4222.50, -4234.49, -4984.03, -4253.66, 0.000, 0.000, 0.000, 13:01:19.609
55, -3722.52, -3671.77, -4513.43, -3763.59, 0.000, 0.000, 0.000, 13:01:19.623
56, -3674.93, -3591.99, -4492.36, -3745.48, 0.000, 0.000, 0.000, 13:01:19.624
57, -4352.40, -4323.31, -5129.21, -4418.49, 0.000, 0.000, 0.000, 13:01:19.639
58, -4212.41, -4239.34, -4998.30, -4270.76, 0.000, 0.000, 0.000, 13:01:19.639
59, -3693.43, -3645.92, -4512.62, -3762.89, 0.000, 0.000, 0.000, 13:01:19.639
60, -3647.14, -3621.40, -4468.35, -3736.20, 0.000, 0.000, 0.000, 13:01:19.639
61, -4324.29, -4333.32, -5099.73, -4406.36, 0.000, 0.000, 0.000, 13:01:19.654
62, -4173.79, -4219.91, -4963.44, -4278.68, 0.000, 0.000, 0.000, 13:01:19.655
63, -3683.84, -3626.43, -4509.60, -3779.27, 0.000, 0.000, 0.000, 13:01:19.669
64, -3629.62, -3632.92, -4484.83, -3721.11, 0.000, 0.000, 0.000, 13:01:19.669
65, -4307.04, -4431.08, -5128.60, -4427.30, 0.000, 0.000, 0.000, 13:01:19.671
66, -4161.67, -4274.60, -4958.07, -4274.60, 0.000, 0.000, 0.000, 13:01:19.671
67, -3663.96, -3703.55, -4520.65, -3782.85, 0.000, 0.000, 0.000, 13:01:19.699
68, -3592.19, -3611.73, -4465.90, -3735.28, 0.000, 0.000, 0.000, 13:01:19.699
69, -4262.61, -4464.23, -5094.21, -4407.51, 0.000, 0.000, 0.000, 13:01:19.700
70, -4132.10, -4275.16, -4966.91, -4270.98, 0.000, 0.000, 0.000, 13:01:19.700
71, -3615.20, -3583.66, -4482.09, -3779.93, 0.000, 0.000, 0.000, 13:01:19.700
72, -3550.08, -3657.47, -4474.55, -3721.08, 0.000, 0.000, 0.000, 13:01:19.700
73, -4209.55, -4464.02, -5093.78, -4412.09, 0.000, 0.000, 0.000, 13:01:19.715
74, -4059.68, -4295.97, -4955.56, -4242.80, 0.000, 0.000, 0.000, 13:01:19.715
75, -3516.19, -3739.91, -4483.32, -3739.23, 0.000, 0.000, 0.000, 13:01:19.744
76, -3438.06, -3696.80, -4455.51, -3713.34, 0.000, 0.000, 0.000, 13:01:19.744
77, -4083.44, -4449.47, -5076.24, -4394.85, 0.000, 0.000, 0.000, 13:01:19.744
78, -3956.77, -4319.21, -4952.45, -4252.29, 0.000, 0.000, 0.000, 13:01:19.744
79, -3422.78, -3791.48, -4488.55, -3739.79, 0.000, 0.000, 0.000, 13:01:19.745
80, -3332.51, -3692.47, -4436.22, -3684.38, 0.000, 0.000, 0.000, 13:01:19.745
81, -4027.79, -4483.16, -5058.75, -4359.24, 0.000, 0.000, 0.000, 13:01:19.746
82, -3915.30, -4350.62, -4927.59, -4227.50, 0.000, 0.000, 0.000, 13:01:19.746
83, -3436.55, -3780.92, -4457.94, -3725.59, 0.000, 0.000, 0.000, 13:01:19.789
84, -3373.29, -3745.43, -4428.75, -3650.29, 0.000, 0.000, 0.000, 13:01:19.789
85, -4101.98, -4536.30, -5073.95, -4348.98, 0.000, 0.000, 0.000, 13:01:19.790
86, -3991.71, -4329.52, -4947.51, -4226.04, 0.000, 0.000, 0.000, 13:01:19.790
87, -3500.14, -3782.19, -4476.65, -3744.88, 0.000, 0.000, 0.000, 13:01:19.804
88, -3445.67, -3670.49, -4430.57, -3666.78, 0.000, 0.000, 0.000, 13:01:19.804
89, -4190.30, -4437.03, -5082.98, -4388.42, 0.000, 0.000, 0.000, 13:01:19.804
90, -4083.68, -4305.79, -4955.84, -4278.68, 0.000, 0.000, 0.000, 13:01:19.804
91, -3602.99, -3713.51, -4498.39, -3745.89, 0.000, 0.000, 0.000, 13:01:19.805
92, -3559.20, -3641.87, -4443.87, -3709.80, 0.000, 0.000, 0.000, 13:01:19.805
93, -4273.95, -4387.25, -5089.60, -4398.91, 0.000, 0.000, 0.000, 13:01:19.806
94, -4162.91, -4232.84, -4960.63, -4279.69, 0.000, 0.000, 0.000, 13:01:19.806
95, -3671.37, -3657.15, -4484.57, -3772.59, 0.000, 0.000, 0.000, 13:01:19.850
96, -3636.26, -3604.25, -4456.94, -3711.57, 0.000, 0.000, 0.000, 13:01:19.850
97, -4360.06, -4343.33, -5099.17, -4400.80, 0.000, 0.000, 0.000, 13:01:19.851
98, -4205.58, -4206.03, -4977.14, -4291.38, 0.000, 0.000, 0.000, 13:01:19.851
99, -3696.59, -3578.22, -4489.09, -3782.67, 0.000, 0.000, 0.000, 13:01:19.851
100, -3656.69, -3577.09, -4449.90, -3720.22, 0.000, 0.000, 0.000, 13:01:19.851
101, -4375.63, -4366.26, -5114.75, -4416.68, 0.000, 0.000, 0.000, 13:01:19.851
102, -4256.47, -4237.16, -4991.14, -4295.99, 0.000, 0.000, 0.000, 13:01:19.851
103, -3735.54, -3673.40, -4511.77, -3787.63, 0.000, 0.000, 0.000, 13:01:19.879
104, -3658.84, -3571.17, -4442.41, -3721.94, 0.000, 0.000, 0.000, 13:01:19.879
105, -4373.55, -4346.21, -5107.63, -4430.42, 0.000, 0.000, 0.000, 13:01:19.882
106, -4248.54, -4224.31, -4993.43, -4297.91, 0.000, 0.000, 0.000, 13:01:19.882
107, -3732.76, -3680.15, -4506.35, -3788.14, 0.000, 0.000, 0.000, 13:01:19.882
108, -3638.53, -3572.56, -4429.14, -3684.98, 0.000, 0.000, 0.000, 13:01:19.882
109, -4365.97, -4360.39, -5104.29, -4415.33, 0.000, 0.000, 0.000, 13:01:19.909
110, -4239.38, -4268.33, -4997.30, -4293.03, 0.000, 0.000, 0.000, 13:01:19.909
111, -3712.39, -3653.01, -4515.22, -3790.87, 0.000, 0.000, 0.000, 13:01:19.909
112, -3632.45, -3637.53, -4457.93, -3712.91, 0.000, 0.000, 0.000, 13:01:19.909
113, -4349.07, -4346.25, -5110.43, -4412.64, 0.000, 0.000, 0.000, 13:01:19.924
114, -4216.22, -4230.76, -4975.00, -4290.78, 0.000, 0.000, 0.000, 13:01:19.924
115, -3690.33, -3685.51, -4509.04, -3788.66, 0.000, 0.000, 0.000, 13:01:19.939
116, -3601.22, -3570.21, -4439.12, -3690.76, 0.000, 0.000, 0.000, 13:01:19.939
117, -4319.81, -4346.84, -5105.92, -4399.51, 0.000, 0.000, 0.000, 13:01:19.939
118, -4188.27, -4254.80, -4979.58, -4276.05, 0.000, 0.000, 0.000, 13:01:19.940
119, -3676.71, -3708.16, -4526.17, -3773.30, 0.000, 0.000, 0.000, 13:01:19.940
120, -3573.23, -3592.83, -4425.67, -3697.81, 0.000, 0.000, 0.000, 13:01:19.940
121, -4287.26, -4357.96, -5078.43, -4405.19, 0.000, 0.000, 0.000, 13:01:19.955
122, -4192.39, -4277.07, -4984.17, -4315.56, 0.000, 0.000, 0.000, 13:01:19.955
123, -3670.87, -3734.10, -4518.94, -3778.05, 0.000, 0.000, 0.000, 13:01:19.969
124, -3570.99, -3606.52, -4433.94, -3699.70, 0.000, 0.000, 0.000, 13:01:19.970
125, -4285.34, -4361.02, -5090.34, -4406.25, 0.000, 0.000, 0.000, 13:01:19.999
126, -4142.51, -4280.79, -4979.47, -4284.18, 0.000, 0.000, 0.000, 13:01:20.000
127, -3658.91, -3735.05, -4521.66, -3786.27, 0.000, 0.000, 0.000, 13:01:20.000
128, -3553.68, -3614.03, -4417.14, -3696.08, 0.000, 0.000, 0.000, 13:01:20.000
129, -4277.57, -4373.19, -5093.73, -4398.36, 0.000, 0.000, 0.000, 13:01:20.000
130, -4163.19, -4258.97, -4982.63, -4286.20, 0.000, 0.000, 0.000, 13:01:20.000
131, -3644.05, -3697.75, -4507.01, -3787.37, 0.000, 0.000, 0.000, 13:01:20.002
132, -3542.58, -3590.30, -4419.85, -3689.56, 0.000, 0.000, 0.000, 13:01:20.002
133, -4253.51, -4363.67, -5096.06, -4402.16, 0.000, 0.000, 0.000, 13:01:20.014
134, -4162.84, -4281.32, -4988.60, -4308.17, 0.000, 0.000, 0.000, 13:01:20.014
135, -3654.81, -3783.30, -4520.71, -3792.42, 0.000, 0.000, 0.000, 13:01:20.028
136, -3542.44, -3629.72, -4418.86, -3702.49, 0.000, 0.000, 0.000, 13:01:20.029
137, -4260.44, -4408.94, -5090.42, -4399.02, 0.000, 0.000, 0.000, 13:01:20.029
138, -4149.07, -4280.36, -4981.93, -4306.84, 0.000, 0.000, 0.000, 13:01:20.029
139, -3640.41, -3743.91, -4516.31, -3793.36, 0.000, 0.000, 0.000, 13:01:20.044
140, -3540.40, -3626.35, -4436.37, -3723.46, 0.000, 0.000, 0.000, 13:01:20.044
141, -4258.43, -4397.24, -5090.76, -4415.39, 0.000, 0.000, 0.000, 13:01:20.059
142, -4149.80, -4279.06, -4976.86, -4305.64, 0.000, 0.000, 0.000, 13:01:20.059
143, -3629.22, -3718.55, -4501.72, -3779.54, 0.000, 0.000, 0.000, 13:01:20.060
144, -3539.39, -3640.60, -4414.17, -3713.07, 0.000, 0.000, 0.000, 13:01:20.060
145, -4271.00, -4436.95, -5096.48, -4415.76, 0.000, 0.000, 0.000, 13:01:20.074
146, -4163.08, -4329.03, -4992.65, -4305.19, 0.000, 0.000, 0.000, 13:01:20.074
147, -3648.78, -3740.41, -4514.88, -3797.15, 0.000, 0.000, 0.000, 13:01:20.089
148, -3529.48, -3641.10, -4416.78, -3692.00, 0.000, 0.000, 0.000, 13:01:20.089
149, -4263.82, -4434.79, -5091.12, -4419.13, 0.000, 0.000, 0.000, 13:01:20.090
150, -4159.47, -4321.36, -4990.89, -4295.85, 0.000, 0.000, 0.000, 13:01:20.090
151, -3651.59, -3762.81, -4523.85, -3816.35, 0.000, 0.000, 0.000, 13:01:20.104
152, -3527.71, -3629.05, -4416.09, -3692.84, 0.000, 0.000, 0.000, 13:01:20.104
153, -4258.91, -4422.97, -5091.30, -4385.92, 0.000, 0.000, 0.000, 13:01:20.120
154, -4178.36, -4351.37, -5015.22, -4320.13, 0.000, 0.000, 0.000, 13:01:20.120
155, -3648.54, -3763.46, -4515.48, -3801.57, 0.000, 0.000, 0.000, 13:01:20.120
156, -3518.80, -3638.69, -4407.06, -3686.65, 0.000, 0.000, 0.000, 13:01:20.121
157, -4252.45, -4382.80, -5089.81, -4379.68, 0.000, 0.000, 0.000, 13:01:20.150
158, -4161.28, -4312.90, -4988.78, -4312.06, 0.000, 0.000, 0.000, 13:01:20.150
159, -3645.89, -3779.15, -4517.73, -3812.48, 0.000, 0.000, 0.000, 13:01:20.150
160, -3510.70, -3647.17, -4411.99, -3677.88, 0.000, 0.000, 0.000, 13:01:20.150
161, -4247.80, -4451.12, -5082.05, -4382.95, 0.000, 0.000, 0.000, 13:01:20.150
162, -4162.79, -4363.63, -4998.18, -4326.22, 0.000, 0.000, 0.000, 13:01:20.150
163, -3652.90, -3786.65, -4534.89, -3819.84, 0.000, 0.000, 0.000, 13:01:20.164
164, -3521.88, -3633.71, -4438.46, -3683.31, 0.000, 0.000, 0.000, 13:01:20.164
165, -4257.47, -4445.51, -5092.13, -4413.76, 0.000, 0.000, 0.000, 13:01:20.179
166, -4147.59, -4418.14, -5004.97, -4302.90, 0.000, 0.000, 0.000, 13:01:20.180
167, -3641.72, -3879.46, -4531.19, -3820.96, 0.000, 0.000, 0.000, 13:01:20.194
168, -3503.05, -3667.95, -4411.91, -3676.60, 0.000, 0.000, 0.000, 13:01:20.194
169, -4208.15, -4491.72, -5085.88, -4374.16, 0.000, 0.000, 0.000, 13:01:20.194
170, -4083.82, -4377.64, -4994.15, -4300.59, 0.000, 0.000, 0.000, 13:01:20.195
171, -3557.42, -3819.21, -4534.39, -3807.05, 0.000, 0.000, 0.000, 13:01:20.209
172, -3376.83, -3665.73, -4409.43, -3655.79, 0.000, 0.000, 0.000, 13:01:20.209
173, -4064.53, -4535.86, -5075.57, -4384.05, 0.000, 0.000, 0.000, 13:01:20.210
174, -3936.10, -4481.80, -4989.76, -4276.75, 0.000, 0.000, 0.000, 13:01:20.210
175, -3403.42, -3865.59, -4517.25, -3795.10, 0.000, 0.000, 0.000, 13:01:20.254
176, -3260.25, -3752.00, -4403.19, -3648.61, 0.000, 0.000, 0.000, 13:01:20.254
177, -4003.40, -4482.85, -5085.99, -4360.99, 0.000, 0.000, 0.000, 13:01:20.255
178, -3942.58, -4458.33, -5001.56, -4284.03, 0.000, 0.000, 0.000, 13:01:20.255
179, -3451.44, -3890.43, -4517.36, -3782.48, 0.000, 0.000, 0.000, 13:01:20.256
180, -3319.95, -3707.11, -4393.23, -3639.14, 0.000, 0.000, 0.000, 13:01:20.256
181, -4080.65, -4487.83, -5072.13, -4363.67, 0.000, 0.000, 0.000, 13:01:20.256
182, -4038.00, -4430.41, -5009.44, -4269.54, 0.000, 0.000, 0.000, 13:01:20.256
183, -3542.02, -3857.96, -4517.12, -3782.13, 0.000, 0.000, 0.000, 13:01:20.257
184, -3407.29, -3666.85, -4377.76, -3653.87, 0.000, 0.000, 0.000, 13:01:20.257
185, -4176.51, -4459.99, -5089.00, -4387.27, 0.000, 0.000, 0.000, 13:01:20.269
186, -4126.04, -4336.61, -5005.97, -4309.74, 0.000, 0.000, 0.000, 13:01:20.270
187, -3641.95, -3760.25, -4534.66, -3792.86, 0.000, 0.000, 0.000, 13:01:20.315
188, -3499.46, -3614.23, -4401.05, -3675.07, 0.000, 0.000, 0.000, 13:01:20.315
189, -4251.48, -4412.60, -5079.51, -4397.07, 0.000, 0.000, 0.000, 13:01:20.315
190, -4206.20, -4276.52, -5011.31, -4310.49, 0.000, 0.000, 0.000, 13:01:20.316
191, -3691.77, -3735.66, -4531.95, -3814.69, 0.000, 0.000, 0.000, 13:01:20.317
192, -3567.48, -3551.55, -4409.95, -3693.21, 0.000, 0.000, 0.000, 13:01:20.318
193, -4300.19, -4387.23, -5075.74, -4375.77, 0.000, 0.000, 0.000, 13:01:20.360
194, -4242.56, -4296.32, -5007.76, -4316.16, 0.000, 0.000, 0.000, 13:01:20.360
195, -3741.20, -3742.76, -4539.77, -3836.09, 0.000, 0.000, 0.000, 13:01:20.360
196, -3577.33, -3542.46, -4397.71, -3684.81, 0.000, 0.000, 0.000, 13:01:20.360
197, -4303.87, -4324.45, -5061.00, -4368.77, 0.000, 0.000, 0.000, 13:01:20.361
198, -4258.54, -4286.57, -5014.67, -4336.03, 0.000, 0.000, 0.000, 13:01:20.361
199, -3741.14, -3763.27, -4546.31, -3845.15, 0.000, 0.000, 0.000, 13:01:20.361
200, -3567.41, -3544.71, -4394.94, -3679.95, 0.000, 0.000, 0.000, 13:01:20.361
0, -3780.78, -3919.91, -4614.53, -3887.77, 0.000, 0.000, 0.000, 13:01:20.362
1, -3721.67, -3882.86, -4545.65, -3860.13, 0.000, 0.000, 0.000, 13:01:20.363
2, -3220.17, -3334.22, -4085.04, -3355.40, 0.000, 0.000, 0.000, 13:01:20.363
3, -3038.68, -3122.49, -3925.05, -3170.69, 0.000, 0.000, 0.000, 13:01:20.364
4, -3759.57, -3925.09, -4601.79, -3883.05, 0.000, 0.000, 0.000, 13:01:20.364
5, -3727.71, -3886.62, -4546.81, -3850.07, 0.000, 0.000, 0.000, 13:01:20.404
6, -3205.90, -3334.36, -4080.04, -3369.05, 0.000, 0.000, 0.000, 13:01:20.404
7, -3038.76, -3119.33, -3933.60, -3179.88, 0.000, 0.000, 0.000, 13:01:20.405
8, -3763.23, -3896.29, -4599.89, -3877.19, 0.000, 0.000, 0.000, 13:01:20.405
9, -3716.04, -3932.88, -4543.42, -3841.30, 0.000, 0.000, 0.000, 13:01:20.406
10, -3209.25, -3363.76, -4077.84, -3352.59, 0.000, 0.000, 0.000, 13:01:20.406
