%OpenBCI Raw EEG Data
%
%Sample Rate = 200.0 Hz
%First Column = SampleIndex
%Last Column = Timestamp 
%Other Columns = EEG data in microvolts followed by Accel Data (in G) interleaved with Aux Data
0, -3376.45, -3548.46, -4179.46, -3425.50, 0.000, 0.000, 0.000, 12:57:57.738
1, -3128.73, -3273.98, -3953.40, -3181.76, 0.000, 0.000, 0.000, 12:57:57.752
2, -3755.60, -3941.93, -4513.40, -3763.26, 0.000, 0.000, 0.000, 12:57:57.752
3, -3795.15, -4019.36, -4546.34, -3843.34, 0.000, 0.000, 0.000, 12:57:57.767
4, -3368.24, -3495.76, -4153.57, -3413.17, 0.000, 0.000, 0.000, 12:57:57.767
5, -3119.54, -3196.57, -3934.85, -3165.51, 0.000, 0.000, 0.000, 12:57:57.767
6, -3755.39, -4027.01, -4521.00, -3777.22, 0.000, 0.000, 0.000, 12:57:57.768
7, -3789.21, -3954.37, -4542.80, -3823.25, 0.000, 0.000, 0.000, 12:57:57.781
8, -3358.68, -3439.29, -4169.49, -3405.72, 0.000, 0.000, 0.000, 12:57:57.781
9, -3087.93, -3235.83, -3912.36, -3135.24, 0.000, 0.000, 0.000, 12:57:57.811
10, -3730.95, -3959.32, -4492.67, -3762.71, 0.000, 0.000, 0.000, 12:57:57.811
11, -3799.87, -4030.94, -4548.78, -3825.14, 0.000, 0.000, 0.000, 12:57:57.841
12, -3352.42, -3544.42, -4145.61, -3412.34, 0.000, 0.000, 0.000, 12:57:57.841
13, -3096.80, -3216.53, -3908.68, -3145.56, 0.000, 0.000, 0.000, 12:57:57.842
14, -3724.38, -3915.43, -4494.63, -3740.32, 0.000, 0.000, 0.000, 12:57:57.842
15, -3773.25, -3977.87, -4526.09, -3813.78, 0.000, 0.000, 0.000, 12:57:57.842
16, -3334.15, -3528.61, -4136.11, -3389.57, 0.000, 0.000, 0.000, 12:57:57.842
17, -3065.64, -3184.90, -3889.45, -3119.88, 0.000, 0.000, 0.000, 12:57:57.843
18, -3705.01, -3873.87, -4470.18, -3736.05, 0.000, 0.000, 0.000, 12:57:57.843
19, -3769.88, -3895.46, -4514.16, -3809.08, 0.000, 0.000, 0.000, 12:57:57.844
20, -3335.09, -3477.68, -4134.27, -3399.27, 0.000, 0.000, 0.000, 12:57:57.844
21, -3059.71, -3226.94, -3879.11, -3105.33, 0.000, 0.000, 0.000, 12:57:57.844
22, -3701.72, -3849.85, -4466.95, -3727.25, 0.000, 0.000, 0.000, 12:57:57.845
23, -3763.35, -3966.97, -4514.64, -3806.85, 0.000, 0.000, 0.000, 12:57:57.857
24, -3330.46, -3414.01, -4126.43, -3389.34, 0.000, 0.000, 0.000, 12:57:57.857
25, -3077.32, -3216.25, -3901.04, -3123.51, 0.000, 0.000, 0.000, 12:57:57.872
26, -3717.39, -3893.12, -4475.82, -3742.48, 0.000, 0.000, 0.000, 12:57:57.872
27, -3778.84, -3922.54, -4523.51, -3819.91, 0.000, 0.000, 0.000, 12:57:57.946
28, -3333.82, -3529.66, -4124.29, -3379.67, 0.000, 0.000, 0.000, 12:57:57.947
29, -3070.95, -3213.80, -3884.39, -3130.72, 0.000, 0.000, 0.000, 12:57:57.947
30, -3717.80, -3988.57, -4481.90, -3746.22, 0.000, 0.000, 0.000, 12:57:57.947
31, -3774.02, -4041.95, -4513.76, -3824.07, 0.000, 0.000, 0.000, 12:57:57.948
32, -3325.35, -3385.46, -4108.66, -3376.74, 0.000, 0.000, 0.000, 12:57:57.948
33, -3062.80, -3172.65, -3872.11, -3116.05, 0.000, 0.000, 0.000, 12:57:57.948
34, -3711.86, -3915.06, -4464.15, -3727.59, 0.000, 0.000, 0.000, 12:57:57.949
35, -3770.62, -4019.83, -4520.71, -3808.68, 0.000, 0.000, 0.000, 12:57:57.949
36, -3331.65, -3458.95, -4110.86, -3372.66, 0.000, 0.000, 0.000, 12:57:57.950
37, -3048.76, -3164.11, -3858.32, -3096.64, 0.000, 0.000, 0.000, 12:57:57.950
38, -3687.55, -3892.70, -4441.39, -3709.61, 0.000, 0.000, 0.000, 12:57:57.950
39, -3770.68, -3984.89, -4506.76, -3804.42, 0.000, 0.000, 0.000, 12:57:57.951
40, -3327.50, -3479.99, -4115.07, -3367.33, 0.000, 0.000, 0.000, 12:57:57.951
43, -3419.47, -3542.50, -4198.92, -3459.45, 0.000, 0.000, 0.000, 12:57:57.962
44, -2983.97, -3105.48, -3792.69, -3035.72, 0.000, 0.000, 0.000, 12:57:57.962
45, -2716.05, -2778.39, -3555.98, -2749.26, 0.000, 0.000, 0.000, 12:57:57.977
46, -3350.09, -3485.80, -4142.65, -3362.05, 0.000, 0.000, 0.000, 12:57:57.977
47, -3425.34, -3543.78, -4215.04, -3451.64, 0.000, 0.000, 0.000, 12:57:58.052
48, -2988.94, -3061.35, -3799.30, -3019.62, 0.000, 0.000, 0.000, 12:57:58.052
49, -2704.19, -2775.82, -3553.89, -2751.92, 0.000, 0.000, 0.000, 12:57:58.052
50, -3326.03, -3480.96, -4120.57, -3359.96, 0.000, 0.000, 0.000, 12:57:58.052
51, -3411.25, -3541.68, -4178.88, -3438.21, 0.000, 0.000, 0.000, 12:57:58.053
52, -2979.51, -3088.44, -3787.14, -3026.77, 0.000, 0.000, 0.000, 12:57:58.053
53, -2692.74, -2784.23, -3528.49, -2750.91, 0.000, 0.000, 0.000, 12:57:58.054
54, -3317.93, -3466.64, -4106.02, -3352.72, 0.000, 0.000, 0.000, 12:57:58.056
55, -3430.88, -3451.80, -4199.49, -3460.01, 0.000, 0.000, 0.000, 12:57:58.066
56, -2977.98, -3012.65, -3794.21, -3035.23, 0.000, 0.000, 0.000, 12:57:58.066
57, -2701.12, -2774.76, -3546.01, -2751.87, 0.000, 0.000, 0.000, 12:57:58.067
58, -3335.08, -3363.20, -4118.92, -3353.66, 0.000, 0.000, 0.000, 12:57:58.067
59, -3435.78, -3612.44, -4201.19, -3467.33, 0.000, 0.000, 0.000, 12:57:58.068
60, -2995.82, -3020.60, -3797.03, -3034.14, 0.000, 0.000, 0.000, 12:57:58.068
65, -2683.28, -2679.82, -3515.84, -2726.60, 0.000, 0.000, 0.000, 12:57:58.069
66, -3316.93, -3385.26, -4084.93, -3337.12, 0.000, 0.000, 0.000, 12:57:58.069
67, -3424.34, -3444.41, -4186.13, -3448.21, 0.000, 0.000, 0.000, 12:57:58.081
68, -2991.65, -3010.07, -3786.26, -3032.53, 0.000, 0.000, 0.000, 12:57:58.081
69, -2700.53, -2651.87, -3524.30, -2738.10, 0.000, 0.000, 0.000, 12:57:58.097
70, -3330.76, -3371.41, -4103.90, -3340.22, 0.000, 0.000, 0.000, 12:57:58.097
71, -3430.36, -3496.60, -4188.60, -3454.57, 0.000, 0.000, 0.000, 12:57:58.097
72, -2984.30, -2969.74, -3785.99, -3028.85, 0.000, 0.000, 0.000, 12:57:58.097
73, -2682.88, -2665.05, -3515.40, -2730.37, 0.000, 0.000, 0.000, 12:57:58.156
74, -3328.82, -3340.70, -4093.18, -3358.86, 0.000, 0.000, 0.000, 12:57:58.156
75, -3433.88, -3516.55, -4197.98, -3451.02, 0.000, 0.000, 0.000, 12:57:58.157
76, -2997.59, -2985.77, -3800.02, -3028.34, 0.000, 0.000, 0.000, 12:57:58.157
77, -2686.31, -2673.54, -3520.10, -2743.90, 0.000, 0.000, 0.000, 12:57:58.158
78, -3327.75, -3374.80, -4106.08, -3356.06, 0.000, 0.000, 0.000, 12:57:58.158
79, -3438.14, -3489.69, -4205.37, -3463.30, 0.000, 0.000, 0.000, 12:57:58.158
80, -2988.63, -2952.31, -3787.43, -3041.86, 0.000, 0.000, 0.000, 12:57:58.158
81, -2663.87, -2627.12, -3498.69, -2711.88, 0.000, 0.000, 0.000, 12:57:58.159
82, -3321.14, -3441.72, -4093.81, -3338.46, 0.000, 0.000, 0.000, 12:57:58.159
83, -3423.48, -3463.18, -4184.07, -3445.42, 0.000, 0.000, 0.000, 12:57:58.160
84, -2993.77, -3023.86, -3807.24, -3049.08, 0.000, 0.000, 0.000, 12:57:58.160
85, -2677.82, -2646.89, -3507.12, -2709.33, 0.000, 0.000, 0.000, 12:57:58.187
86, -3287.56, -3238.73, -4067.96, -3314.89, 0.000, 0.000, 0.000, 12:57:58.187
87, -3428.92, -3516.87, -4192.18, -3455.19, 0.000, 0.000, 0.000, 12:57:58.187
88, -3002.93, -3006.92, -3793.74, -3038.02, 0.000, 0.000, 0.000, 12:57:58.187
89, -2670.59, -2663.46, -3509.64, -2730.89, 0.000, 0.000, 0.000, 12:57:58.188
90, -3294.38, -3343.48, -4068.02, -3323.84, 0.000, 0.000, 0.000, 12:57:58.188
91, -3418.79, -3515.63, -4186.37, -3439.84, 0.000, 0.000, 0.000, 12:57:58.202
92, -2994.94, -3032.61, -3799.67, -3045.66, 0.000, 0.000, 0.000, 12:57:58.202
93, -2691.82, -2634.71, -3518.51, -2731.66, 0.000, 0.000, 0.000, 12:57:58.217
94, -3303.40, -3331.99, -4076.82, -3329.52, 0.000, 0.000, 0.000, 12:57:58.217
95, -3448.55, -3467.09, -4214.70, -3470.40, 0.000, 0.000, 0.000, 12:57:58.218
96, -3024.77, -3030.78, -3823.94, -3056.35, 0.000, 0.000, 0.000, 12:57:58.218
97, -2691.98, -2652.61, -3518.77, -2745.43, 0.000, 0.000, 0.000, 12:57:58.262
98, -3294.02, -3329.19, -4067.64, -3336.49, 0.000, 0.000, 0.000, 12:57:58.262
99, -3428.53, -3467.51, -4161.25, -3434.51, 0.000, 0.000, 0.000, 12:57:58.292
100, -3018.66, -3017.66, -3770.98, -3042.68, 0.000, 0.000, 0.000, 12:57:58.292
101, -2686.13, -2633.62, -3472.50, -2743.28, 0.000, 0.000, 0.000, 12:57:58.292
102, -3301.42, -3281.47, -4019.70, -3317.12, 0.000, 0.000, 0.000, 12:57:58.292
103, -3419.37, -3393.54, -4121.28, -3448.73, 0.000, 0.000, 0.000, 12:57:58.293
104, -2991.72, -2965.01, -3734.36, -3036.25, 0.000, 0.000, 0.000, 12:57:58.293
105, -2679.64, -2602.10, -3459.80, -2728.35, 0.000, 0.000, 0.000, 12:57:58.294
106, -3318.02, -3326.92, -4039.85, -3349.75, 0.000, 0.000, 0.000, 12:57:58.294
107, -3454.58, -3521.54, -4164.56, -3488.78, 0.000, 0.000, 0.000, 12:57:58.295
108, -3033.54, -3024.64, -3777.56, -3066.68, 0.000, 0.000, 0.000, 12:57:58.295
109, -2705.64, -2625.92, -3495.94, -2738.19, 0.000, 0.000, 0.000, 12:57:58.295
110, -3314.51, -3327.47, -4061.92, -3337.03, 0.000, 0.000, 0.000, 12:57:58.295
111, -3444.51, -3470.18, -4184.54, -3466.26, 0.000, 0.000, 0.000, 12:57:58.303
112, -3026.53, -3022.59, -3807.73, -3076.11, 0.000, 0.000, 0.000, 12:57:58.303
113, -2695.74, -2681.34, -3512.13, -2749.21, 0.000, 0.000, 0.000, 12:57:58.307
114, -3321.60, -3339.65, -4073.39, -3334.52, 0.000, 0.000, 0.000, 12:57:58.307
115, -3437.04, -3476.25, -4187.73, -3460.01, 0.000, 0.000, 0.000, 12:57:58.321
116, -3023.24, -3005.38, -3804.99, -3052.70, 0.000, 0.000, 0.000, 12:57:58.322
117, -2676.80, -2650.33, -3497.34, -2724.50, 0.000, 0.000, 0.000, 12:57:58.352
118, -3295.46, -3300.11, -4060.91, -3306.91, 0.000, 0.000, 0.000, 12:57:58.352
119, -3422.35, -3457.26, -4171.19, -3450.27, 0.000, 0.000, 0.000, 12:57:58.354
120, -3007.63, -2947.54, -3791.79, -3041.25, 0.000, 0.000, 0.000, 12:57:58.354
121, -2684.28, -2616.63, -3512.15, -2719.49, 0.000, 0.000, 0.000, 12:57:58.354
122, -3281.18, -3357.30, -4042.53, -3305.74, 0.000, 0.000, 0.000, 12:57:58.354
123, -3430.04, -3429.50, -4178.35, -3462.81, 0.000, 0.000, 0.000, 12:57:58.355
124, -3022.13, -3004.35, -3822.45, -3053.57, 0.000, 0.000, 0.000, 12:57:58.355
125, -2676.13, -2662.34, -3502.63, -2730.65, 0.000, 0.000, 0.000, 12:57:58.367
126, -3300.35, -3330.70, -4072.87, -3306.82, 0.000, 0.000, 0.000, 12:57:58.367
127, -3445.79, -3481.46, -4199.64, -3472.13, 0.000, 0.000, 0.000, 12:57:58.396
128, -3027.68, -3083.36, -3818.92, -3066.72, 0.000, 0.000, 0.000, 12:57:58.397
129, -2688.84, -2648.02, -3524.63, -2729.08, 0.000, 0.000, 0.000, 12:57:58.397
130, -3288.95, -3334.40, -4065.93, -3302.10, 0.000, 0.000, 0.000, 12:57:58.397
131, -3435.25, -3463.49, -4192.92, -3452.48, 0.000, 0.000, 0.000, 12:57:58.398
132, -3018.08, -3009.12, -3809.01, -3054.25, 0.000, 0.000, 0.000, 12:57:58.398
133, -2677.15, -2612.54, -3508.30, -2728.06, 0.000, 0.000, 0.000, 12:57:58.412
134, -3264.22, -3234.32, -4025.26, -3288.03, 0.000, 0.000, 0.000, 12:57:58.412
135, -3421.11, -3482.35, -4185.30, -3426.93, 0.000, 0.000, 0.000, 12:57:58.426
136, -3018.50, -3002.22, -3809.13, -3057.03, 0.000, 0.000, 0.000, 12:57:58.426
137, -2646.04, -2598.20, -3464.10, -2698.76, 0.000, 0.000, 0.000, 12:57:58.427
138, -3266.39, -3279.33, -4033.21, -3302.35, 0.000, 0.000, 0.000, 12:57:58.427
139, -3438.39, -3488.03, -4180.79, -3461.17, 0.000, 0.000, 0.000, 12:57:58.457
140, -3030.44, -3073.38, -3819.77, -3053.52, 0.000, 0.000, 0.000, 12:57:58.457
141, -2673.65, -2619.20, -3501.14, -2711.82, 0.000, 0.000, 0.000, 12:57:58.457
142, -3281.85, -3382.55, -4052.25, -3305.38, 0.000, 0.000, 0.000, 12:57:58.458
143, -3441.48, -3522.68, -4186.39, -3464.65, 0.000, 0.000, 0.000, 12:57:58.458
144, -3010.69, -3027.22, -3808.12, -3054.64, 0.000, 0.000, 0.000, 12:57:58.458
145, -2670.57, -2625.29, -3498.94, -2725.60, 0.000, 0.000, 0.000, 12:57:58.503
146, -3270.53, -3312.69, -4038.94, -3288.53, 0.000, 0.000, 0.000, 12:57:58.503
147, -3414.31, -3458.13, -4169.01, -3457.27, 0.000, 0.000, 0.000, 12:57:58.503
148, -3021.79, -3046.70, -3832.01, -3066.52, 0.000, 0.000, 0.000, 12:57:58.503
149, -2668.81, -2605.63, -3500.20, -2713.46, 0.000, 0.000, 0.000, 12:57:58.503
150, -3263.55, -3301.79, -4047.45, -3296.60, 0.000, 0.000, 0.000, 12:57:58.503
151, -3428.73, -3506.14, -4199.15, -3455.10, 0.000, 0.000, 0.000, 12:57:58.504
152, -3034.13, -3091.22, -3834.12, -3077.92, 0.000, 0.000, 0.000, 12:57:58.504
153, -2635.64, -2601.25, -3466.03, -2695.31, 0.000, 0.000, 0.000, 12:57:58.505
154, -3243.82, -3323.82, -4023.97, -3286.39, 0.000, 0.000, 0.000, 12:57:58.505
155, -3424.03, -3464.78, -4186.37, -3469.02, 0.000, 0.000, 0.000, 12:57:58.517
156, -3022.58, -2992.91, -3820.72, -3074.43, 0.000, 0.000, 0.000, 12:57:58.518
157, -2669.69, -2611.53, -3496.70, -2723.19, 0.000, 0.000, 0.000, 12:57:58.562
158, -3269.31, -3295.10, -4044.93, -3306.71, 0.000, 0.000, 0.000, 12:57:58.562
159, -3425.91, -3493.18, -4197.54, -3475.44, 0.000, 0.000, 0.000, 12:57:58.562
160, -3023.98, -3053.62, -3818.64, -3086.79, 0.000, 0.000, 0.000, 12:57:58.562
161, -2672.62, -2604.35, -3507.59, -2722.22, 0.000, 0.000, 0.000, 12:57:58.563
162, -3248.25, -3245.15, -4023.64, -3283.06, 0.000, 0.000, 0.000, 12:57:58.563
163, -3431.20, -3529.99, -4194.02, -3460.07, 0.000, 0.000, 0.000, 12:57:58.564
164, -3034.96, -3044.72, -3826.32, -3080.84, 0.000, 0.000, 0.000, 12:57:58.564
165, -2691.98, -2663.65, -3522.33, -2733.38, 0.000, 0.000, 0.000, 12:57:58.564
166, -3267.51, -3289.91, -4046.38, -3285.40, 0.000, 0.000, 0.000, 12:57:58.564
167, -3436.36, -3467.34, -4192.79, -3459.23, 0.000, 0.000, 0.000, 12:57:58.607
168, -3030.20, -3021.25, -3824.23, -3066.77, 0.000, 0.000, 0.000, 12:57:58.607
169, -2685.75, -2700.10, -3507.59, -2712.81, 0.000, 0.000, 0.000, 12:57:58.607
170, -3273.44, -3252.80, -4047.94, -3281.19, 0.000, 0.000, 0.000, 12:57:58.608
171, -3438.67, -3501.76, -4208.46, -3463.87, 0.000, 0.000, 0.000, 12:57:58.608
172, -3034.58, -3001.98, -3837.99, -3067.85, 0.000, 0.000, 0.000, 12:57:58.608
173, -2672.47, -2634.80, -3486.47, -2707.43, 0.000, 0.000, 0.000, 12:57:58.609
174, -3271.19, -3307.10, -4053.72, -3282.91, 0.000, 0.000, 0.000, 12:57:58.609
175, -3449.48, -3465.17, -4215.27, -3469.33, 0.000, 0.000, 0.000, 12:57:58.621
176, -3049.49, -3096.29, -3840.66, -3092.64, 0.000, 0.000, 0.000, 12:57:58.621
177, -2675.26, -2625.13, -3511.71, -2722.45, 0.000, 0.000, 0.000, 12:57:58.637
178, -3270.87, -3324.67, -4053.56, -3287.90, 0.000, 0.000, 0.000, 12:57:58.637
179, -3448.93, -3515.45, -4213.68, -3460.32, 0.000, 0.000, 0.000, 12:57:58.637
180, -3044.38, -3064.49, -3845.33, -3090.30, 0.000, 0.000, 0.000, 12:57:58.637
181, -2695.25, -2690.06, -3519.93, -2734.09, 0.000, 0.000, 0.000, 12:57:58.652
182, -3234.81, -3275.63, -4014.12, -3256.73, 0.000, 0.000, 0.000, 12:57:58.652
183, -3452.61, -3461.20, -4211.73, -3465.41, 0.000, 0.000, 0.000, 12:57:58.712
184, -3049.56, -3112.54, -3839.33, -3084.73, 0.000, 0.000, 0.000, 12:57:58.712
185, -2652.31, -2588.14, -3485.29, -2694.62, 0.000, 0.000, 0.000, 12:57:58.712
186, -3244.59, -3228.74, -4012.49, -3266.91, 0.000, 0.000, 0.000, 12:57:58.712
187, -3449.21, -3500.26, -4201.96, -3472.01, 0.000, 0.000, 0.000, 12:57:58.713
188, -3030.89, -2989.81, -3831.40, -3076.85, 0.000, 0.000, 0.000, 12:57:58.713
189, -2669.15, -2617.28, -3506.47, -2717.42, 0.000, 0.000, 0.000, 12:57:58.713
190, -3246.71, -3223.11, -4026.95, -3270.09, 0.000, 0.000, 0.000, 12:57:58.714
191, -3444.08, -3485.46, -4199.35, -3466.28, 0.000, 0.000, 0.000, 12:57:58.714
192, -3052.81, -3028.09, -3851.80, -3094.32, 0.000, 0.000, 0.000, 12:57:58.714
193, -2671.32, -2618.79, -3510.57, -2707.25, 0.000, 0.000, 0.000, 12:57:58.715
194, -3248.18, -3286.82, -4024.95, -3271.57, 0.000, 0.000, 0.000, 12:57:58.715
195, -3452.10, -3532.68, -4210.69, -3476.03, 0.000, 0.000, 0.000, 12:57:58.716
196, -3049.18, -3059.38, -3841.41, -3087.98, 0.000, 0.000, 0.000, 12:57:58.716
197, -2648.67, -2601.15, -3499.47, -2694.64, 0.000, 0.000, 0.000, 12:57:58.726
198, -3228.22, -3283.08, -4009.08, -3258.01, 0.000, 0.000, 0.000, 12:57:58.726
199, -3436.63, -3504.08, -4194.54, -3466.89, 0.000, 0.000, 0.000, 12:57:58.742
200, -3040.34, -3073.03, -3825.44, -3081.76, 0.000, 0.000, 0.000, 12:57:58.742
0, -3021.21, -3147.65, -3842.28, -3087.07, 0.000, 0.000, 0.000, 12:57:58.742
1, -3591.40, -3851.46, -4368.57, -3629.59, 0.000, 0.000, 0.000, 12:57:58.756
2, -3796.30, -4034.49, -4546.95, -3841.93, 0.000, 0.000, 0.000, 12:57:58.756
3, -3389.38, -3541.95, -4187.81, -3459.99, 0.000, 0.000, 0.000, 12:57:58.773
4, -3030.65, -3100.36, -3854.42, -3088.67, 0.000, 0.000, 0.000, 12:57:58.773
5, -3584.71, -3780.73, -4363.58, -3627.10, 0.000, 0.000, 0.000, 12:57:58.787
6, -3801.46, -3967.19, -4558.28, -3847.81, 0.000, 0.000, 0.000, 12:57:58.787
7, -3405.69, -3464.02, -4194.38, -3460.26, 0.000, 0.000, 0.000, 12:57:58.788
8, -3051.27, -3176.72, -3880.19, -3098.29, 0.000, 0.000, 0.000, 12:57:58.788
9, -3605.07, -3790.83, -4379.48, -3630.90, 0.000, 0.000, 0.000, 12:57:58.862
10, -3802.28, -4020.11, -4564.01, -3849.56, 0.000, 0.000, 0.000, 12:57:58.862
11, -3423.95, -3673.95, -4216.88, -3477.12, 0.000, 0.000, 0.000, 12:57:58.862
12, -3063.41, -3268.15, -3878.11, -3111.32, 0.000, 0.000, 0.000, 12:57:58.862
13, -3580.70, -3810.77, -4359.25, -3611.40, 0.000, 0.000, 0.000, 12:57:58.863
14, -3811.51, -4010.13, -4570.83, -3824.67, 0.000, 0.000, 0.000, 12:57:58.863
15, -3411.65, -3465.54, -4201.43, -3441.72, 0.000, 0.000, 0.000, 12:57:58.863
16, -3037.74, -3109.45, -3863.64, -3072.71, 0.000, 0.000, 0.000, 12:57:58.864
17, -3607.54, -3680.21, -4373.26, -3620.84, 0.000, 0.000, 0.000, 12:57:58.864
18, -3813.27, -4021.62, -4554.47, -3820.00, 0.000, 0.000, 0.000, 12:57:58.864
19, -3444.52, -3673.46, -4221.50, -3461.22, 0.000, 0.000, 0.000, 12:57:58.865
20, -3043.74, -3231.34, -3855.84, -3080.25, 0.000, 0.000, 0.000, 12:57:58.865
21, -3593.67, -3719.84, -4348.22, -3612.06, 0.000, 0.000, 0.000, 12:57:58.866
22, -3828.13, -4008.07, -4572.67, -3840.93, 0.000, 0.000, 0.000, 12:57:58.866
25, -4378.76, -4629.14, -5059.84, -4369.79, 0.000, 0.000, 0.000, 12:57:58.877
26, -4619.26, -4816.32, -5287.94, -4605.89, 0.000, 0.000, 0.000, 12:57:58.877
27, -4245.53, -4434.67, -4940.20, -4239.89, 0.000, 0.000, 0.000, 12:57:58.953
28, -3818.79, -3915.67, -4553.94, -3817.20, 0.000, 0.000, 0.000, 12:57:58.953
29, -4367.01, -4544.85, -5049.19, -4353.11, 0.000, 0.000, 0.000, 12:57:58.953
30, -4602.91, -4902.07, -5253.83, -4581.85, 0.000, 0.000, 0.000, 12:57:58.953
31, -4216.08, -4395.85, -4912.51, -4229.14, 0.000, 0.000, 0.000, 12:57:58.953
32, -3829.63, -3972.15, -4561.77, -3834.44, 0.000, 0.000, 0.000, 12:57:58.953
33, -4390.51, -4709.96, -5068.54, -4362.87, 0.000, 0.000, 0.000, 12:57:58.954
34, -4585.08, -4801.05, -5236.11, -4587.47, 0.000, 0.000, 0.000, 12:57:58.954
35, -4234.09, -4486.79, -4917.67, -4238.56, 0.000, 0.000, 0.000, 12:57:58.955
36, -3827.71, -3952.86, -4555.01, -3836.80, 0.000, 0.000, 0.000, 12:57:58.955
37, -4387.72, -4632.08, -5061.64, -4366.45, 0.000, 0.000, 0.000, 12:57:58.956
38, -4610.06, -4876.58, -5256.72, -4601.45, 0.000, 0.000, 0.000, 12:57:58.956
39, -4224.86, -4440.32, -4904.57, -4226.37, 0.000, 0.000, 0.000, 12:57:58.956
40, -3828.14, -3987.47, -4557.36, -3835.30, 0.000, 0.000, 0.000, 12:57:58.956
43, -3423.59, -3521.23, -4185.17, -3469.00, 0.000, 0.000, 0.000, 12:57:58.967
44, -3025.92, -3110.37, -3826.36, -3077.45, 0.000, 0.000, 0.000, 12:57:58.968
45, -3544.28, -3677.08, -4289.82, -3574.38, 0.000, 0.000, 0.000, 12:57:58.983
46, -3793.49, -3908.53, -4513.90, -3832.94, 0.000, 0.000, 0.000, 12:57:58.983
47, -3414.66, -3423.91, -4168.34, -3463.77, 0.000, 0.000, 0.000, 12:57:58.983
48, -3030.06, -3080.74, -3833.02, -3073.35, 0.000, 0.000, 0.000, 12:57:58.983
49, -3564.42, -3680.65, -4319.72, -3588.02, 0.000, 0.000, 0.000, 12:57:59.012
50, -3802.68, -3932.98, -4539.65, -3829.28, 0.000, 0.000, 0.000, 12:57:59.012
51, -3411.40, -3437.61, -4180.06, -3466.92, 0.000, 0.000, 0.000, 12:57:59.012
52, -3029.43, -3038.41, -3836.47, -3089.63, 0.000, 0.000, 0.000, 12:57:59.012
53, -3555.23, -3705.06, -4318.10, -3594.31, 0.000, 0.000, 0.000, 12:57:59.013
54, -3808.92, -3961.66, -4533.58, -3832.07, 0.000, 0.000, 0.000, 12:57:59.013
55, -3428.41, -3511.00, -4188.26, -3466.46, 0.000, 0.000, 0.000, 12:57:59.056
56, -3012.71, -3028.81, -3813.82, -3068.50, 0.000, 0.000, 0.000, 12:57:59.056
57, -3573.87, -3687.73, -4327.56, -3590.53, 0.000, 0.000, 0.000, 12:57:59.072
58, -3806.31, -3892.91, -4535.68, -3833.10, 0.000, 0.000, 0.000, 12:57:59.073
59, -3440.79, -3470.97, -4204.64, -3486.74, 0.000, 0.000, 0.000, 12:57:59.117
60, -3044.56, -3073.60, -3852.90, -3087.72, 0.000, 0.000, 0.000, 12:57:59.118
61, -3542.47, -3694.42, -4302.90, -3574.58, 0.000, 0.000, 0.000, 12:57:59.118
62, -3788.43, -3911.95, -4516.04, -3808.35, 0.000, 0.000, 0.000, 12:57:59.118
63, -3434.40, -3524.55, -4192.33, -3461.34, 0.000, 0.000, 0.000, 12:57:59.119
64, -3041.90, -3104.15, -3843.52, -3077.10, 0.000, 0.000, 0.000, 12:57:59.119
65, -3556.62, -3669.56, -4297.84, -3580.74, 0.000, 0.000, 0.000, 12:57:59.119
66, -3807.95, -3957.78, -4537.01, -3830.08, 0.000, 0.000, 0.000, 12:57:59.119
67, -3440.66, -3446.84, -4206.38, -3484.65, 0.000, 0.000, 0.000, 12:57:59.120
68, -3033.45, -3114.77, -3830.57, -3077.04, 0.000, 0.000, 0.000, 12:57:59.120
69, -3547.90, -3720.61, -4305.81, -3566.75, 0.000, 0.000, 0.000, 12:57:59.120
70, -3809.28, -3945.76, -4541.75, -3839.10, 0.000, 0.000, 0.000, 12:57:59.120
71, -3438.78, -3524.86, -4199.30, -3482.83, 0.000, 0.000, 0.000, 12:57:59.121
72, -3035.96, -3086.52, -3841.89, -3088.85, 0.000, 0.000, 0.000, 12:57:59.121
77, -3524.73, -3674.99, -4279.04, -3567.60, 0.000, 0.000, 0.000, 12:57:59.162
78, -3799.35, -3808.40, -4513.23, -3834.95, 0.000, 0.000, 0.000, 12:57:59.162
79, -3432.22, -3433.52, -4190.15, -3489.81, 0.000, 0.000, 0.000, 12:57:59.162
80, -3029.34, -3138.08, -3830.49, -3090.66, 0.000, 0.000, 0.000, 12:57:59.162
81, -3527.25, -3642.50, -4276.50, -3566.22, 0.000, 0.000, 0.000, 12:57:59.163
82, -3785.91, -3916.45, -4518.53, -3841.99, 0.000, 0.000, 0.000, 12:57:59.163
83, -3427.02, -3569.23, -4188.03, -3494.30, 0.000, 0.000, 0.000, 12:57:59.164
84, -3020.93, -3067.28, -3816.05, -3089.89, 0.000, 0.000, 0.000, 12:57:59.164
85, -3533.33, -3644.75, -4294.65, -3571.72, 0.000, 0.000, 0.000, 12:57:59.177
86, -3808.30, -3944.72, -4531.08, -3856.83, 0.000, 0.000, 0.000, 12:57:59.177
87, -3431.76, -3559.18, -4194.46, -3499.36, 0.000, 0.000, 0.000, 12:57:59.191
88, -3043.36, -3149.67, -3853.63, -3107.35, 0.000, 0.000, 0.000, 12:57:59.191
89, -3553.37, -3702.67, -4315.13, -3600.74, 0.000, 0.000, 0.000, 12:57:59.192
90, -3793.91, -3977.79, -4532.84, -3843.23, 0.000, 0.000, 0.000, 12:57:59.192
91, -3426.50, -3582.07, -4218.49, -3491.01, 0.000, 0.000, 0.000, 12:57:59.207
92, -2967.51, -3065.15, -3797.95, -3059.87, 0.000, 0.000, 0.000, 12:57:59.207
93, -3496.20, -3652.33, -4288.81, -3562.54, 0.000, 0.000, 0.000, 12:57:59.267
94, -3773.94, -3982.87, -4529.88, -3845.14, 0.000, 0.000, 0.000, 12:57:59.268
95, -3388.84, -3552.28, -4192.38, -3471.47, 0.000, 0.000, 0.000, 12:57:59.268
96, -3001.08, -3083.47, -3827.25, -3088.73, 0.000, 0.000, 0.000, 12:57:59.268
97, -3510.02, -3675.14, -4290.10, -3562.28, 0.000, 0.000, 0.000, 12:57:59.268
98, -3787.64, -3929.60, -4530.26, -3833.01, 0.000, 0.000, 0.000, 12:57:59.268
99, -3420.75, -3439.12, -4200.83, -3490.79, 0.000, 0.000, 0.000, 12:57:59.270
100, -3006.07, -3088.35, -3824.41, -3083.05, 0.000, 0.000, 0.000, 12:57:59.270
101, -3510.40, -3654.53, -4277.84, -3564.18, 0.000, 0.000, 0.000, 12:57:59.270
102, -3789.99, -3890.93, -4528.51, -3837.41, 0.000, 0.000, 0.000, 12:57:59.270
103, -3405.26, -3576.66, -4184.60, -3493.07, 0.000, 0.000, 0.000, 12:57:59.270
104, -3009.48, -3144.50, -3817.17, -3073.37, 0.000, 0.000, 0.000, 12:57:59.270
105, -3510.52, -3645.98, -4272.70, -3562.00, 0.000, 0.000, 0.000, 12:57:59.282
106, -3801.19, -3981.01, -4546.06, -3857.25, 0.000, 0.000, 0.000, 12:57:59.282
107, -3422.79, -3504.06, -4193.33, -3494.42, 0.000, 0.000, 0.000, 12:57:59.283
108, -3001.60, -3091.04, -3811.98, -3084.21, 0.000, 0.000, 0.000, 12:57:59.283
109, -3505.34, -3631.36, -4268.75, -3553.05, 0.000, 0.000, 0.000, 12:57:59.297
110, -3784.87, -3930.72, -4528.06, -3847.17, 0.000, 0.000, 0.000, 12:57:59.297
111, -3450.15, -3563.57, -4220.33, -3516.72, 0.000, 0.000, 0.000, 12:57:59.311
112, -3035.16, -3087.76, -3844.15, -3100.44, 0.000, 0.000, 0.000, 12:57:59.311
113, -3519.51, -3640.56, -4285.06, -3571.18, 0.000, 0.000, 0.000, 12:57:59.312
114, -3818.50, -3963.54, -4555.83, -3865.56, 0.000, 0.000, 0.000, 12:57:59.312
115, -3446.85, -3571.51, -4213.38, -3499.68, 0.000, 0.000, 0.000, 12:57:59.334
116, -2998.93, -3072.17, -3808.92, -3073.12, 0.000, 0.000, 0.000, 12:57:59.334
117, -3514.37, -3650.14, -4278.79, -3561.02, 0.000, 0.000, 0.000, 12:57:59.341
118, -3786.49, -4016.87, -4531.88, -3858.92, 0.000, 0.000, 0.000, 12:57:59.341
119, -3440.15, -3557.04, -4217.14, -3512.91, 0.000, 0.000, 0.000, 12:57:59.342
120, -3022.70, -3114.66, -3828.42, -3102.52, 0.000, 0.000, 0.000, 12:57:59.342
121, -3497.17, -3570.74, -4264.35, -3554.60, 0.000, 0.000, 0.000, 12:57:59.373
122, -3797.04, -4000.34, -4535.76, -3854.39, 0.000, 0.000, 0.000, 12:57:59.373
123, -3437.54, -3483.88, -4208.56, -3505.46, 0.000, 0.000, 0.000, 12:57:59.417
124, -3009.60, -3073.26, -3825.95, -3089.39, 0.000, 0.000, 0.000, 12:57:59.418
125, -3501.46, -3637.08, -4272.10, -3557.21, 0.000, 0.000, 0.000, 12:57:59.418
126, -3802.25, -4037.76, -4535.01, -3850.40, 0.000, 0.000, 0.000, 12:57:59.418
127, -3445.82, -3561.44, -4211.24, -3499.95, 0.000, 0.000, 0.000, 12:57:59.419
128, -3031.99, -3123.56, -3839.44, -3097.13, 0.000, 0.000, 0.000, 12:57:59.419
129, -3518.20, -3637.31, -4278.15, -3564.48, 0.000, 0.000, 0.000, 12:57:59.420
130, -3824.51, -3866.45, -4555.95, -3859.94, 0.000, 0.000, 0.000, 12:57:59.420
131, -3462.92, -3560.13, -4229.12, -3518.29, 0.000, 0.000, 0.000, 12:57:59.421
132, -3022.08, -3110.40, -3831.88, -3094.07, 0.000, 0.000, 0.000, 12:57:59.421
133, -3491.55, -3583.91, -4253.60, -3533.09, 0.000, 0.000, 0.000, 12:57:59.421
134, -3775.89, -3957.75, -4518.85, -3831.32, 0.000, 0.000, 0.000, 12:57:59.421
135, -3438.40, -3563.49, -4197.91, -3499.62, 0.000, 0.000, 0.000, 12:57:59.421
136, -3024.63, -3149.12, -3828.14, -3080.72, 0.000, 0.000, 0.000, 12:57:59.421
137, -3492.20, -3512.98, -4253.35, -3535.93, 0.000, 0.000, 0.000, 12:57:59.432
138, -3807.04, -3950.44, -4534.68, -3853.36, 0.000, 0.000, 0.000, 12:57:59.432
139, -3450.13, -3594.32, -4212.79, -3512.70, 0.000, 0.000, 0.000, 12:57:59.462
140, -3028.65, -3094.35, -3828.20, -3101.61, 0.000, 0.000, 0.000, 12:57:59.462
141, -3503.63, -3626.89, -4254.60, -3551.92, 0.000, 0.000, 0.000, 12:57:59.477
142, -3809.60, -3925.80, -4543.09, -3861.59, 0.000, 0.000, 0.000, 12:57:59.477
143, -3463.53, -3569.57, -4226.85, -3519.13, 0.000, 0.000, 0.000, 12:57:59.507
144, -3028.93, -3130.08, -3838.41, -3101.93, 0.000, 0.000, 0.000, 12:57:59.507
145, -3474.45, -3603.30, -4246.63, -3536.94, 0.000, 0.000, 0.000, 12:57:59.507
146, -3795.35, -3952.93, -4538.18, -3846.55, 0.000, 0.000, 0.000, 12:57:59.507
147, -3448.21, -3542.86, -4212.84, -3516.33, 0.000, 0.000, 0.000, 12:57:59.508
148, -3005.57, -3069.56, -3810.42, -3081.86, 0.000, 0.000, 0.000, 12:57:59.508
149, -3482.18, -3594.21, -4239.08, -3537.51, 0.000, 0.000, 0.000, 12:57:59.509
150, -3794.70, -3949.70, -4522.22, -3843.72, 0.000, 0.000, 0.000, 12:57:59.509
151, -3446.04, -3538.74, -4219.17, -3524.56, 0.000, 0.000, 0.000, 12:57:59.510
152, -3023.33, -3115.21, -3824.12, -3101.67, 0.000, 0.000, 0.000, 12:57:59.510
153, -3468.56, -3630.38, -4231.63, -3518.35, 0.000, 0.000, 0.000, 12:57:59.510
154, -3802.89, -3988.61, -4538.77, -3856.70, 0.000, 0.000, 0.000, 12:57:59.510
155, -3440.35, -3591.44, -4189.27, -3509.66, 0.000, 0.000, 0.000, 12:57:59.522
156, -3015.31, -3026.15, -3821.35, -3100.17, 0.000, 0.000, 0.000, 12:57:59.522
157, -3483.46, -3600.52, -4239.27, -3512.07, 0.000, 0.000, 0.000, 12:57:59.536
158, -3793.78, -3946.75, -4531.67, -3837.18, 0.000, 0.000, 0.000, 12:57:59.536
159, -3460.82, -3503.25, -4222.27, -3529.11, 0.000, 0.000, 0.000, 12:57:59.566
160, -3021.80, -3136.14, -3830.57, -3105.43, 0.000, 0.000, 0.000, 12:57:59.567
161, -3475.19, -3585.78, -4247.40, -3538.08, 0.000, 0.000, 0.000, 12:57:59.567
162, -3805.51, -3904.02, -4532.90, -3856.24, 0.000, 0.000, 0.000, 12:57:59.567
163, -3460.80, -3631.84, -4234.21, -3512.88, 0.000, 0.000, 0.000, 12:57:59.568
164, -3023.28, -3100.64, -3841.24, -3091.89, 0.000, 0.000, 0.000, 12:57:59.568
165, -3465.58, -3583.49, -4248.02, -3533.34, 0.000, 0.000, 0.000, 12:57:59.568
166, -3803.73, -3964.55, -4533.71, -3846.67, 0.000, 0.000, 0.000, 12:57:59.568
167, -3462.15, -3670.93, -4233.90, -3527.61, 0.000, 0.000, 0.000, 12:57:59.611
168, -3014.55, -3153.24, -3830.53, -3079.63, 0.000, 0.000, 0.000, 12:57:59.611
169, -3453.47, -3665.11, -4237.88, -3519.97, 0.000, 0.000, 0.000, 12:57:59.612
170, -3778.65, -4011.63, -4532.33, -3850.99, 0.000, 0.000, 0.000, 12:57:59.612
171, -3424.93, -3599.04, -4221.22, -3527.36, 0.000, 0.000, 0.000, 12:57:59.612
172, -2978.28, -3074.72, -3815.64, -3104.92, 0.000, 0.000, 0.000, 12:57:59.613
173, -3405.21, -3590.01, -4212.93, -3539.73, 0.000, 0.000, 0.000, 12:57:59.613
174, -3731.25, -3991.28, -4529.30, -3861.36, 0.000, 0.000, 0.000, 12:57:59.613
175, -3367.19, -3589.01, -4210.56, -3524.45, 0.000, 0.000, 0.000, 12:57:59.626
176, -2913.68, -3120.11, -3840.53, -3091.02, 0.000, 0.000, 0.000, 12:57:59.626
177, -3347.81, -3607.56, -4233.04, -3519.03, 0.000, 0.000, 0.000, 12:57:59.642
178, -3683.55, -3997.12, -4526.82, -3857.21, 0.000, 0.000, 0.000, 12:57:59.642
179, -3353.62, -3627.47, -4228.49, -3522.03, 0.000, 0.000, 0.000, 12:57:59.642
180, -2925.16, -3117.66, -3827.28, -3092.85, 0.000, 0.000, 0.000, 12:57:59.643
181, -3388.54, -3595.72, -4231.41, -3520.40, 0.000, 0.000, 0.000, 12:57:59.672
182, -3731.91, -3998.92, -4534.02, -3848.02, 0.000, 0.000, 0.000, 12:57:59.673
183, -3409.17, -3588.38, -4218.73, -3525.61, 0.000, 0.000, 0.000, 12:57:59.674
184, -2967.34, -3086.20, -3819.13, -3099.54, 0.000, 0.000, 0.000, 12:57:59.674
185, -3436.27, -3561.23, -4238.00, -3527.85, 0.000, 0.000, 0.000, 12:57:59.674
186, -3754.72, -3928.38, -4519.24, -3840.22, 0.000, 0.000, 0.000, 12:57:59.674
187, -3457.04, -3562.70, -4227.85, -3533.56, 0.000, 0.000, 0.000, 12:57:59.704
188, -3031.07, -3105.43, -3839.26, -3109.75, 0.000, 0.000, 0.000, 12:57:59.704
189, -3444.63, -3568.95, -4201.59, -3518.91, 0.000, 0.000, 0.000, 12:57:59.717
190, -3827.41, -3971.93, -4541.91, -3850.63, 0.000, 0.000, 0.000, 12:57:59.717
191, -3506.90, -3618.01, -4246.41, -3547.64, 0.000, 0.000, 0.000, 12:57:59.718
192, -3039.47, -3077.46, -3822.45, -3092.92, 0.000, 0.000, 0.000, 12:57:59.718
193, -3486.11, -3588.48, -4235.70, -3505.25, 0.000, 0.000, 0.000, 12:57:59.718
194, -3831.84, -3982.27, -4548.29, -3845.54, 0.000, 0.000, 0.000, 12:57:59.718
195, -3494.83, -3648.06, -4242.45, -3537.06, 0.000, 0.000, 0.000, 12:57:59.719
196, -3061.31, -3057.40, -3849.09, -3101.80, 0.000, 0.000, 0.000, 12:57:59.719
197, -3483.07, -3520.09, -4222.03, -3505.30, 0.000, 0.000, 0.000, 12:57:59.732
198, -3843.05, -4012.39, -4554.51, -3848.14, 0.000, 0.000, 0.000, 12:57:59.732
199, -3498.76, -3605.55, -4247.02, -3521.60, 0.000, 0.000, 0.000, 12:57:59.747
200, -3064.36, -3039.07, -3839.14, -3094.31, 0.000, 0.000, 0.000, 12:57:59.747
0, -3503.68, -3659.78, -4256.92, -3499.72, 0.000, 0.000, 0.000, 12:57:59.747
1, -3873.77, -4035.70, -4591.20, -3858.77, 0.000, 0.000, 0.000, 12:57:59.761
2, -3529.96, -3689.23, -4278.19, -3536.39, 0.000, 0.000, 0.000, 12:57:59.761
3, -3091.43, -3118.49, -3878.20, -3104.06, 0.000, 0.000, 0.000, 12:57:59.822
4, -3513.41, -3634.91, -4271.21, -3505.43, 0.000, 0.000, 0.000, 12:57:59.823
5, -3860.94, -4046.64, -4577.13, -3863.01, 0.000, 0.000, 0.000, 12:57:59.823
6, -3536.49, -3693.73, -4284.32, -3537.87, 0.000, 0.000, 0.000, 12:57:59.823
7, -3106.89, -3190.18, -3896.52, -3113.04, 0.000, 0.000, 0.000, 12:57:59.824
8, -3522.74, -3667.79, -4273.61, -3516.48, 0.000, 0.000, 0.000, 12:57:59.824
9, -3874.18, -3954.55, -4590.11, -3857.36, 0.000, 0.000, 0.000, 12:57:59.824
10, -3544.55, -3737.86, -4297.27, -3553.94, 0.000, 0.000, 0.000, 12:57:59.824
11, -3099.80, -3223.81, -3883.18, -3112.71, 0.000, 0.000, 0.000, 12:57:59.824
12, -3503.28, -3662.58, -4260.56, -3491.20, 0.000, 0.000, 0.000, 12:57:59.824
13, -3862.56, -4023.26, -4573.70, -3845.49, 0.000, 0.000, 0.000, 12:57:59.825
14, -3531.51, -3646.34, -4278.86, -3541.55, 0.000, 0.000, 0.000, 12:57:59.825
15, -3088.02, -3147.14, -3888.82, -3105.98, 0.000, 0.000, 0.000, 12:57:59.826
16, -3501.69, -3623.20, -4262.38, -3499.15, 0.000, 0.000, 0.000, 12:57:59.826
17, -3857.70, -4006.43, -4575.82, -3849.25, 0.000, 0.000, 0.000, 12:57:59.837
18, -3532.83, -3679.82, -4283.45, -3541.16, 0.000, 0.000, 0.000, 12:57:59.837
19, -3090.01, -3111.68, -3892.14, -3110.85, 0.000, 0.000, 0.000, 12:57:59.852
20, -3490.76, -3599.92, -4257.64, -3495.88, 0.000, 0.000, 0.000, 12:57:59.853
21, -3858.00, -4042.75, -4583.23, -3854.68, 0.000, 0.000, 0.000, 12:57:59.869
22, -3529.62, -3685.30, -4299.10, -3548.68, 0.000, 0.000, 0.000, 12:57:59.869
23, -3090.11, -3178.18, -3892.80, -3120.93, 0.000, 0.000, 0.000, 12:57:59.870
24, -3475.55, -3523.82, -4252.88, -3486.24, 0.000, 0.000, 0.000, 12:57:59.870
25, -3840.11, -3902.92, -4575.42, -3842.60, 0.000, 0.000, 0.000, 12:57:59.882
26, -3521.61, -3662.68, -4288.74, -3552.76, 0.000, 0.000, 0.000, 12:57:59.882
27, -3087.90, -3286.53, -3897.96, -3122.47, 0.000, 0.000, 0.000, 12:57:59.898
28, -3465.28, -3684.62, -4244.13, -3477.81, 0.000, 0.000, 0.000, 12:57:59.898
29, -3829.77, -3984.75, -4570.68, -3848.76, 0.000, 0.000, 0.000, 12:57:59.926
30, -3517.50, -3670.30, -4296.18, -3550.35, 0.000, 0.000, 0.000, 12:57:59.926
31, -3073.72, -3198.05, -3893.76, -3123.25, 0.000, 0.000, 0.000, 12:57:59.927
32, -3458.86, -3633.52, -4242.31, -3469.60, 0.000, 0.000, 0.000, 12:57:59.927
33, -3834.44, -4064.78, -4577.85, -3845.46, 0.000, 0.000, 0.000, 12:57:59.957
34, -3509.13, -3658.56, -4272.69, -3527.77, 0.000, 0.000, 0.000, 12:57:59.957
35, -3073.83, -3172.15, -3880.55, -3114.30, 0.000, 0.000, 0.000, 12:57:59.958
36, -3455.30, -3632.28, -4239.43, -3474.90, 0.000, 0.000, 0.000, 12:57:59.958
37, -3827.90, -4004.30, -4568.10, -3843.49, 0.000, 0.000, 0.000, 12:57:59.958
38, -3508.17, -3676.60, -4280.56, -3538.35, 0.000, 0.000, 0.000, 12:57:59.958
39, -3067.48, -3190.59, -3876.92, -3110.30, 0.000, 0.000, 0.000, 12:57:59.959
40, -3451.49, -3594.27, -4230.43, -3468.49, 0.000, 0.000, 0.000, 12:57:59.959
41, -3810.91, -4060.03, -4552.42, -3823.04, 0.000, 0.000, 0.000, 12:57:59.959
42, -3513.98, -3703.82, -4276.95, -3535.91, 0.000, 0.000, 0.000, 12:57:59.959
43, -3078.32, -3201.40, -3887.47, -3114.70, 0.000, 0.000, 0.000, 12:57:59.972
44, -3460.58, -3566.15, -4236.33, -3479.95, 0.000, 0.000, 0.000, 12:57:59.972
45, -3833.58, -4052.65, -4575.83, -3848.57, 0.000, 0.000, 0.000, 12:57:59.987
46, -3510.61, -3685.20, -4290.84, -3548.23, 0.000, 0.000, 0.000, 12:57:59.987
47, -3078.29, -3187.43, -3901.00, -3124.77, 0.000, 0.000, 0.000, 12:57:59.987
48, -3436.47, -3631.14, -4232.61, -3462.46, 0.000, 0.000, 0.000, 12:57:59.987
49, -3820.27, -4008.73, -4564.95, -3835.06, 0.000, 0.000, 0.000, 12:58:00.017
50, -3509.74, -3671.78, -4283.91, -3539.69, 0.000, 0.000, 0.000, 12:58:00.017
51, -3082.26, -3205.68, -3892.41, -3127.56, 0.000, 0.000, 0.000, 12:58:00.017
52, -3450.26, -3625.06, -4221.00, -3475.39, 0.000, 0.000, 0.000, 12:58:00.017
53, -3817.30, -3999.45, -4564.71, -3836.65, 0.000, 0.000, 0.000, 12:58:00.018
54, -3505.75, -3585.22, -4287.06, -3548.50, 0.000, 0.000, 0.000, 12:58:00.018
55, -3067.63, -3242.89, -3894.69, -3121.75, 0.000, 0.000, 0.000, 12:58:00.062
56, -3440.39, -3641.42, -4230.52, -3472.27, 0.000, 0.000, 0.000, 12:58:00.062
57, -3828.18, -3980.79, -4580.39, -3850.06, 0.000, 0.000, 0.000, 12:58:00.063
58, -3507.68, -3685.75, -4292.49, -3547.16, 0.000, 0.000, 0.000, 12:58:00.063
59, -3062.53, -3179.05, -3891.82, -3117.48, 0.000, 0.000, 0.000, 12:58:00.063
60, -3415.71, -3618.11, -4209.30, -3452.24, 0.000, 0.000, 0.000, 12:58:00.064
61, -3806.43, -4053.77, -4559.50, -3832.92, 0.000, 0.000, 0.000, 12:58:00.065
62, -3511.52, -3692.43, -4299.84, -3553.06, 0.000, 0.000, 0.000, 12:58:00.065
63, -3074.79, -3198.79, -3896.69, -3126.04, 0.000, 0.000, 0.000, 12:58:00.065
64, -3420.90, -3550.16, -4209.86, -3453.07, 0.000, 0.000, 0.000, 12:58:00.065
65, -3811.69, -3998.77, -4564.93, -3840.68, 0.000, 0.000, 0.000, 12:58:00.077
66, -3521.28, -3727.45, -4308.49, -3566.14, 0.000, 0.000, 0.000, 12:58:00.077
67, -3079.53, -3230.38, -3907.36, -3131.87, 0.000, 0.000, 0.000, 12:58:00.091
68, -3444.37, -3579.66, -4228.69, -3470.41, 0.000, 0.000, 0.000, 12:58:00.091
69, -3829.78, -4046.29, -4576.62, -3855.99, 0.000, 0.000, 0.000, 12:58:00.123
70, -3536.53, -3714.92, -4310.92, -3568.97, 0.000, 0.000, 0.000, 12:58:00.123
71, -3100.45, -3185.27, -3913.35, -3164.77, 0.000, 0.000, 0.000, 12:58:00.124
72, -3462.38, -3584.44, -4239.44, -3486.82, 0.000, 0.000, 0.000, 12:58:00.124
73, -3835.73, -4042.59, -4576.41, -3819.09, 0.000, 0.000, 0.000, 12:58:00.124
74, -3536.39, -3704.56, -4306.46, -3542.08, 0.000, 0.000, 0.000, 12:58:00.124
75, -3096.73, -3173.62, -3908.37, -3115.41, 0.000, 0.000, 0.000, 12:58:00.124
76, -3448.52, -3552.79, -4232.29, -3441.51, 0.000, 0.000, 0.000, 12:58:00.124
77, -3841.36, -4072.67, -4579.95, -3832.28, 0.000, 0.000, 0.000, 12:58:00.167
78, -3549.84, -3671.66, -4311.16, -3547.97, 0.000, 0.000, 0.000, 12:58:00.167
79, -3098.37, -3219.67, -3914.08, -3117.07, 0.000, 0.000, 0.000, 12:58:00.167
80, -3416.09, -3531.33, -4206.80, -3429.67, 0.000, 0.000, 0.000, 12:58:00.167
81, -3830.94, -4017.93, -4573.14, -3832.40, 0.000, 0.000, 0.000, 12:58:00.168
82, -3524.15, -3694.69, -4303.58, -3534.53, 0.000, 0.000, 0.000, 12:58:00.168
83, -3087.43, -3216.16, -3908.30, -3125.15, 0.000, 0.000, 0.000, 12:58:00.169
84, -3427.94, -3565.59, -4215.62, -3442.33, 0.000, 0.000, 0.000, 12:58:00.169
85, -3822.44, -4000.80, -4579.52, -3833.16, 0.000, 0.000, 0.000, 12:58:00.182
86, -3529.29, -3695.87, -4304.80, -3548.22, 0.000, 0.000, 0.000, 12:58:00.182
87, -3093.33, -3233.14, -3908.63, -3132.12, 0.000, 0.000, 0.000, 12:58:00.197
88, -3427.43, -3603.13, -4218.17, -3452.08, 0.000, 0.000, 0.000, 12:58:00.197
89, -3831.97, -4027.79, -4576.63, -3846.23, 0.000, 0.000, 0.000, 12:58:00.197
90, -3533.68, -3741.00, -4311.68, -3569.18, 0.000, 0.000, 0.000, 12:58:00.197
91, -3080.96, -3187.39, -3900.64, -3121.96, 0.000, 0.000, 0.000, 12:58:00.227
92, -3413.80, -3529.44, -4214.09, -3440.35, 0.000, 0.000, 0.000, 12:58:00.227
93, -3822.38, -4015.06, -4571.50, -3838.84, 0.000, 0.000, 0.000, 12:58:00.228
94, -3518.68, -3656.69, -4297.92, -3557.65, 0.000, 0.000, 0.000, 12:58:00.228
95, -3082.65, -3229.03, -3904.65, -3131.45, 0.000, 0.000, 0.000, 12:58:00.229
96, -3392.87, -3573.87, -4183.49, -3422.27, 0.000, 0.000, 0.000, 12:58:00.229
97, -3802.46, -3995.45, -4551.71, -3824.66, 0.000, 0.000, 0.000, 12:58:00.273
98, -3523.39, -3735.47, -4300.21, -3558.66, 0.000, 0.000, 0.000, 12:58:00.273
99, -3081.46, -3123.04, -3906.18, -3126.55, 0.000, 0.000, 0.000, 12:58:00.273
100, -3415.69, -3606.69, -4198.05, -3437.64, 0.000, 0.000, 0.000, 12:58:00.273
101, -3806.66, -4042.85, -4555.28, -3827.69, 0.000, 0.000, 0.000, 12:58:00.273
102, -3512.89, -3610.56, -4298.25, -3559.78, 0.000, 0.000, 0.000, 12:58:00.273
103, -3095.17, -3186.23, -3914.56, -3134.12, 0.000, 0.000, 0.000, 12:58:00.274
104, -3394.99, -3555.64, -4189.47, -3431.64, 0.000, 0.000, 0.000, 12:58:00.274
105, -3811.44, -4031.75, -4559.95, -3829.48, 0.000, 0.000, 0.000, 12:58:00.274
106, -3540.95, -3792.70, -4315.85, -3570.12, 0.000, 0.000, 0.000, 12:58:00.275
107, -3099.68, -3242.71, -3919.50, -3143.45, 0.000, 0.000, 0.000, 12:58:00.287
108, -3393.03, -3477.87, -4191.27, -3419.15, 0.000, 0.000, 0.000, 12:58:00.287
109, -3811.30, -4043.62, -4555.09, -3827.28, 0.000, 0.000, 0.000, 12:58:00.302
110, -3533.15, -3678.58, -4306.69, -3562.78, 0.000, 0.000, 0.000, 12:58:00.302
111, -3104.51, -3168.10, -3914.28, -3146.94, 0.000, 0.000, 0.000, 12:58:00.317
112, -3403.59, -3607.37, -4190.38, -3426.28, 0.000, 0.000, 0.000, 12:58:00.317
113, -3825.12, -3941.98, -4564.10, -3836.09, 0.000, 0.000, 0.000, 12:58:00.318
114, -3553.76, -3753.64, -4322.51, -3584.24, 0.000, 0.000, 0.000, 12:58:00.318
115, -3115.82, -3288.96, -3906.40, -3150.69, 0.000, 0.000, 0.000, 12:58:00.378
116, -3385.68, -3575.75, -4156.82, -3427.67, 0.000, 0.000, 0.000, 12:58:00.378
117, -3803.21, -3994.46, -4516.20, -3836.07, 0.000, 0.000, 0.000, 12:58:00.378
118, -3531.47, -3687.78, -4278.69, -3592.72, 0.000, 0.000, 0.000, 12:58:00.378
119, -3100.04, -3259.58, -3888.07, -3168.13, 0.000, 0.000, 0.000, 12:58:00.378
120, -3381.56, -3532.81, -4144.22, -3439.47, 0.000, 0.000, 0.000, 12:58:00.378
121, -3802.10, -4013.27, -4519.34, -3840.51, 0.000, 0.000, 0.000, 12:58:00.378
122, -3536.72, -3679.84, -4275.53, -3597.38, 0.000, 0.000, 0.000, 12:58:00.378
123, -3103.94, -3192.29, -3893.52, -3167.42, 0.000, 0.000, 0.000, 12:58:00.379
124, -3373.14, -3452.42, -4144.88, -3434.39, 0.000, 0.000, 0.000, 12:58:00.379
125, -3801.82, -3943.47, -4526.28, -3834.60, 0.000, 0.000, 0.000, 12:58:00.380
126, -3545.54, -3715.63, -4295.46, -3584.80, 0.000, 0.000, 0.000, 12:58:00.380
127, -3112.63, -3252.19, -3906.43, -3170.30, 0.000, 0.000, 0.000, 12:58:00.392
128, -3394.68, -3526.18, -4165.25, -3434.64, 0.000, 0.000, 0.000, 12:58:00.392
129, -3800.86, -3991.64, -4532.66, -3834.04, 0.000, 0.000, 0.000, 12:58:00.407
130, -3543.85, -3739.01, -4291.31, -3584.03, 0.000, 0.000, 0.000, 12:58:00.407
131, -3114.94, -3226.78, -3910.97, -3173.75, 0.000, 0.000, 0.000, 12:58:00.407
132, -3396.82, -3574.74, -4168.57, -3436.69, 0.000, 0.000, 0.000, 12:58:00.407
133, -3817.02, -4000.65, -4549.26, -3837.40, 0.000, 0.000, 0.000, 12:58:00.422
134, -3558.40, -3709.47, -4318.04, -3592.49, 0.000, 0.000, 0.000, 12:58:00.422
135, -3123.44, -3279.68, -3927.99, -3168.95, 0.000, 0.000, 0.000, 12:58:00.436
136, -3387.67, -3569.02, -4162.96, -3428.70, 0.000, 0.000, 0.000, 12:58:00.436
137, -3798.78, -3954.13, -4545.97, -3843.37, 0.000, 0.000, 0.000, 12:58:00.437
138, -3548.80, -3716.53, -4317.99, -3594.23, 0.000, 0.000, 0.000, 12:58:00.437
139, -3132.08, -3287.82, -3940.57, -3190.99, 0.000, 0.000, 0.000, 12:58:00.452
140, -3390.99, -3519.43, -4165.80, -3419.86, 0.000, 0.000, 0.000, 12:58:00.452
141, -3797.97, -4010.09, -4534.38, -3821.61, 0.000, 0.000, 0.000, 12:58:00.481
142, -3540.12, -3716.25, -4309.94, -3587.48, 0.000, 0.000, 0.000, 12:58:00.481
143, -3132.27, -3260.79, -3930.37, -3172.19, 0.000, 0.000, 0.000, 12:58:00.482
144, -3372.66, -3554.83, -4166.91, -3420.02, 0.000, 0.000, 0.000, 12:58:00.482
145, -3808.77, -3989.04, -4554.14, -3830.20, 0.000, 0.000, 0.000, 12:58:00.483
146, -3554.41, -3717.41, -4330.76, -3594.50, 0.000, 0.000, 0.000, 12:58:00.483
147, -3115.23, -3281.62, -3942.24, -3176.13, 0.000, 0.000, 0.000, 12:58:00.483
148, -3373.22, -3525.49, -4167.48, -3417.25, 0.000, 0.000, 0.000, 12:58:00.483
149, -3795.57, -3981.04, -4538.74, -3822.97, 0.000, 0.000, 0.000, 12:58:00.512
150, -3541.27, -3724.58, -4316.33, -3590.93, 0.000, 0.000, 0.000, 12:58:00.512
151, -3132.06, -3243.39, -3947.63, -3190.08, 0.000, 0.000, 0.000, 12:58:00.512
152, -3381.03, -3584.70, -4176.02, -3426.63, 0.000, 0.000, 0.000, 12:58:00.512
153, -3796.55, -3992.43, -4540.43, -3829.70, 0.000, 0.000, 0.000, 12:58:00.527
154, -3561.16, -3718.24, -4326.95, -3600.70, 0.000, 0.000, 0.000, 12:58:00.527
155, -3130.90, -3247.20, -3946.44, -3183.19, 0.000, 0.000, 0.000, 12:58:00.527
156, -3369.72, -3511.00, -4163.73, -3399.43, 0.000, 0.000, 0.000, 12:58:00.527
157, -3782.81, -4036.93, -4533.94, -3809.61, 0.000, 0.000, 0.000, 12:58:00.541
158, -3551.21, -3609.54, -4313.10, -3590.21, 0.000, 0.000, 0.000, 12:58:00.541
159, -3122.32, -3210.12, -3941.65, -3178.99, 0.000, 0.000, 0.000, 12:58:00.556
160, -3367.36, -3509.14, -4160.14, -3414.77, 0.000, 0.000, 0.000, 12:58:00.556
161, -3786.20, -3971.75, -4532.06, -3819.98, 0.000, 0.000, 0.000, 12:58:00.557
162, -3554.68, -3703.04, -4333.13, -3583.10, 0.000, 0.000, 0.000, 12:58:00.557
163, -3118.61, -3288.01, -3948.81, -3154.30, 0.000, 0.000, 0.000, 12:58:00.572
164, -3359.73, -3529.93, -4162.56, -3377.10, 0.000, 0.000, 0.000, 12:58:00.572
165, -3783.09, -3958.46, -4531.95, -3802.15, 0.000, 0.000, 0.000, 12:58:00.587
166, -3549.36, -3703.87, -4331.32, -3573.75, 0.000, 0.000, 0.000, 12:58:00.588
167, -3122.07, -3244.84, -3954.42, -3174.62, 0.000, 0.000, 0.000, 12:58:00.588
168, -3350.56, -3504.10, -4137.72, -3387.92, 0.000, 0.000, 0.000, 12:58:00.588
169, -3790.23, -3981.05, -4530.40, -3807.33, 0.000, 0.000, 0.000, 12:58:00.617
170, -3557.04, -3750.32, -4331.92, -3582.94, 0.000, 0.000, 0.000, 12:58:00.618
171, -3132.13, -3252.35, -3965.40, -3176.35, 0.000, 0.000, 0.000, 12:58:00.618
172, -3343.63, -3446.28, -4129.78, -3383.06, 0.000, 0.000, 0.000, 12:58:00.618
173, -3772.89, -3942.69, -4513.86, -3800.41, 0.000, 0.000, 0.000, 12:58:00.619
174, -3556.05, -3713.72, -4325.36, -3587.76, 0.000, 0.000, 0.000, 12:58:00.619
175, -3134.02, -3276.08, -3954.48, -3185.75, 0.000, 0.000, 0.000, 12:58:00.632
176, -3349.56, -3488.52, -4150.10, -3383.13, 0.000, 0.000, 0.000, 12:58:00.632
177, -3782.41, -4008.57, -4527.85, -3796.24, 0.000, 0.000, 0.000, 12:58:00.646
178, -3556.97, -3697.12, -4319.53, -3584.75, 0.000, 0.000, 0.000, 12:58:00.646
179, -3129.23, -3237.95, -3946.66, -3190.05, 0.000, 0.000, 0.000, 12:58:00.647
180, -3350.05, -3482.07, -4145.88, -3378.54, 0.000, 0.000, 0.000, 12:58:00.647
181, -3782.22, -3951.35, -4533.04, -3799.11, 0.000, 0.000, 0.000, 12:58:00.662
182, -3557.94, -3699.97, -4346.40, -3590.20, 0.000, 0.000, 0.000, 12:58:00.662
183, -3151.70, -3267.11, -3968.68, -3201.61, 0.000, 0.000, 0.000, 12:58:00.677
184, -3344.09, -3474.64, -4129.67, -3382.17, 0.000, 0.000, 0.000, 12:58:00.677
185, -3787.16, -3966.62, -4531.78, -3804.17, 0.000, 0.000, 0.000, 12:58:00.723
186, -3559.79, -3716.40, -4336.15, -3591.34, 0.000, 0.000, 0.000, 12:58:00.723
187, -3132.50, -3225.13, -3948.54, -3192.94, 0.000, 0.000, 0.000, 12:58:00.723
188, -3350.95, -3492.57, -4143.92, -3384.03, 0.000, 0.000, 0.000, 12:58:00.723
189, -3788.42, -3983.12, -4542.40, -3805.30, 0.000, 0.000, 0.000, 12:58:00.723
190, -3569.48, -3704.85, -4343.41, -3594.42, 0.000, 0.000, 0.000, 12:58:00.723
191, -3161.55, -3283.72, -3973.66, -3210.84, 0.000, 0.000, 0.000, 12:58:00.723
192, -3336.61, -3490.10, -4127.45, -3363.94, 0.000, 0.000, 0.000, 12:58:00.723
193, -3781.58, -3963.79, -4527.19, -3798.92, 0.000, 0.000, 0.000, 12:58:00.724
194, -3578.72, -3697.50, -4350.22, -3607.74, 0.000, 0.000, 0.000, 12:58:00.724
195, -3179.05, -3299.22, -4002.96, -3230.49, 0.000, 0.000, 0.000, 12:58:00.725
196, -3354.82, -3526.07, -4153.92, -3389.19, 0.000, 0.000, 0.000, 12:58:00.725
197, -3749.95, -3939.97, -4510.39, -3784.66, 0.000, 0.000, 0.000, 12:58:00.737
198, -3536.71, -3738.08, -4327.32, -3599.65, 0.000, 0.000, 0.000, 12:58:00.737
199, -3123.51, -3309.07, -3959.76, -3207.10, 0.000, 0.000, 0.000, 12:58:00.752
200, -3308.17, -3499.82, -4114.42, -3364.46, 0.000, 0.000, 0.000, 12:58:00.752
0, -3746.23, -3995.19, -4515.14, -3805.32, 0.000, 0.000, 0.000, 12:58:00.753
1, -3535.93, -3759.62, -4320.21, -3606.64, 0.000, 0.000, 0.000, 12:58:00.781
2, -3127.47, -3289.00, -3963.22, -3205.43, 0.000, 0.000, 0.000, 12:58:00.781
3, -3328.28, -3524.33, -4136.75, -3375.70, 0.000, 0.000, 0.000, 12:58:00.783
4, -3762.72, -3950.19, -4519.22, -3789.63, 0.000, 0.000, 0.000, 12:58:00.783
5, -3554.89, -3771.34, -4334.98, -3604.99, 0.000, 0.000, 0.000, 12:58:00.783
6, -3151.32, -3337.52, -3978.76, -3211.16, 0.000, 0.000, 0.000, 12:58:00.783
7, -3333.29, -3504.13, -4143.20, -3382.68, 0.000, 0.000, 0.000, 12:58:00.827
8, -3775.25, -3941.92, -4521.52, -3809.67, 0.000, 0.000, 0.000, 12:58:00.827
9, -3569.18, -3702.27, -4346.05, -3602.57, 0.000, 0.000, 0.000, 12:58:00.827
10, -3166.46, -3279.75, -3974.37, -3208.24, 0.000, 0.000, 0.000, 12:58:00.827
11, -3318.46, -3499.13, -4122.11, -3356.60, 0.000, 0.000, 0.000, 12:58:00.828
12, -3779.70, -4006.69, -4526.86, -3792.75, 0.000, 0.000, 0.000, 12:58:00.828
13, -3571.04, -3759.85, -4333.44, -3598.37, 0.000, 0.000, 0.000, 12:58:00.828
14, -3171.82, -3360.64, -3977.91, -3210.62, 0.000, 0.000, 0.000, 12:58:00.829
15, -3321.92, -3427.57, -4109.71, -3353.50, 0.000, 0.000, 0.000, 12:58:00.829
16, -3768.76, -3918.09, -4509.20, -3786.93, 0.000, 0.000, 0.000, 12:58:00.829
17, -3567.94, -3742.75, -4340.16, -3597.07, 0.000, 0.000, 0.000, 12:58:00.841
18, -3164.20, -3288.13, -3973.88, -3211.41, 0.000, 0.000, 0.000, 12:58:00.841
19, -3328.19, -3489.37, -4121.42, -3357.98, 0.000, 0.000, 0.000, 12:58:00.872
20, -3778.44, -3966.95, -4529.88, -3789.21, 0.000, 0.000, 0.000, 12:58:00.872
21, -3581.12, -3723.48, -4333.36, -3609.19, 0.000, 0.000, 0.000, 12:58:00.872
22, -3157.27, -3280.92, -3970.58, -3207.69, 0.000, 0.000, 0.000, 12:58:00.873
23, -3332.81, -3516.71, -4124.63, -3366.33, 0.000, 0.000, 0.000, 12:58:00.873
24, -3777.00, -3965.52, -4515.13, -3784.08, 0.000, 0.000, 0.000, 12:58:00.873
25, -3572.28, -3711.30, -4346.99, -3603.82, 0.000, 0.000, 0.000, 12:58:00.903
26, -3162.34, -3307.70, -3968.61, -3212.66, 0.000, 0.000, 0.000, 12:58:00.903
27, -3330.04, -3520.60, -4111.32, -3350.98, 0.000, 0.000, 0.000, 12:58:00.932
28, -3755.76, -3958.68, -4507.30, -3783.48, 0.000, 0.000, 0.000, 12:58:00.932
29, -3568.40, -3746.08, -4332.26, -3600.75, 0.000, 0.000, 0.000, 12:58:00.933
30, -3172.35, -3289.57, -3984.93, -3203.34, 0.000, 0.000, 0.000, 12:58:00.933
31, -3332.26, -3510.18, -4116.93, -3347.53, 0.000, 0.000, 0.000, 12:58:00.933
32, -3775.91, -3958.21, -4518.60, -3783.93, 0.000, 0.000, 0.000, 12:58:00.933
33, -3570.77, -3747.56, -4336.66, -3600.36, 0.000, 0.000, 0.000, 12:58:00.934
34, -3154.97, -3298.18, -3957.93, -3213.08, 0.000, 0.000, 0.000, 12:58:00.934
35, -3299.23, -3396.42, -4091.12, -3335.09, 0.000, 0.000, 0.000, 12:58:00.935
36, -3761.90, -3983.87, -4513.49, -3774.46, 0.000, 0.000, 0.000, 12:58:00.935
37, -3557.31, -3677.08, -4326.48, -3591.25, 0.000, 0.000, 0.000, 12:58:00.947
38, -3166.77, -3303.61, -3979.00, -3223.57, 0.000, 0.000, 0.000, 12:58:00.947
39, -3310.80, -3493.55, -4107.94, -3342.16, 0.000, 0.000, 0.000, 12:58:00.962
40, -3765.32, -3999.53, -4510.85, -3782.37, 0.000, 0.000, 0.000, 12:58:00.962
41, -3576.94, -3807.23, -4348.26, -3603.50, 0.000, 0.000, 0.000, 12:58:00.962
42, -3167.90, -3250.00, -3981.67, -3218.51, 0.000, 0.000, 0.000, 12:58:00.962
43, -3305.44, -3443.08, -4103.87, -3337.33, 0.000, 0.000, 0.000, 12:58:00.976
44, -3746.24, -3926.58, -4494.72, -3752.38, 0.000, 0.000, 0.000, 12:58:00.976
45, -3557.28, -3712.57, -4329.34, -3604.41, 0.000, 0.000, 0.000, 12:58:00.991
46, -3146.47, -3319.19, -3964.21, -3207.11, 0.000, 0.000, 0.000, 12:58:00.992
47, -3291.22, -3371.64, -4094.45, -3332.48, 0.000, 0.000, 0.000, 12:58:01.007
48, -3752.51, -3992.71, -4506.29, -3762.63, 0.000, 0.000, 0.000, 12:58:01.007
49, -3583.50, -3775.08, -4356.04, -3608.48, 0.000, 0.000, 0.000, 12:58:01.067
50, -3179.69, -3294.29, -3990.54, -3216.00, 0.000, 0.000, 0.000, 12:58:01.067
51, -3309.26, -3436.78, -4106.16, -3327.17, 0.000, 0.000, 0.000, 12:58:01.067
52, -3768.01, -3959.72, -4517.00, -3781.58, 0.000, 0.000, 0.000, 12:58:01.067
53, -3576.61, -3678.11, -4342.64, -3616.33, 0.000, 0.000, 0.000, 12:58:01.069
54, -3171.28, -3220.75, -3971.33, -3213.16, 0.000, 0.000, 0.000, 12:58:01.069
55, -3295.40, -3460.06, -4090.41, -3333.76, 0.000, 0.000, 0.000, 12:58:01.069
56, -3758.01, -3887.64, -4506.86, -3770.83, 0.000, 0.000, 0.000, 12:58:01.069
57, -3570.20, -3655.12, -4338.61, -3608.80, 0.000, 0.000, 0.000, 12:58:01.070
58, -3178.02, -3348.11, -3979.88, -3222.20, 0.000, 0.000, 0.000, 12:58:01.070
59, -3317.63, -3486.61, -4111.02, -3338.46, 0.000, 0.000, 0.000, 12:58:01.070
60, -3756.00, -3969.55, -4498.87, -3756.57, 0.000, 0.000, 0.000, 12:58:01.070
61, -3564.36, -3655.06, -4317.12, -3596.59, 0.000, 0.000, 0.000, 12:58:01.071
62, -3181.61, -3315.50, -3982.51, -3235.42, 0.000, 0.000, 0.000, 12:58:01.071
65, -3025.28, -3106.83, -3851.03, -3096.73, 0.000, 0.000, 0.000, 12:58:01.082
66, -2644.08, -2639.49, -3508.34, -2728.18, 0.000, 0.000, 0.000, 12:58:01.082
67, -2759.13, -2696.67, -3595.30, -2817.85, 0.000, 0.000, 0.000, 12:58:01.096
68, -3208.59, -3291.81, -3995.80, -3251.45, 0.000, 0.000, 0.000, 12:58:01.096
69, -3025.25, -2996.72, -3838.48, -3088.30, 0.000, 0.000, 0.000, 12:58:01.127
70, -2649.33, -2623.28, -3506.20, -2722.62, 0.000, 0.000, 0.000, 12:58:01.127
71, -2746.62, -2685.38, -3587.99, -2823.73, 0.000, 0.000, 0.000, 12:58:01.128
72, -3203.10, -3204.54, -4010.11, -3259.39, 0.000, 0.000, 0.000, 12:58:01.128
73, -3010.76, -3058.04, -3830.80, -3088.16, 0.000, 0.000, 0.000, 12:58:01.128
74, -2624.06, -2585.54, -3488.24, -2706.13, 0.000, 0.000, 0.000, 12:58:01.129
75, -2746.87, -2733.48, -3598.30, -2808.54, 0.000, 0.000, 0.000, 12:58:01.129
76, -3189.07, -3182.51, -3976.59, -3240.92, 0.000, 0.000, 0.000, 12:58:01.129
77, -3038.07, -3163.46, -3850.94, -3097.57, 0.000, 0.000, 0.000, 12:58:01.141
78, -2652.18, -2723.43, -3517.36, -2731.08, 0.000, 0.000, 0.000, 12:58:01.141
79, -2741.84, -2758.37, -3585.21, -2806.62, 0.000, 0.000, 0.000, 12:58:01.172
80, -3177.22, -3232.39, -3969.78, -3236.08, 0.000, 0.000, 0.000, 12:58:01.172
81, -3026.77, -3102.72, -3844.10, -3084.30, 0.000, 0.000, 0.000, 12:58:01.172
82, -2648.86, -2626.11, -3525.70, -2719.27, 0.000, 0.000, 0.000, 12:58:01.172
83, -2733.33, -2797.36, -3592.91, -2801.69, 0.000, 0.000, 0.000, 12:58:01.172
84, -3173.89, -3246.83, -3973.39, -3234.93, 0.000, 0.000, 0.000, 12:58:01.173
85, -3017.64, -2979.80, -3828.84, -3090.58, 0.000, 0.000, 0.000, 12:58:01.187
86, -2659.32, -2663.15, -3532.40, -2735.50, 0.000, 0.000, 0.000, 12:58:01.187
87, -2755.72, -2749.19, -3603.91, -2817.20, 0.000, 0.000, 0.000, 12:58:01.217
88, -3189.47, -3177.24, -3988.85, -3229.97, 0.000, 0.000, 0.000, 12:58:01.217
89, -3033.13, -3060.19, -3858.31, -3105.43, 0.000, 0.000, 0.000, 12:58:01.218
90, -2663.43, -2669.68, -3539.03, -2750.01, 0.000, 0.000, 0.000, 12:58:01.218
91, -2747.13, -2722.02, -3604.43, -2812.01, 0.000, 0.000, 0.000, 12:58:01.218
92, -3187.66, -3242.01, -3992.34, -3228.78, 0.000, 0.000, 0.000, 12:58:01.218
93, -3046.00, -2956.38, -3875.95, -3116.84, 0.000, 0.000, 0.000, 12:58:01.219
94, -2673.89, -2662.88, -3542.79, -2772.83, 0.000, 0.000, 0.000, 12:58:01.220
95, -2761.70, -2782.47, -3621.41, -2823.99, 0.000, 0.000, 0.000, 12:58:01.232
96, -3183.96, -3246.12, -3985.68, -3233.83, 0.000, 0.000, 0.000, 12:58:01.232
97, -3026.84, -3059.59, -3846.97, -3097.34, 0.000, 0.000, 0.000, 12:58:01.276
98, -2684.09, -2689.87, -3565.39, -2774.72, 0.000, 0.000, 0.000, 12:58:01.276
99, -2758.01, -2793.47, -3633.09, -2830.81, 0.000, 0.000, 0.000, 12:58:01.277
100, -3163.85, -3224.54, -3957.50, -3214.96, 0.000, 0.000, 0.000, 12:58:01.277
101, -3018.51, -3034.56, -3839.74, -3094.77, 0.000, 0.000, 0.000, 12:58:01.277
102, -2661.21, -2713.71, -3536.22, -2751.39, 0.000, 0.000, 0.000, 12:58:01.277
103, -2748.97, -2795.39, -3608.11, -2815.20, 0.000, 0.000, 0.000, 12:58:01.278
104, -3155.14, -3107.66, -3941.22, -3208.32, 0.000, 0.000, 0.000, 12:58:01.278
105, -3013.17, -3046.24, -3833.24, -3084.73, 0.000, 0.000, 0.000, 12:58:01.279
106, -2677.42, -2660.02, -3563.12, -2770.64, 0.000, 0.000, 0.000, 12:58:01.279
107, -2738.07, -2743.66, -3600.98, -2805.70, 0.000, 0.000, 0.000, 12:58:01.337
108, -3135.76, -3149.95, -3922.38, -3200.19, 0.000, 0.000, 0.000, 12:58:01.337
109, -3007.12, -3073.39, -3836.85, -3090.04, 0.000, 0.000, 0.000, 12:58:01.337
110, -2676.70, -2670.05, -3559.35, -2760.56, 0.000, 0.000, 0.000, 12:58:01.337
111, -2740.93, -2716.91, -3609.86, -2807.64, 0.000, 0.000, 0.000, 12:58:01.338
112, -3115.22, -3139.06, -3898.48, -3176.62, 0.000, 0.000, 0.000, 12:58:01.338
113, -2997.97, -3023.60, -3825.53, -3069.19, 0.000, 0.000, 0.000, 12:58:01.339
114, -2654.35, -2646.74, -3533.39, -2740.77, 0.000, 0.000, 0.000, 12:58:01.339
115, -2719.79, -2737.60, -3581.98, -2790.51, 0.000, 0.000, 0.000, 12:58:01.339
116, -3127.07, -3169.54, -3920.47, -3192.80, 0.000, 0.000, 0.000, 12:58:01.339
117, -3014.77, -3044.04, -3844.66, -3087.48, 0.000, 0.000, 0.000, 12:58:01.339
118, -2693.99, -2647.79, -3574.25, -2785.65, 0.000, 0.000, 0.000, 12:58:01.339
119, -2745.74, -2725.29, -3609.19, -2832.85, 0.000, 0.000, 0.000, 12:58:01.382
120, -3132.78, -3153.93, -3927.66, -3202.46, 0.000, 0.000, 0.000, 12:58:01.382
121, -3020.19, -3080.57, -3841.22, -3103.38, 0.000, 0.000, 0.000, 12:58:01.382
122, -2709.97, -2691.14, -3592.47, -2795.70, 0.000, 0.000, 0.000, 12:58:01.383
123, -2736.75, -2712.61, -3595.24, -2820.50, 0.000, 0.000, 0.000, 12:58:01.383
124, -3120.66, -3155.51, -3914.14, -3199.35, 0.000, 0.000, 0.000, 12:58:01.383
125, -3039.66, -3018.94, -3868.85, -3117.74, 0.000, 0.000, 0.000, 12:58:01.384
126, -2710.20, -2711.36, -3590.60, -2792.59, 0.000, 0.000, 0.000, 12:58:01.384
127, -2754.83, -2763.92, -3623.54, -2825.05, 0.000, 0.000, 0.000, 12:58:01.404
128, -3123.66, -3171.31, -3926.10, -3195.33, 0.000, 0.000, 0.000, 12:58:01.404
129, -3013.94, -3063.97, -3841.99, -3090.53, 0.000, 0.000, 0.000, 12:58:01.412
130, -2683.57, -2687.87, -3571.37, -2775.12, 0.000, 0.000, 0.000, 12:58:01.412
131, -2736.83, -2761.46, -3602.97, -2815.84, 0.000, 0.000, 0.000, 12:58:01.412
132, -3094.66, -3141.87, -3891.92, -3162.21, 0.000, 0.000, 0.000, 12:58:01.412
133, -3010.53, -3062.08, -3855.38, -3098.88, 0.000, 0.000, 0.000, 12:58:01.427
134, -2700.67, -2716.15, -3609.62, -2801.95, 0.000, 0.000, 0.000, 12:58:01.427
135, -2720.41, -2764.41, -3602.69, -2811.95, 0.000, 0.000, 0.000, 12:58:01.442
136, -3097.23, -3207.72, -3894.84, -3175.05, 0.000, 0.000, 0.000, 12:58:01.442
137, -3007.91, -3062.71, -3842.78, -3095.32, 0.000, 0.000, 0.000, 12:58:01.442
138, -2698.75, -2731.57, -3596.67, -2792.38, 0.000, 0.000, 0.000, 12:58:01.442
139, -2728.79, -2746.32, -3609.78, -2813.57, 0.000, 0.000, 0.000, 12:58:01.457
140, -3072.89, -3113.46, -3870.96, -3163.89, 0.000, 0.000, 0.000, 12:58:01.457
141, -2995.46, -3054.71, -3821.28, -3084.67, 0.000, 0.000, 0.000, 12:58:01.472
142, -2698.30, -2784.84, -3588.84, -2791.79, 0.000, 0.000, 0.000, 12:58:01.472
143, -2735.86, -2804.64, -3620.73, -2814.58, 0.000, 0.000, 0.000, 12:58:01.472
144, -3094.93, -3205.20, -3894.26, -3164.66, 0.000, 0.000, 0.000, 12:58:01.472
145, -2994.55, -3040.86, -3823.24, -3079.06, 0.000, 0.000, 0.000, 12:58:01.487
146, -2700.02, -2764.00, -3590.83, -2789.63, 0.000, 0.000, 0.000, 12:58:01.487
147, -2724.61, -2657.07, -3612.30, -2804.67, 0.000, 0.000, 0.000, 12:58:01.503
148, -3098.21, -3048.95, -3902.06, -3158.87, 0.000, 0.000, 0.000, 12:58:01.503
149, -2992.12, -3008.77, -3815.46, -3066.33, 0.000, 0.000, 0.000, 12:58:01.503
150, -2718.83, -2721.25, -3616.11, -2798.24, 0.000, 0.000, 0.000, 12:58:01.503
151, -2729.05, -2786.28, -3620.17, -2808.30, 0.000, 0.000, 0.000, 12:58:01.517
152, -3081.53, -3076.46, -3895.59, -3159.45, 0.000, 0.000, 0.000, 12:58:01.517
153, -3010.63, -2989.13, -3851.29, -3085.57, 0.000, 0.000, 0.000, 12:58:01.531
154, -2712.75, -2696.76, -3601.66, -2790.94, 0.000, 0.000, 0.000, 12:58:01.531
155, -2734.82, -2726.59, -3621.47, -2810.50, 0.000, 0.000, 0.000, 12:58:01.533
156, -3090.24, -3218.40, -3890.46, -3150.40, 0.000, 0.000, 0.000, 12:58:01.533
157, -3009.30, -3064.99, -3838.70, -3076.06, 0.000, 0.000, 0.000, 12:58:01.547
158, -2728.33, -2715.02, -3628.80, -2804.60, 0.000, 0.000, 0.000, 12:58:01.547
159, -2724.82, -2722.05, -3594.56, -2796.17, 0.000, 0.000, 0.000, 12:58:01.561
160, -3094.73, -3180.75, -3893.57, -3151.75, 0.000, 0.000, 0.000, 12:58:01.561
161, -3008.20, -3024.45, -3833.96, -3074.99, 0.000, 0.000, 0.000, 12:58:01.576
162, -2740.73, -2794.79, -3625.12, -2814.26, 0.000, 0.000, 0.000, 12:58:01.576
163, -2748.77, -2726.05, -3623.72, -2822.51, 0.000, 0.000, 0.000, 12:58:01.577
164, -3086.68, -3193.24, -3887.95, -3147.76, 0.000, 0.000, 0.000, 12:58:01.577
165, -3002.45, -3127.35, -3829.64, -3083.98, 0.000, 0.000, 0.000, 12:58:01.592
166, -2722.65, -2700.47, -3612.45, -2816.98, 0.000, 0.000, 0.000, 12:58:01.592
167, -2736.89, -2698.52, -3616.54, -2819.07, 0.000, 0.000, 0.000, 12:58:01.592
168, -3089.67, -3166.82, -3898.48, -3157.62, 0.000, 0.000, 0.000, 12:58:01.593
169, -3006.95, -3021.15, -3844.46, -3080.35, 0.000, 0.000, 0.000, 12:58:01.607
170, -2729.44, -2743.50, -3625.99, -2815.74, 0.000, 0.000, 0.000, 12:58:01.607
171, -2741.35, -2704.15, -3625.48, -2805.49, 0.000, 0.000, 0.000, 12:58:01.623
172, -3102.72, -3185.43, -3896.28, -3150.07, 0.000, 0.000, 0.000, 12:58:01.623
173, -3009.04, -3048.71, -3828.24, -3070.12, 0.000, 0.000, 0.000, 12:58:01.623
174, -2728.77, -2750.36, -3613.19, -2808.88, 0.000, 0.000, 0.000, 12:58:01.623
175, -2732.47, -2768.00, -3619.51, -2811.08, 0.000, 0.000, 0.000, 12:58:01.637
176, -3092.33, -3117.15, -3889.43, -3147.84, 0.000, 0.000, 0.000, 12:58:01.637
177, -3006.34, -3077.79, -3839.00, -3078.48, 0.000, 0.000, 0.000, 12:58:01.653
178, -2724.94, -2704.95, -3615.38, -2799.55, 0.000, 0.000, 0.000, 12:58:01.653
179, -2731.07, -2765.02, -3613.94, -2802.40, 0.000, 0.000, 0.000, 12:58:01.653
180, -3101.72, -3099.00, -3902.59, -3149.55, 0.000, 0.000, 0.000, 12:58:01.653
181, -3016.49, -3076.38, -3845.32, -3085.69, 0.000, 0.000, 0.000, 12:58:01.682
182, -2723.62, -2748.76, -3613.31, -2799.84, 0.000, 0.000, 0.000, 12:58:01.682
183, -2726.02, -2694.44, -3608.67, -2804.16, 0.000, 0.000, 0.000, 12:58:01.682
184, -3107.04, -3140.06, -3906.51, -3164.97, 0.000, 0.000, 0.000, 12:58:01.682
185, -3023.55, -3076.94, -3849.77, -3090.14, 0.000, 0.000, 0.000, 12:58:01.683
186, -2720.96, -2710.00, -3602.78, -2794.17, 0.000, 0.000, 0.000, 12:58:01.683
187, -2725.13, -2739.79, -3602.60, -2799.43, 0.000, 0.000, 0.000, 12:58:01.726
188, -3107.53, -3157.93, -3900.57, -3167.54, 0.000, 0.000, 0.000, 12:58:01.726
189, -3015.33, -3039.14, -3842.26, -3075.99, 0.000, 0.000, 0.000, 12:58:01.727
190, -2712.74, -2714.72, -3600.72, -2788.43, 0.000, 0.000, 0.000, 12:58:01.727
191, -2705.38, -2702.95, -3591.03, -2781.62, 0.000, 0.000, 0.000, 12:58:01.728
192, -3116.61, -3235.39, -3911.24, -3178.74, 0.000, 0.000, 0.000, 12:58:01.728
193, -3031.47, -3055.42, -3847.70, -3097.35, 0.000, 0.000, 0.000, 12:58:01.728
194, -2708.29, -2774.59, -3597.36, -2788.98, 0.000, 0.000, 0.000, 12:58:01.728
195, -2718.96, -2742.85, -3602.96, -2792.03, 0.000, 0.000, 0.000, 12:58:01.729
196, -3136.21, -3226.62, -3932.86, -3193.90, 0.000, 0.000, 0.000, 12:58:01.729
197, -3035.05, -3073.06, -3854.56, -3100.61, 0.000, 0.000, 0.000, 12:58:01.741
198, -2717.23, -2723.00, -3600.77, -2791.67, 0.000, 0.000, 0.000, 12:58:01.741
199, -2707.49, -2714.07, -3591.91, -2776.46, 0.000, 0.000, 0.000, 12:58:01.756
200, -3138.21, -3155.65, -3930.83, -3190.50, 0.000, 0.000, 0.000, 12:58:01.756
0, -3606.71, -3718.05, -4362.03, -3637.69, 0.000, 0.000, 0.000, 12:58:01.757
1, -3263.28, -3403.93, -4084.81, -3310.44, 0.000, 0.000, 0.000, 12:58:01.772
2, -3248.58, -3377.60, -4068.59, -3304.83, 0.000, 0.000, 0.000, 12:58:01.772
3, -3692.87, -3834.67, -4429.60, -3718.26, 0.000, 0.000, 0.000, 12:58:01.787
4, -3604.32, -3777.44, -4356.36, -3633.47, 0.000, 0.000, 0.000, 12:58:01.787
5, -3264.52, -3412.50, -4084.40, -3299.50, 0.000, 0.000, 0.000, 12:58:01.787
6, -3258.02, -3386.37, -4070.82, -3292.56, 0.000, 0.000, 0.000, 12:58:01.788
7, -3712.39, -3916.74, -4447.04, -3727.77, 0.000, 0.000, 0.000, 12:58:01.803
8, -3611.03, -3806.39, -4366.56, -3638.00, 0.000, 0.000, 0.000, 12:58:01.803
9, -3272.93, -3408.38, -4094.38, -3306.38, 0.000, 0.000, 0.000, 12:58:01.817
10, -3254.04, -3354.42, -4074.70, -3294.25, 0.000, 0.000, 0.000, 12:58:01.817
11, -3717.37, -3909.52, -4443.62, -3728.29, 0.000, 0.000, 0.000, 12:58:01.818
12, -3615.94, -3768.16, -4376.55, -3646.27, 0.000, 0.000, 0.000, 12:58:01.818
13, -3251.68, -3409.07, -4082.52, -3292.46, 0.000, 0.000, 0.000, 12:58:01.832
14, -3241.42, -3399.54, -4065.14, -3273.15, 0.000, 0.000, 0.000, 12:58:01.832
15, -3736.68, -3896.10, -4451.19, -3740.51, 0.000, 0.000, 0.000, 12:58:01.847
16, -3618.26, -3766.47, -4370.09, -3645.39, 0.000, 0.000, 0.000, 12:58:01.847
17, -3258.14, -3408.22, -4072.70, -3289.32, 0.000, 0.000, 0.000, 12:58:01.847
18, -3234.68, -3355.55, -4050.85, -3262.90, 0.000, 0.000, 0.000, 12:58:01.847
19, -3734.35, -3890.16, -4457.69, -3742.38, 0.000, 0.000, 0.000, 12:58:01.862
20, -3632.33, -3828.25, -4382.82, -3652.65, 0.000, 0.000, 0.000, 12:58:01.862
21, -3242.03, -3281.35, -4060.88, -3280.37, 0.000, 0.000, 0.000, 12:58:01.877
22, -3234.64, -3390.06, -4047.23, -3257.78, 0.000, 0.000, 0.000, 12:58:01.877
23, -3729.46, -3916.56, -4465.95, -3740.77, 0.000, 0.000, 0.000, 12:58:01.892
24, -3637.76, -3832.08, -4390.66, -3665.49, 0.000, 0.000, 0.000, 12:58:01.892
25, -3258.99, -3402.65, -4075.00, -3280.94, 0.000, 0.000, 0.000, 12:58:01.892
26, -3232.62, -3398.04, -4044.31, -3260.59, 0.000, 0.000, 0.000, 12:58:01.892
27, -3750.39, -3980.12, -4478.51, -3753.92, 0.000, 0.000, 0.000, 12:58:01.907
28, -3646.43, -3846.64, -4404.09, -3665.52, 0.000, 0.000, 0.000, 12:58:01.907
29, -3244.31, -3362.37, -4062.79, -3281.57, 0.000, 0.000, 0.000, 12:58:01.907
30, -3220.72, -3340.59, -4037.30, -3248.31, 0.000, 0.000, 0.000, 12:58:01.908
31, -3758.69, -3915.91, -4490.06, -3776.55, 0.000, 0.000, 0.000, 12:58:01.952
32, -3642.16, -3830.89, -4396.24, -3678.83, 0.000, 0.000, 0.000, 12:58:01.952
33, -3237.50, -3384.56, -4057.78, -3282.44, 0.000, 0.000, 0.000, 12:58:01.952
34, -3205.19, -3334.47, -4031.46, -3243.91, 0.000, 0.000, 0.000, 12:58:01.952
35, -3745.51, -3950.50, -4488.48, -3765.30, 0.000, 0.000, 0.000, 12:58:01.953
36, -3645.72, -3878.84, -4415.39, -3677.26, 0.000, 0.000, 0.000, 12:58:01.953
37, -3228.04, -3382.69, -4057.36, -3274.52, 0.000, 0.000, 0.000, 12:58:01.953
38, -3197.35, -3276.10, -4024.48, -3238.51, 0.000, 0.000, 0.000, 12:58:01.954
39, -3754.58, -3978.82, -4486.01, -3772.49, 0.000, 0.000, 0.000, 12:58:01.955
40, -3657.94, -3892.00, -4402.68, -3687.57, 0.000, 0.000, 0.000, 12:58:01.955
41, -3233.25, -3377.50, -4051.26, -3276.06, 0.000, 0.000, 0.000, 12:58:01.967
42, -3203.48, -3289.57, -4009.95, -3228.18, 0.000, 0.000, 0.000, 12:58:01.968
43, -3763.61, -4008.41, -4494.31, -3773.09, 0.000, 0.000, 0.000, 12:58:01.982
44, -3662.67, -3749.13, -4418.75, -3685.68, 0.000, 0.000, 0.000, 12:58:01.982
45, -3239.67, -3339.98, -4056.94, -3278.94, 0.000, 0.000, 0.000, 12:58:01.998
46, -3192.43, -3352.01, -4011.06, -3229.43, 0.000, 0.000, 0.000, 12:58:01.998
47, -3759.01, -3982.66, -4493.10, -3772.22, 0.000, 0.000, 0.000, 12:58:01.998
48, -3651.90, -3836.59, -4402.58, -3682.74, 0.000, 0.000, 0.000, 12:58:01.998
49, -3216.80, -3312.39, -4042.67, -3267.52, 0.000, 0.000, 0.000, 12:58:02.027
50, -3171.02, -3302.88, -4000.49, -3213.97, 0.000, 0.000, 0.000, 12:58:02.027
51, -3752.45, -3921.05, -4494.98, -3779.45, 0.000, 0.000, 0.000, 12:58:02.027
52, -3653.63, -3832.44, -4411.23, -3687.32, 0.000, 0.000, 0.000, 12:58:02.027
53, -3224.89, -3416.48, -4047.22, -3273.47, 0.000, 0.000, 0.000, 12:58:02.028
54, -3180.38, -3319.26, -4000.74, -3227.85, 0.000, 0.000, 0.000, 12:58:02.028
55, -3761.10, -4016.87, -4503.39, -3776.70, 0.000, 0.000, 0.000, 12:58:02.041
56, -3657.34, -3861.53, -4418.12, -3688.14, 0.000, 0.000, 0.000, 12:58:02.043
57, -3223.28, -3323.21, -4041.50, -3265.74, 0.000, 0.000, 0.000, 12:58:02.057
58, -3174.62, -3297.68, -3999.17, -3210.30, 0.000, 0.000, 0.000, 12:58:02.057
59, -3764.84, -3940.48, -4495.69, -3773.02, 0.000, 0.000, 0.000, 12:58:02.057
60, -3660.13, -3830.67, -4414.38, -3691.81, 0.000, 0.000, 0.000, 12:58:02.057
61, -3228.56, -3357.80, -4047.98, -3283.76, 0.000, 0.000, 0.000, 12:58:02.072
62, -3171.23, -3333.11, -4000.60, -3210.08, 0.000, 0.000, 0.000, 12:58:02.072
63, -3764.67, -3906.12, -4494.39, -3781.32, 0.000, 0.000, 0.000, 12:58:02.087
64, -3664.41, -3848.66, -4418.00, -3702.65, 0.000, 0.000, 0.000, 12:58:02.087
65, -3227.52, -3444.68, -4039.30, -3288.63, 0.000, 0.000, 0.000, 12:58:02.087
66, -3151.84, -3333.17, -3979.85, -3205.44, 0.000, 0.000, 0.000, 12:58:02.087
67, -3741.68, -3932.59, -4483.86, -3761.35, 0.000, 0.000, 0.000, 12:58:02.103
68, -3645.99, -3757.29, -4407.69, -3691.00, 0.000, 0.000, 0.000, 12:58:02.103
69, -3224.39, -3432.00, -4051.63, -3281.24, 0.000, 0.000, 0.000, 12:58:02.117
70, -3179.53, -3340.32, -4005.69, -3219.15, 0.000, 0.000, 0.000, 12:58:02.117
71, -3768.14, -3988.90, -4510.03, -3770.55, 0.000, 0.000, 0.000, 12:58:02.117
72, -3677.05, -3829.35, -4434.71, -3706.36, 0.000, 0.000, 0.000, 12:58:02.118
73, -3243.58, -3396.95, -4067.98, -3286.12, 0.000, 0.000, 0.000, 12:58:02.139
74, -3174.46, -3292.63, -4000.12, -3209.86, 0.000, 0.000, 0.000, 12:58:02.139
75, -3759.39, -3898.88, -4500.26, -3774.53, 0.000, 0.000, 0.000, 12:58:02.146
76, -3658.30, -3884.89, -4412.94, -3693.01, 0.000, 0.000, 0.000, 12:58:02.146
77, -3222.55, -3343.67, -4047.73, -3285.50, 0.000, 0.000, 0.000, 12:58:02.147
78, -3158.07, -3298.88, -3985.87, -3208.16, 0.000, 0.000, 0.000, 12:58:02.147
79, -3744.01, -3961.80, -4486.85, -3765.97, 0.000, 0.000, 0.000, 12:58:02.176
80, -3649.00, -3825.71, -4403.18, -3695.41, 0.000, 0.000, 0.000, 12:58:02.176
81, -3234.03, -3376.38, -4054.35, -3287.26, 0.000, 0.000, 0.000, 12:58:02.177
82, -3163.99, -3327.96, -3995.50, -3210.77, 0.000, 0.000, 0.000, 12:58:02.177
83, -3756.63, -3990.56, -4503.25, -3775.56, 0.000, 0.000, 0.000, 12:58:02.177
84, -3675.48, -3824.03, -4433.92, -3711.04, 0.000, 0.000, 0.000, 12:58:02.178
85, -3235.74, -3353.88, -4063.52, -3293.78, 0.000, 0.000, 0.000, 12:58:02.192
86, -3169.42, -3290.42, -4003.50, -3211.32, 0.000, 0.000, 0.000, 12:58:02.192
87, -3761.17, -3937.43, -4501.80, -3784.11, 0.000, 0.000, 0.000, 12:58:02.206
88, -3685.65, -3907.63, -4439.10, -3714.59, 0.000, 0.000, 0.000, 12:58:02.207
89, -3257.36, -3426.07, -4074.08, -3302.44, 0.000, 0.000, 0.000, 12:58:02.222
90, -3179.40, -3333.63, -3997.91, -3204.97, 0.000, 0.000, 0.000, 12:58:02.222
91, -3755.18, -3852.81, -4492.15, -3772.03, 0.000, 0.000, 0.000, 12:58:02.222
92, -3675.05, -3937.04, -4436.28, -3713.64, 0.000, 0.000, 0.000, 12:58:02.222
93, -3246.10, -3415.89, -4061.79, -3291.58, 0.000, 0.000, 0.000, 12:58:02.237
94, -3161.95, -3265.37, -3983.83, -3200.14, 0.000, 0.000, 0.000, 12:58:02.237
95, -3746.96, -3920.40, -4474.65, -3766.74, 0.000, 0.000, 0.000, 12:58:02.237
96, -3666.91, -3939.88, -4418.56, -3712.10, 0.000, 0.000, 0.000, 12:58:02.238
97, -3242.12, -3409.18, -4061.87, -3307.28, 0.000, 0.000, 0.000, 12:58:02.282
98, -3154.48, -3345.84, -3983.52, -3216.75, 0.000, 0.000, 0.000, 12:58:02.282
99, -3751.63, -3866.75, -4491.39, -3784.18, 0.000, 0.000, 0.000, 12:58:02.282
100, -3692.56, -3892.01, -4443.80, -3735.09, 0.000, 0.000, 0.000, 12:58:02.282
101, -3270.51, -3313.28, -4095.50, -3303.89, 0.000, 0.000, 0.000, 12:58:02.283
102, -3177.87, -3360.83, -4001.92, -3198.71, 0.000, 0.000, 0.000, 12:58:02.283
103, -3756.43, -3947.91, -4497.19, -3761.13, 0.000, 0.000, 0.000, 12:58:02.284
104, -3686.60, -3929.23, -4451.23, -3709.38, 0.000, 0.000, 0.000, 12:58:02.284
105, -3258.47, -3347.91, -4083.01, -3301.32, 0.000, 0.000, 0.000, 12:58:02.284
106, -3173.24, -3358.58, -3998.74, -3201.01, 0.000, 0.000, 0.000, 12:58:02.284
107, -3749.33, -3886.04, -4490.51, -3754.44, 0.000, 0.000, 0.000, 12:58:02.297
108, -3676.30, -3846.62, -4435.55, -3705.66, 0.000, 0.000, 0.000, 12:58:02.297
109, -3255.27, -3475.99, -4081.44, -3306.95, 0.000, 0.000, 0.000, 12:58:02.312
110, -3155.75, -3320.17, -3987.48, -3202.13, 0.000, 0.000, 0.000, 12:58:02.312
111, -3738.12, -3908.84, -4469.34, -3754.20, 0.000, 0.000, 0.000, 12:58:02.342
112, -3682.67, -3902.17, -4434.43, -3705.50, 0.000, 0.000, 0.000, 12:58:02.342
113, -3256.21, -3352.70, -4077.82, -3309.79, 0.000, 0.000, 0.000, 12:58:02.356
114, -3157.08, -3323.39, -3988.03, -3205.37, 0.000, 0.000, 0.000, 12:58:02.356
115, -3723.69, -3896.44, -4454.45, -3733.52, 0.000, 0.000, 0.000, 12:58:02.357
116, -3678.28, -3837.30, -4428.70, -3711.61, 0.000, 0.000, 0.000, 12:58:02.357
117, -3258.06, -3470.66, -4072.33, -3317.82, 0.000, 0.000, 0.000, 12:58:02.358
118, -3151.86, -3269.35, -3977.22, -3204.65, 0.000, 0.000, 0.000, 12:58:02.358
119, -3743.55, -3958.80, -4483.80, -3748.51, 0.000, 0.000, 0.000, 12:58:02.358
120, -3699.91, -3947.34, -4445.77, -3713.23, 0.000, 0.000, 0.000, 12:58:02.358
121, -3269.56, -3426.08, -4074.87, -3318.87, 0.000, 0.000, 0.000, 12:58:02.387
122, -3163.61, -3247.85, -3984.59, -3207.80, 0.000, 0.000, 0.000, 12:58:02.387
123, -3741.09, -3893.18, -4476.74, -3754.18, 0.000, 0.000, 0.000, 12:58:02.387
124, -3677.74, -3907.99, -4424.88, -3701.91, 0.000, 0.000, 0.000, 12:58:02.388
125, -3273.69, -3398.66, -4089.79, -3325.43, 0.000, 0.000, 0.000, 12:58:02.388
126, -3161.60, -3286.76, -3979.81, -3199.53, 0.000, 0.000, 0.000, 12:58:02.389
127, -3744.13, -3977.23, -4469.02, -3742.94, 0.000, 0.000, 0.000, 12:58:02.402
128, -3714.57, -3899.51, -4451.83, -3735.69, 0.000, 0.000, 0.000, 12:58:02.403
129, -3278.32, -3467.70, -4089.75, -3342.46, 0.000, 0.000, 0.000, 12:58:02.418
130, -3146.87, -3185.61, -3964.05, -3204.45, 0.000, 0.000, 0.000, 12:58:02.418
131, -3686.08, -3836.23, -4414.69, -3716.06, 0.000, 0.000, 0.000, 12:58:02.418
132, -3659.81, -3787.05, -4400.98, -3697.21, 0.000, 0.000, 0.000, 12:58:02.418
133, -3260.05, -3357.55, -4067.20, -3315.98, 0.000, 0.000, 0.000, 12:58:02.431
134, -3150.99, -3273.34, -3973.36, -3201.96, 0.000, 0.000, 0.000, 12:58:02.432
135, -3711.13, -3953.98, -4447.12, -3728.48, 0.000, 0.000, 0.000, 12:58:02.447
136, -3679.57, -3919.58, -4425.18, -3719.99, 0.000, 0.000, 0.000, 12:58:02.447
137, -3280.63, -3369.89, -4088.61, -3335.53, 0.000, 0.000, 0.000, 12:58:02.447
138, -3159.15, -3294.11, -3981.99, -3205.86, 0.000, 0.000, 0.000, 12:58:02.447
139, -3723.29, -3880.66, -4452.97, -3726.37, 0.000, 0.000, 0.000, 12:58:02.492
140, -3690.10, -3870.95, -4440.21, -3717.68, 0.000, 0.000, 0.000, 12:58:02.492
141, -3285.09, -3496.86, -4096.88, -3330.20, 0.000, 0.000, 0.000, 12:58:02.492
142, -3152.86, -3311.75, -3974.17, -3203.77, 0.000, 0.000, 0.000, 12:58:02.492
143, -3715.87, -3888.93, -4450.44, -3724.17, 0.000, 0.000, 0.000, 12:58:02.493
144, -3691.75, -3820.58, -4431.38, -3706.71, 0.000, 0.000, 0.000, 12:58:02.493
145, -3285.66, -3434.95, -4088.87, -3330.75, 0.000, 0.000, 0.000, 12:58:02.494
146, -3161.86, -3193.98, -3973.81, -3201.70, 0.000, 0.000, 0.000, 12:58:02.494
147, -3720.41, -3903.32, -4437.13, -3715.28, 0.000, 0.000, 0.000, 12:58:02.494
148, -3694.25, -3856.35, -4421.29, -3712.69, 0.000, 0.000, 0.000, 12:58:02.494
149, -3288.65, -3419.06, -4087.22, -3339.92, 0.000, 0.000, 0.000, 12:58:02.507
150, -3163.47, -3268.64, -3972.22, -3215.14, 0.000, 0.000, 0.000, 12:58:02.507
151, -3719.88, -3951.23, -4439.46, -3725.56, 0.000, 0.000, 0.000, 12:58:02.522
152, -3695.86, -3839.02, -4431.94, -3711.96, 0.000, 0.000, 0.000, 12:58:02.522
153, -3301.14, -3409.91, -4096.79, -3343.97, 0.000, 0.000, 0.000, 12:58:02.537
154, -3164.18, -3317.90, -3980.51, -3210.29, 0.000, 0.000, 0.000, 12:58:02.537
155, -3723.89, -3924.76, -4453.96, -3734.64, 0.000, 0.000, 0.000, 12:58:02.538
156, -3708.89, -3899.56, -4438.15, -3720.08, 0.000, 0.000, 0.000, 12:58:02.538
157, -3301.04, -3424.43, -4105.92, -3341.50, 0.000, 0.000, 0.000, 12:58:02.583
158, -3169.50, -3309.45, -3986.39, -3208.85, 0.000, 0.000, 0.000, 12:58:02.583
159, -3722.49, -3884.80, -4446.21, -3704.88, 0.000, 0.000, 0.000, 12:58:02.583
160, -3695.71, -3854.40, -4419.77, -3708.00, 0.000, 0.000, 0.000, 12:58:02.584
161, -3303.27, -3496.67, -4097.44, -3347.64, 0.000, 0.000, 0.000, 12:58:02.584
162, -3164.81, -3266.96, -3976.04, -3209.15, 0.000, 0.000, 0.000, 12:58:02.584
163, -3708.12, -3916.67, -4435.01, -3708.04, 0.000, 0.000, 0.000, 12:58:02.584
164, -3695.67, -3881.46, -4428.29, -3716.75, 0.000, 0.000, 0.000, 12:58:02.585
165, -3314.02, -3458.09, -4104.54, -3354.62, 0.000, 0.000, 0.000, 12:58:02.585
166, -3164.55, -3293.81, -3979.04, -3207.24, 0.000, 0.000, 0.000, 12:58:02.585
167, -3704.09, -3889.74, -4436.36, -3708.40, 0.000, 0.000, 0.000, 12:58:02.596
168, -3691.89, -3854.38, -4433.90, -3711.88, 0.000, 0.000, 0.000, 12:58:02.597
169, -3327.67, -3453.78, -4128.58, -3369.53, 0.000, 0.000, 0.000, 12:58:02.626
170, -3165.28, -3253.34, -3972.10, -3200.91, 0.000, 0.000, 0.000, 12:58:02.626
171, -3696.59, -3880.10, -4428.20, -3706.14, 0.000, 0.000, 0.000, 12:58:02.627
172, -3684.19, -3871.11, -4417.57, -3704.25, 0.000, 0.000, 0.000, 12:58:02.627
173, -3324.53, -3433.09, -4112.64, -3356.56, 0.000, 0.000, 0.000, 12:58:02.627
174, -3162.00, -3236.30, -3974.46, -3202.75, 0.000, 0.000, 0.000, 12:58:02.628
175, -3681.31, -3867.14, -4416.63, -3686.79, 0.000, 0.000, 0.000, 12:58:02.641
176, -3679.78, -3864.08, -4412.60, -3696.65, 0.000, 0.000, 0.000, 12:58:02.641
177, -3318.34, -3458.90, -4110.35, -3361.17, 0.000, 0.000, 0.000, 12:58:02.672
178, -3188.05, -3286.56, -3995.18, -3211.56, 0.000, 0.000, 0.000, 12:58:02.672
179, -3695.51, -3852.73, -4424.24, -3690.28, 0.000, 0.000, 0.000, 12:58:02.672
180, -3675.63, -3842.72, -4405.30, -3694.29, 0.000, 0.000, 0.000, 12:58:02.672
181, -3335.75, -3418.28, -4109.37, -3370.60, 0.000, 0.000, 0.000, 12:58:02.673
182, -3212.66, -3301.67, -3996.69, -3233.07, 0.000, 0.000, 0.000, 12:58:02.673
183, -3684.14, -3861.10, -4388.85, -3693.25, 0.000, 0.000, 0.000, 12:58:02.673
184, -3692.72, -3834.63, -4405.15, -3708.89, 0.000, 0.000, 0.000, 12:58:02.673
185, -3373.05, -3488.11, -4148.57, -3414.72, 0.000, 0.000, 0.000, 12:58:02.732
186, -3237.90, -3318.95, -4030.73, -3273.77, 0.000, 0.000, 0.000, 12:58:02.732
187, -3691.96, -3808.83, -4411.00, -3698.37, 0.000, 0.000, 0.000, 12:58:02.732
188, -3702.30, -3861.13, -4424.74, -3712.91, 0.000, 0.000, 0.000, 12:58:02.733
189, -3387.98, -3525.11, -4167.76, -3413.94, 0.000, 0.000, 0.000, 12:58:02.734
190, -3240.07, -3367.00, -4046.35, -3278.63, 0.000, 0.000, 0.000, 12:58:02.734
191, -3676.53, -3787.68, -4405.25, -3695.23, 0.000, 0.000, 0.000, 12:58:02.735
192, -3695.11, -3852.16, -4425.50, -3716.99, 0.000, 0.000, 0.000, 12:58:02.735
193, -3370.31, -3522.35, -4158.19, -3417.66, 0.000, 0.000, 0.000, 12:58:02.735
194, -3233.62, -3347.57, -4032.47, -3270.81, 0.000, 0.000, 0.000, 12:58:02.735
195, -3665.97, -3868.83, -4398.17, -3673.45, 0.000, 0.000, 0.000, 12:58:02.735
196, -3673.70, -3893.46, -4416.00, -3698.79, 0.000, 0.000, 0.000, 12:58:02.735
197, -3372.67, -3534.89, -4166.92, -3418.51, 0.000, 0.000, 0.000, 12:58:02.747
198, -3244.87, -3357.55, -4046.69, -3271.69, 0.000, 0.000, 0.000, 12:58:02.747
199, -3678.44, -3854.71, -4400.78, -3682.63, 0.000, 0.000, 0.000, 12:58:02.777
200, -3695.54, -3876.86, -4427.33, -3713.84, 0.000, 0.000, 0.000, 12:58:02.777
0, -3403.05, -3526.58, -4186.53, -3445.84, 0.000, 0.000, 0.000, 12:58:02.777
1, -3259.67, -3384.36, -4078.05, -3295.19, 0.000, 0.000, 0.000, 12:58:02.778
2, -3682.63, -3832.43, -4414.04, -3684.95, 0.000, 0.000, 0.000, 12:58:02.778
3, -3699.85, -3879.00, -4438.03, -3723.01, 0.000, 0.000, 0.000, 12:58:02.779
4, -3411.67, -3563.78, -4197.94, -3445.49, 0.000, 0.000, 0.000, 12:58:02.779
5, -3261.60, -3397.07, -4059.86, -3292.25, 0.000, 0.000, 0.000, 12:58:02.807
6, -3680.07, -3822.23, -4404.85, -3684.59, 0.000, 0.000, 0.000, 12:58:02.807
7, -3691.85, -3847.50, -4419.48, -3717.74, 0.000, 0.000, 0.000, 12:58:02.807
8, -3398.96, -3515.30, -4184.80, -3442.43, 0.000, 0.000, 0.000, 12:58:02.807
9, -3249.51, -3385.35, -4061.61, -3298.63, 0.000, 0.000, 0.000, 12:58:02.837
10, -3662.66, -3839.83, -4394.21, -3679.86, 0.000, 0.000, 0.000, 12:58:02.837
11, -3685.87, -3844.28, -4421.41, -3711.46, 0.000, 0.000, 0.000, 12:58:02.837
12, -3401.70, -3544.79, -4199.16, -3437.73, 0.000, 0.000, 0.000, 12:58:02.837
13, -3253.47, -3350.71, -4071.07, -3295.23, 0.000, 0.000, 0.000, 12:58:02.839
14, -3664.53, -3850.51, -4391.16, -3669.61, 0.000, 0.000, 0.000, 12:58:02.839
15, -3695.58, -3881.68, -4427.00, -3702.55, 0.000, 0.000, 0.000, 12:58:02.839
16, -3402.63, -3562.02, -4205.38, -3446.08, 0.000, 0.000, 0.000, 12:58:02.839
17, -3252.19, -3411.13, -4066.31, -3295.32, 0.000, 0.000, 0.000, 12:58:02.852
18, -3663.22, -3853.82, -4398.46, -3680.92, 0.000, 0.000, 0.000, 12:58:02.853
19, -3693.99, -3861.36, -4434.76, -3721.67, 0.000, 0.000, 0.000, 12:58:02.882
20, -3413.57, -3561.93, -4209.18, -3467.24, 0.000, 0.000, 0.000, 12:58:02.882
21, -3268.67, -3361.43, -4081.91, -3318.20, 0.000, 0.000, 0.000, 12:58:02.882
22, -3662.98, -3857.78, -4400.51, -3692.53, 0.000, 0.000, 0.000, 12:58:02.882
23, -3707.18, -3838.46, -4452.06, -3739.51, 0.000, 0.000, 0.000, 12:58:02.883
24, -3439.84, -3589.22, -4234.09, -3486.14, 0.000, 0.000, 0.000, 12:58:02.883
25, -3290.91, -3403.27, -4108.16, -3336.33, 0.000, 0.000, 0.000, 12:58:02.912
26, -3694.37, -3881.25, -4428.19, -3710.42, 0.000, 0.000, 0.000, 12:58:02.912
27, -3721.57, -3885.65, -4464.66, -3754.86, 0.000, 0.000, 0.000, 12:58:02.913
28, -3456.62, -3600.79, -4256.07, -3504.53, 0.000, 0.000, 0.000, 12:58:02.913
29, -3302.82, -3439.49, -4124.56, -3338.45, 0.000, 0.000, 0.000, 12:58:02.913
30, -3699.33, -3886.55, -4438.29, -3711.42, 0.000, 0.000, 0.000, 12:58:02.913
31, -3730.85, -3874.34, -4476.51, -3763.00, 0.000, 0.000, 0.000, 12:58:02.941
32, -3462.15, -3634.20, -4257.56, -3506.58, 0.000, 0.000, 0.000, 12:58:02.941
33, -3316.07, -3458.84, -4131.74, -3357.39, 0.000, 0.000, 0.000, 12:58:02.942
34, -3711.93, -3894.17, -4460.51, -3728.26, 0.000, 0.000, 0.000, 12:58:02.942
35, -3751.20, -3915.32, -4497.73, -3781.16, 0.000, 0.000, 0.000, 12:58:02.943
36, -3487.15, -3606.53, -4277.91, -3526.12, 0.000, 0.000, 0.000, 12:58:02.943
37, -3323.92, -3479.36, -4150.84, -3361.87, 0.000, 0.000, 0.000, 12:58:02.956
38, -3727.98, -3903.09, -4474.35, -3730.31, 0.000, 0.000, 0.000, 12:58:02.956
39, -3756.45, -3993.80, -4516.88, -3792.03, 0.000, 0.000, 0.000, 12:58:02.987
40, -3502.55, -3637.26, -4298.87, -3537.38, 0.000, 0.000, 0.000, 12:58:02.987
41, -3345.45, -3472.71, -4168.34, -3389.46, 0.000, 0.000, 0.000, 12:58:02.987
42, -3742.01, -3929.22, -4478.75, -3755.00, 0.000, 0.000, 0.000, 12:58:02.988
43, -3789.30, -3973.72, -4535.06, -3808.53, 0.000, 0.000, 0.000, 12:58:02.988
44, -3524.83, -3691.74, -4318.55, -3563.52, 0.000, 0.000, 0.000, 12:58:02.988
45, -3368.84, -3487.58, -4185.35, -3412.46, 0.000, 0.000, 0.000, 12:58:02.989
46, -3761.89, -3949.12, -4513.21, -3782.86, 0.000, 0.000, 0.000, 12:58:02.989
47, -3793.67, -4007.33, -4545.78, -3822.83, 0.000, 0.000, 0.000, 12:58:03.002
48, -3550.43, -3708.98, -4340.47, -3590.55, 0.000, 0.000, 0.000, 12:58:03.003
49, -3379.34, -3497.36, -4205.68, -3418.01, 0.000, 0.000, 0.000, 12:58:03.017
50, -3773.76, -3937.67, -4531.82, -3785.84, 0.000, 0.000, 0.000, 12:58:03.017
51, -3825.06, -3925.04, -4576.38, -3852.61, 0.000, 0.000, 0.000, 12:58:03.047
52, -3556.51, -3737.75, -4358.19, -3599.98, 0.000, 0.000, 0.000, 12:58:03.047
53, -3390.39, -3540.32, -4224.12, -3439.43, 0.000, 0.000, 0.000, 12:58:03.047
54, -3780.17, -4009.93, -4525.66, -3808.78, 0.000, 0.000, 0.000, 12:58:03.047
55, -3832.92, -3999.93, -4578.03, -3861.48, 0.000, 0.000, 0.000, 12:58:03.048
56, -3560.77, -3690.10, -4364.36, -3601.25, 0.000, 0.000, 0.000, 12:58:03.048
57, -3392.97, -3524.67, -4215.12, -3437.22, 0.000, 0.000, 0.000, 12:58:03.050
58, -3772.87, -3959.13, -4514.78, -3796.02, 0.000, 0.000, 0.000, 12:58:03.050
59, -3826.22, -4019.85, -4577.16, -3854.93, 0.000, 0.000, 0.000, 12:58:03.062
60, -3562.54, -3684.97, -4368.68, -3605.41, 0.000, 0.000, 0.000, 12:58:03.062
61, -3389.93, -3522.54, -4212.61, -3431.79, 0.000, 0.000, 0.000, 12:58:03.092
62, -3765.92, -3985.96, -4525.91, -3791.91, 0.000, 0.000, 0.000, 12:58:03.092
63, -3819.86, -3990.89, -4578.40, -3849.21, 0.000, 0.000, 0.000, 12:58:03.092
64, -3550.63, -3725.91, -4357.63, -3600.59, 0.000, 0.000, 0.000, 12:58:03.092
65, -3372.34, -3546.15, -4205.26, -3416.74, 0.000, 0.000, 0.000, 12:58:03.093
66, -3761.87, -3905.69, -4512.66, -3775.91, 0.000, 0.000, 0.000, 12:58:03.093
67, -3812.75, -4047.42, -4566.66, -3843.60, 0.000, 0.000, 0.000, 12:58:03.107
68, -3532.80, -3743.66, -4344.09, -3597.24, 0.000, 0.000, 0.000, 12:58:03.107
69, -3332.48, -3521.49, -4177.39, -3412.12, 0.000, 0.000, 0.000, 12:58:03.137
70, -3705.11, -3895.50, -4475.41, -3774.31, 0.000, 0.000, 0.000, 12:58:03.137
71, -3758.14, -4014.62, -4521.35, -3829.40, 0.000, 0.000, 0.000, 12:58:03.138
72, -3479.71, -3725.11, -4321.17, -3592.83, 0.000, 0.000, 0.000, 12:58:03.139
73, -3277.70, -3508.46, -4167.31, -3422.35, 0.000, 0.000, 0.000, 12:58:03.139
74, -3663.37, -4026.81, -4491.70, -3775.71, 0.000, 0.000, 0.000, 12:58:03.139
75, -3725.68, -4073.97, -4567.09, -3845.23, 0.000, 0.000, 0.000, 12:58:03.146
76, -3451.79, -3816.61, -4368.43, -3617.56, 0.000, 0.000, 0.000, 12:58:03.146
77, -3257.24, -3561.17, -4216.95, -3435.80, 0.000, 0.000, 0.000, 12:58:03.152
78, -3653.09, -4106.20, -4526.89, -3801.07, 0.000, 0.000, 0.000, 12:58:03.152
79, -3753.48, -4164.29, -4620.80, -3906.58, 0.000, 0.000, 0.000, 12:58:03.182
80, -3500.86, -3859.06, -4419.69, -3662.39, 0.000, 0.000, 0.000, 12:58:03.182
81, -3335.31, -3675.54, -4267.29, -3483.08, 0.000, 0.000, 0.000, 12:58:03.183
82, -3755.77, -4091.88, -4584.00, -3856.67, 0.000, 0.000, 0.000, 12:58:03.183
83, -3856.08, -4163.83, -4671.79, -3946.36, 0.000, 0.000, 0.000, 12:58:03.184
84, -3596.41, -3833.10, -4457.42, -3702.82, 0.000, 0.000, 0.000, 12:58:03.184
85, -3427.06, -3638.65, -4304.60, -3524.47, 0.000, 0.000, 0.000, 12:58:03.197
86, -3851.43, -4087.11, -4627.02, -3900.58, 0.000, 0.000, 0.000, 12:58:03.197
87, -3954.33, -4166.95, -4704.21, -3983.60, 0.000, 0.000, 0.000, 12:58:03.227
88, -3665.96, -3806.23, -4474.04, -3742.70, 0.000, 0.000, 0.000, 12:58:03.227
89, -3487.15, -3620.19, -4311.16, -3544.75, 0.000, 0.000, 0.000, 12:58:03.227
90, -3883.35, -3924.03, -4621.65, -3903.39, 0.000, 0.000, 0.000, 12:58:03.227
91, -3968.80, -4075.64, -4702.96, -4006.78, 0.000, 0.000, 0.000, 12:58:03.228
92, -3688.36, -3839.82, -4473.10, -3731.01, 0.000, 0.000, 0.000, 12:58:03.228
93, -3497.47, -3606.82, -4308.11, -3527.47, 0.000, 0.000, 0.000, 12:58:03.229
94, -3887.75, -3993.16, -4615.28, -3889.91, 0.000, 0.000, 0.000, 12:58:03.229
95, -3973.15, -4075.08, -4688.90, -3990.51, 0.000, 0.000, 0.000, 12:58:03.241
96, -3696.08, -3701.08, -4444.17, -3706.76, 0.000, 0.000, 0.000, 12:58:03.242
97, -3497.45, -3478.78, -4275.55, -3497.74, 0.000, 0.000, 0.000, 12:58:03.256
98, -3883.98, -3915.94, -4584.74, -3865.25, 0.000, 0.000, 0.000, 12:58:03.256
99, -3934.13, -4109.79, -4660.99, -3939.34, 0.000, 0.000, 0.000, 12:58:03.286
100, -3646.34, -3780.73, -4421.44, -3664.81, 0.000, 0.000, 0.000, 12:58:03.286
101, -3423.33, -3555.96, -4233.24, -3449.32, 0.000, 0.000, 0.000, 12:58:03.287
102, -3821.72, -4023.83, -4549.83, -3819.90, 0.000, 0.000, 0.000, 12:58:03.287
103, -3894.13, -4052.05, -4614.71, -3900.99, 0.000, 0.000, 0.000, 12:58:03.288
104, -3602.85, -3751.02, -4370.99, -3623.57, 0.000, 0.000, 0.000, 12:58:03.288
105, -3363.72, -3487.37, -4174.79, -3395.95, 0.000, 0.000, 0.000, 12:58:03.288
106, -3778.84, -3925.06, -4497.11, -3775.72, 0.000, 0.000, 0.000, 12:58:03.289
107, -3858.02, -4046.04, -4577.44, -3857.70, 0.000, 0.000, 0.000, 12:58:03.303
108, -3562.31, -3754.45, -4335.99, -3576.94, 0.000, 0.000, 0.000, 12:58:03.304
109, -3320.82, -3400.58, -4134.12, -3346.58, 0.000, 0.000, 0.000, 12:58:03.376
110, -3731.77, -3901.28, -4456.28, -3720.93, 0.000, 0.000, 0.000, 12:58:03.376
111, -3809.87, -4018.35, -4540.99, -3818.23, 0.000, 0.000, 0.000, 12:58:03.391
112, -3513.88, -3624.21, -4289.49, -3536.20, 0.000, 0.000, 0.000, 12:58:03.391
113, -3281.10, -3395.03, -4098.73, -3313.23, 0.000, 0.000, 0.000, 12:58:03.392
114, -3682.97, -3835.91, -4421.03, -3694.61, 0.000, 0.000, 0.000, 12:58:03.392
115, -3774.55, -3959.22, -4504.32, -3783.90, 0.000, 0.000, 0.000, 12:58:03.393
116, -3487.91, -3616.66, -4273.88, -3520.58, 0.000, 0.000, 0.000, 12:58:03.393
117, -3261.83, -3373.23, -4084.87, -3296.89, 0.000, 0.000, 0.000, 12:58:03.393
118, -3663.68, -3892.41, -4407.74, -3681.07, 0.000, 0.000, 0.000, 12:58:03.393
119, -3763.06, -3867.45, -4498.90, -3774.06, 0.000, 0.000, 0.000, 12:58:03.394
120, -3479.81, -3621.14, -4269.73, -3511.62, 0.000, 0.000, 0.000, 12:58:03.394
121, -3244.97, -3339.57, -4076.85, -3281.37, 0.000, 0.000, 0.000, 12:58:03.394
122, -3643.27, -3811.34, -4389.68, -3661.76, 0.000, 0.000, 0.000, 12:58:03.395
127, -3730.08, -3957.88, -4468.59, -3774.60, 0.000, 0.000, 0.000, 12:58:03.407
128, -3462.01, -3696.52, -4254.89, -3517.48, 0.000, 0.000, 0.000, 12:58:03.407
129, -3239.92, -3424.40, -4067.52, -3302.09, 0.000, 0.000, 0.000, 12:58:03.423
130, -3633.06, -3786.66, -4379.66, -3669.52, 0.000, 0.000, 0.000, 12:58:03.423
131, -3724.99, -3990.43, -4466.72, -3767.08, 0.000, 0.000, 0.000, 12:58:03.437
132, -3452.70, -3597.49, -4250.22, -3509.83, 0.000, 0.000, 0.000, 12:58:03.437
133, -3240.33, -3458.67, -4069.35, -3298.03, 0.000, 0.000, 0.000, 12:58:03.438
134, -3620.80, -3888.07, -4373.31, -3658.56, 0.000, 0.000, 0.000, 12:58:03.438
135, -3720.45, -3881.78, -4458.87, -3759.98, 0.000, 0.000, 0.000, 12:58:03.452
136, -3449.70, -3567.95, -4244.05, -3504.55, 0.000, 0.000, 0.000, 12:58:03.453
137, -3231.40, -3386.92, -4074.46, -3292.20, 0.000, 0.000, 0.000, 12:58:03.453
138, -3612.65, -3842.89, -4373.45, -3649.49, 0.000, 0.000, 0.000, 12:58:03.453
139, -3713.99, -3987.84, -4463.13, -3756.10, 0.000, 0.000, 0.000, 12:58:03.467
140, -3454.57, -3572.42, -4250.07, -3503.35, 0.000, 0.000, 0.000, 12:58:03.468
141, -3228.59, -3335.05, -4063.51, -3275.14, 0.000, 0.000, 0.000, 12:58:03.482
142, -3615.08, -3843.68, -4365.16, -3650.51, 0.000, 0.000, 0.000, 12:58:03.482
143, -3715.23, -3922.66, -4455.52, -3749.05, 0.000, 0.000, 0.000, 12:58:03.482
144, -3443.89, -3646.16, -4232.78, -3497.25, 0.000, 0.000, 0.000, 12:58:03.483
145, -3221.60, -3316.80, -4047.85, -3286.45, 0.000, 0.000, 0.000, 12:58:03.497
146, -3609.36, -3769.42, -4355.95, -3650.21, 0.000, 0.000, 0.000, 12:58:03.497
147, -3717.66, -4042.22, -4451.85, -3752.28, 0.000, 0.000, 0.000, 12:58:03.512
148, -3438.59, -3727.29, -4227.48, -3498.67, 0.000, 0.000, 0.000, 12:58:03.512
149, -3216.59, -3417.20, -4038.40, -3271.10, 0.000, 0.000, 0.000, 12:58:03.513
150, -3620.05, -3866.33, -4356.88, -3645.66, 0.000, 0.000, 0.000, 12:58:03.513
151, -3725.47, -3964.39, -4454.32, -3744.27, 0.000, 0.000, 0.000, 12:58:03.556
152, -3440.04, -3675.12, -4232.99, -3489.25, 0.000, 0.000, 0.000, 12:58:03.556
153, -3216.36, -3406.30, -4041.81, -3270.21, 0.000, 0.000, 0.000, 12:58:03.557
154, -3606.86, -3759.28, -4351.14, -3625.88, 0.000, 0.000, 0.000, 12:58:03.557
155, -3717.97, -3885.18, -4452.00, -3739.12, 0.000, 0.000, 0.000, 12:58:03.558
156, -3441.47, -3578.39, -4226.44, -3487.63, 0.000, 0.000, 0.000, 12:58:03.558
157, -3208.79, -3429.96, -4033.04, -3261.35, 0.000, 0.000, 0.000, 12:58:03.558
158, -3594.70, -3817.56, -4339.47, -3626.73, 0.000, 0.000, 0.000, 12:58:03.558
159, -3703.54, -3829.29, -4440.32, -3749.32, 0.000, 0.000, 0.000, 12:58:03.559
160, -3442.02, -3595.75, -4220.31, -3504.64, 0.000, 0.000, 0.000, 12:58:03.559
161, -3211.39, -3428.76, -4028.09, -3272.29, 0.000, 0.000, 0.000, 12:58:03.572
162, -3590.72, -3782.37, -4335.47, -3626.99, 0.000, 0.000, 0.000, 12:58:03.572
163, -3718.07, -3998.44, -4453.02, -3743.91, 0.000, 0.000, 0.000, 12:58:03.602
164, -3441.47, -3574.23, -4234.92, -3498.97, 0.000, 0.000, 0.000, 12:58:03.603
165, -3214.39, -3345.16, -4046.70, -3264.49, 0.000, 0.000, 0.000, 12:58:03.603
166, -3598.40, -3859.61, -4334.46, -3620.34, 0.000, 0.000, 0.000, 12:58:03.603
167, -3711.64, -3927.81, -4438.65, -3735.06, 0.000, 0.000, 0.000, 12:58:03.604
168, -3449.10, -3620.39, -4228.25, -3486.52, 0.000, 0.000, 0.000, 12:58:03.604
169, -3215.40, -3362.24, -4030.62, -3261.69, 0.000, 0.000, 0.000, 12:58:03.632
170, -3582.63, -3795.70, -4329.02, -3605.76, 0.000, 0.000, 0.000, 12:58:03.632
171, -3707.17, -3967.57, -4431.38, -3726.29, 0.000, 0.000, 0.000, 12:58:03.633
172, -3435.74, -3643.57, -4219.14, -3480.91, 0.000, 0.000, 0.000, 12:58:03.633
173, -3201.07, -3311.04, -4019.42, -3249.95, 0.000, 0.000, 0.000, 12:58:03.634
174, -3571.55, -3765.35, -4311.14, -3592.75, 0.000, 0.000, 0.000, 12:58:03.634
175, -3699.54, -3901.18, -4413.03, -3717.85, 0.000, 0.000, 0.000, 12:58:03.647
176, -3437.28, -3592.43, -4211.87, -3480.95, 0.000, 0.000, 0.000, 12:58:03.647
177, -3194.09, -3321.77, -4008.68, -3246.19, 0.000, 0.000, 0.000, 12:58:03.662
178, -3565.93, -3774.34, -4304.80, -3590.12, 0.000, 0.000, 0.000, 12:58:03.662
179, -3697.16, -3964.00, -4419.83, -3711.72, 0.000, 0.000, 0.000, 12:58:03.676
180, -3434.98, -3599.54, -4213.14, -3483.19, 0.000, 0.000, 0.000, 12:58:03.676
181, -3189.95, -3269.98, -4007.19, -3240.20, 0.000, 0.000, 0.000, 12:58:03.677
182, -3553.42, -3749.18, -4296.74, -3584.19, 0.000, 0.000, 0.000, 12:58:03.677
183, -3689.66, -3920.05, -4416.70, -3714.95, 0.000, 0.000, 0.000, 12:58:03.736
184, -3426.09, -3592.29, -4206.60, -3471.54, 0.000, 0.000, 0.000, 12:58:03.736
185, -3176.64, -3304.07, -4002.25, -3237.25, 0.000, 0.000, 0.000, 12:58:03.738
186, -3552.82, -3730.48, -4295.19, -3582.73, 0.000, 0.000, 0.000, 12:58:03.738
187, -3685.69, -3902.75, -4409.79, -3718.76, 0.000, 0.000, 0.000, 12:58:03.738
188, -3423.99, -3516.11, -4202.77, -3481.96, 0.000, 0.000, 0.000, 12:58:03.738
189, -3172.90, -3376.95, -3993.74, -3231.51, 0.000, 0.000, 0.000, 12:58:03.738
190, -3547.91, -3727.52, -4282.90, -3576.69, 0.000, 0.000, 0.000, 12:58:03.738
191, -3682.78, -3885.55, -4414.39, -3713.67, 0.000, 0.000, 0.000, 12:58:03.739
192, -3423.60, -3613.86, -4203.66, -3470.80, 0.000, 0.000, 0.000, 12:58:03.739
193, -3180.32, -3275.73, -3993.61, -3236.32, 0.000, 0.000, 0.000, 12:58:03.739
194, -3541.41, -3756.41, -4281.90, -3574.47, 0.000, 0.000, 0.000, 12:58:03.739
195, -3682.13, -3903.17, -4411.32, -3718.87, 0.000, 0.000, 0.000, 12:58:03.740
196, -3429.79, -3616.10, -4211.44, -3485.58, 0.000, 0.000, 0.000, 12:58:03.740
197, -3181.09, -3353.10, -3993.51, -3247.60, 0.000, 0.000, 0.000, 12:58:03.752
198, -3546.66, -3772.96, -4293.59, -3576.24, 0.000, 0.000, 0.000, 12:58:03.753
199, -3688.80, -3868.98, -4416.11, -3712.62, 0.000, 0.000, 0.000, 12:58:03.782
200, -3429.75, -3591.61, -4204.79, -3483.89, 0.000, 0.000, 0.000, 12:58:03.782
0, -3181.58, -3330.04, -3994.86, -3224.26, 0.000, 0.000, 0.000, 12:58:03.783
1, -3541.52, -3771.98, -4281.44, -3561.35, 0.000, 0.000, 0.000, 12:58:03.812
2, -3690.37, -3880.86, -4410.19, -3712.45, 0.000, 0.000, 0.000, 12:58:03.812
3, -3432.87, -3560.94, -4211.27, -3477.32, 0.000, 0.000, 0.000, 12:58:03.812
4, -3171.35, -3295.40, -4001.89, -3232.65, 0.000, 0.000, 0.000, 12:58:03.812
5, -3528.45, -3731.90, -4286.39, -3562.46, 0.000, 0.000, 0.000, 12:58:03.813
6, -3683.78, -3840.15, -4413.62, -3709.30, 0.000, 0.000, 0.000, 12:58:03.813
7, -3425.08, -3564.68, -4211.98, -3475.62, 0.000, 0.000, 0.000, 12:58:03.814
8, -3169.42, -3279.61, -3995.18, -3226.22, 0.000, 0.000, 0.000, 12:58:03.814
9, -3530.35, -3716.73, -4280.01, -3554.37, 0.000, 0.000, 0.000, 12:58:03.815
10, -3673.56, -3824.27, -4418.23, -3707.73, 0.000, 0.000, 0.000, 12:58:03.815
11, -3432.55, -3489.06, -4210.27, -3466.15, 0.000, 0.000, 0.000, 12:58:03.827
12, -3159.57, -3327.52, -4000.05, -3216.67, 0.000, 0.000, 0.000, 12:58:03.827
13, -3536.25, -3712.68, -4291.14, -3550.84, 0.000, 0.000, 0.000, 12:58:03.842
14, -3689.57, -3883.70, -4416.14, -3706.89, 0.000, 0.000, 0.000, 12:58:03.842
15, -3433.20, -3568.00, -4214.31, -3475.52, 0.000, 0.000, 0.000, 12:58:03.856
16, -3171.69, -3301.85, -3987.20, -3208.28, 0.000, 0.000, 0.000, 12:58:03.856
17, -3528.77, -3726.80, -4281.06, -3542.06, 0.000, 0.000, 0.000, 12:58:03.857
18, -3681.51, -3897.11, -4411.48, -3704.51, 0.000, 0.000, 0.000, 12:58:03.857
19, -3414.24, -3623.82, -4213.22, -3463.37, 0.000, 0.000, 0.000, 12:58:03.946
20, -3135.18, -3300.16, -3986.79, -3206.70, 0.000, 0.000, 0.000, 12:58:03.946
21, -3502.90, -3686.21, -4267.98, -3538.84, 0.000, 0.000, 0.000, 12:58:03.947
22, -3666.58, -3879.42, -4407.54, -3688.85, 0.000, 0.000, 0.000, 12:58:03.947
23, -3397.31, -3621.87, -4194.90, -3445.87, 0.000, 0.000, 0.000, 12:58:03.948
24, -3133.97, -3286.80, -3973.98, -3203.67, 0.000, 0.000, 0.000, 12:58:03.948
25, -3476.37, -3727.47, -4248.18, -3527.96, 0.000, 0.000, 0.000, 12:58:03.948
26, -3635.07, -3820.51, -4391.63, -3706.82, 0.000, 0.000, 0.000, 12:58:03.948
27, -3360.08, -3540.67, -4185.78, -3464.33, 0.000, 0.000, 0.000, 12:58:03.951
28, -3069.90, -3259.38, -3960.69, -3200.70, 0.000, 0.000, 0.000, 12:58:03.951
29, -3400.03, -3742.71, -4230.10, -3514.06, 0.000, 0.000, 0.000, 12:58:03.951
30, -3553.92, -3895.60, -4375.02, -3681.48, 0.000, 0.000, 0.000, 12:58:03.951
31, -3286.14, -3637.07, -4176.53, -3455.98, 0.000, 0.000, 0.000, 12:58:03.951
32, -3001.11, -3279.27, -3953.82, -3187.93, 0.000, 0.000, 0.000, 12:58:03.951
37, -3357.90, -3644.90, -4228.48, -3503.33, 0.000, 0.000, 0.000, 12:58:03.961
38, -3555.75, -3882.66, -4395.46, -3689.91, 0.000, 0.000, 0.000, 12:58:03.961
39, -3311.72, -3574.49, -4187.94, -3465.96, 0.000, 0.000, 0.000, 12:58:03.991
40, -3048.46, -3270.70, -3959.82, -3194.16, 0.000, 0.000, 0.000, 12:58:03.991
41, -3420.35, -3588.63, -4235.29, -3514.62, 0.000, 0.000, 0.000, 12:58:03.992
42, -3608.58, -3858.65, -4384.51, -3689.63, 0.000, 0.000, 0.000, 12:58:03.992
43, -3365.54, -3557.80, -4202.77, -3473.06, 0.000, 0.000, 0.000, 12:58:03.992
44, -3103.34, -3218.85, -3961.49, -3211.93, 0.000, 0.000, 0.000, 12:58:03.992
45, -3473.26, -3635.48, -4251.02, -3529.35, 0.000, 0.000, 0.000, 12:58:03.993
46, -3656.76, -3795.33, -4412.20, -3710.00, 0.000, 0.000, 0.000, 12:58:03.993
47, -3416.39, -3541.73, -4223.87, -3477.17, 0.000, 0.000, 0.000, 12:58:04.007
48, -3138.72, -3255.98, -3979.89, -3203.66, 0.000, 0.000, 0.000, 12:58:04.007
49, -3478.54, -3570.16, -4250.68, -3517.94, 0.000, 0.000, 0.000, 12:58:04.052
50, -3669.05, -3777.06, -4406.18, -3699.49, 0.000, 0.000, 0.000, 12:58:04.052
51, -3422.57, -3467.36, -4215.31, -3462.03, 0.000, 0.000, 0.000, 12:58:04.052
52, -3144.21, -3169.86, -3982.08, -3184.97, 0.000, 0.000, 0.000, 12:58:04.052
53, -3500.34, -3553.89, -4255.33, -3519.50, 0.000, 0.000, 0.000, 12:58:04.053
54, -3679.91, -3815.76, -4410.79, -3689.75, 0.000, 0.000, 0.000, 12:58:04.053
55, -3437.11, -3497.41, -4214.20, -3467.84, 0.000, 0.000, 0.000, 12:58:04.054
56, -3150.11, -3240.95, -3975.71, -3188.80, 0.000, 0.000, 0.000, 12:58:04.054
57, -3483.39, -3553.66, -4238.76, -3506.68, 0.000, 0.000, 0.000, 12:58:04.055
58, -3668.50, -3834.20, -4405.45, -3686.08, 0.000, 0.000, 0.000, 12:58:04.055
59, -3420.49, -3527.42, -4206.28, -3455.80, 0.000, 0.000, 0.000, 12:58:04.067
60, -3135.12, -3182.49, -3970.56, -3179.65, 0.000, 0.000, 0.000, 12:58:04.067
61, -3461.44, -3516.88, -4225.41, -3493.58, 0.000, 0.000, 0.000, 12:58:04.112
62, -3644.94, -3780.62, -4389.99, -3674.22, 0.000, 0.000, 0.000, 12:58:04.112
63, -3404.65, -3552.01, -4194.25, -3443.79, 0.000, 0.000, 0.000, 12:58:04.112
64, -3127.83, -3254.14, -3962.48, -3178.48, 0.000, 0.000, 0.000, 12:58:04.112
65, -3467.42, -3621.70, -4235.51, -3490.99, 0.000, 0.000, 0.000, 12:58:04.113
66, -3654.30, -3740.31, -4393.97, -3685.79, 0.000, 0.000, 0.000, 12:58:04.113
67, -3408.35, -3511.76, -4199.54, -3443.43, 0.000, 0.000, 0.000, 12:58:04.113
68, -3117.90, -3226.66, -3965.60, -3174.04, 0.000, 0.000, 0.000, 12:58:04.114
69, -3464.23, -3600.26, -4226.08, -3483.29, 0.000, 0.000, 0.000, 12:58:04.114
70, -3652.52, -3791.88, -4397.72, -3681.58, 0.000, 0.000, 0.000, 12:58:04.114
71, -3404.36, -3398.14, -4197.72, -3453.52, 0.000, 0.000, 0.000, 12:58:04.156
72, -3120.34, -3179.25, -3961.87, -3176.04, 0.000, 0.000, 0.000, 12:58:04.156
73, -3452.90, -3658.93, -4225.73, -3484.91, 0.000, 0.000, 0.000, 12:58:04.157
74, -3657.12, -3794.10, -4402.26, -3684.81, 0.000, 0.000, 0.000, 12:58:04.157
75, -3406.19, -3527.47, -4198.23, -3452.23, 0.000, 0.000, 0.000, 12:58:04.158
76, -3116.31, -3147.97, -3959.48, -3180.11, 0.000, 0.000, 0.000, 12:58:04.158
77, -3445.09, -3503.49, -4220.57, -3483.52, 0.000, 0.000, 0.000, 12:58:04.158
78, -3641.50, -3769.46, -4384.96, -3682.49, 0.000, 0.000, 0.000, 12:58:04.158
79, -3397.73, -3523.11, -4202.94, -3454.62, 0.000, 0.000, 0.000, 12:58:04.172
80, -3109.45, -3167.32, -3964.14, -3176.90, 0.000, 0.000, 0.000, 12:58:04.172
81, -3441.75, -3530.91, -4225.17, -3484.92, 0.000, 0.000, 0.000, 12:58:04.187
82, -3636.06, -3820.04, -4388.10, -3680.35, 0.000, 0.000, 0.000, 12:58:04.187
83, -3396.95, -3508.33, -4204.57, -3456.99, 0.000, 0.000, 0.000, 12:58:04.187
84, -3109.29, -3258.54, -3964.06, -3179.23, 0.000, 0.000, 0.000, 12:58:04.187
85, -3448.39, -3491.96, -4218.58, -3483.67, 0.000, 0.000, 0.000, 12:58:04.203
86, -3652.34, -3850.66, -4399.32, -3696.57, 0.000, 0.000, 0.000, 12:58:04.203
87, -3423.76, -3559.13, -4218.69, -3467.27, 0.000, 0.000, 0.000, 12:58:04.262
88, -3129.63, -3140.58, -3979.04, -3190.83, 0.000, 0.000, 0.000, 12:58:04.262
89, -3457.29, -3589.42, -4234.88, -3494.79, 0.000, 0.000, 0.000, 12:58:04.262
90, -3658.34, -3882.73, -4405.66, -3705.95, 0.000, 0.000, 0.000, 12:58:04.262
91, -3420.37, -3597.18, -4222.58, -3477.61, 0.000, 0.000, 0.000, 12:58:04.263
92, -3125.18, -3211.28, -3985.52, -3198.52, 0.000, 0.000, 0.000, 12:58:04.263
93, -3446.21, -3533.39, -4228.14, -3489.06, 0.000, 0.000, 0.000, 12:58:04.277
94, -3655.36, -3885.09, -4414.15, -3709.98, 0.000, 0.000, 0.000, 12:58:04.277
95, -3416.26, -3565.88, -4226.72, -3482.45, 0.000, 0.000, 0.000, 12:58:04.291
96, -3124.49, -3302.90, -3995.05, -3199.26, 0.000, 0.000, 0.000, 12:58:04.292
97, -3451.71, -3556.47, -4239.50, -3505.30, 0.000, 0.000, 0.000, 12:58:04.292
98, -3669.93, -3837.88, -4429.36, -3714.26, 0.000, 0.000, 0.000, 12:58:04.292
99, -3434.64, -3588.50, -4243.01, -3495.90, 0.000, 0.000, 0.000, 12:58:04.293
100, -3131.45, -3255.48, -3991.22, -3208.64, 0.000, 0.000, 0.000, 12:58:04.293
101, -3464.14, -3623.84, -4250.73, -3515.55, 0.000, 0.000, 0.000, 12:58:04.293
102, -3674.54, -3874.69, -4433.47, -3719.73, 0.000, 0.000, 0.000, 12:58:04.293
103, -3447.90, -3634.52, -4256.97, -3506.80, 0.000, 0.000, 0.000, 12:58:04.294
104, -3130.71, -3232.40, -3988.11, -3204.19, 0.000, 0.000, 0.000, 12:58:04.294
105, -3448.85, -3583.85, -4244.96, -3500.68, 0.000, 0.000, 0.000, 12:58:04.302
106, -3666.92, -3840.94, -4428.10, -3721.69, 0.000, 0.000, 0.000, 12:58:04.302
107, -3421.52, -3623.27, -4238.62, -3497.78, 0.000, 0.000, 0.000, 12:58:04.307
108, -3120.29, -3223.74, -3980.63, -3201.02, 0.000, 0.000, 0.000, 12:58:04.307
109, -3428.26, -3594.72, -4225.42, -3496.08, 0.000, 0.000, 0.000, 12:58:04.337
110, -3648.90, -3801.63, -4426.02, -3707.45, 0.000, 0.000, 0.000, 12:58:04.337
111, -3428.11, -3540.43, -4237.28, -3491.23, 0.000, 0.000, 0.000, 12:58:04.338
112, -3115.88, -3236.33, -3984.78, -3195.85, 0.000, 0.000, 0.000, 12:58:04.338
113, -3441.87, -3599.47, -4229.10, -3503.16, 0.000, 0.000, 0.000, 12:58:04.339
114, -3673.17, -3878.99, -4432.21, -3727.13, 0.000, 0.000, 0.000, 12:58:04.339
115, -3433.95, -3560.79, -4244.34, -3504.50, 0.000, 0.000, 0.000, 12:58:04.366
116, -3112.16, -3223.17, -3969.58, -3191.03, 0.000, 0.000, 0.000, 12:58:04.367
117, -3421.91, -3521.00, -4225.42, -3481.27, 0.000, 0.000, 0.000, 12:58:04.367
118, -3656.50, -3873.15, -4418.23, -3706.74, 0.000, 0.000, 0.000, 12:58:04.367
119, -3418.77, -3503.63, -4231.38, -3485.58, 0.000, 0.000, 0.000, 12:58:04.396
120, -3116.22, -3191.94, -3990.38, -3192.46, 0.000, 0.000, 0.000, 12:58:04.396
121, -3432.77, -3592.71, -4233.89, -3483.68, 0.000, 0.000, 0.000, 12:58:04.397
122, -3658.00, -3847.26, -4408.82, -3717.25, 0.000, 0.000, 0.000, 12:58:04.397
123, -3411.00, -3562.55, -4221.22, -3490.11, 0.000, 0.000, 0.000, 12:58:04.397
124, -3102.65, -3170.21, -3965.08, -3193.09, 0.000, 0.000, 0.000, 12:58:04.399
125, -3422.66, -3582.56, -4221.83, -3469.59, 0.000, 0.000, 0.000, 12:58:04.399
126, -3657.62, -3844.31, -4421.30, -3714.10, 0.000, 0.000, 0.000, 12:58:04.399
127, -3418.27, -3575.69, -4221.21, -3486.34, 0.000, 0.000, 0.000, 12:58:04.412
128, -3117.17, -3208.90, -3965.05, -3184.06, 0.000, 0.000, 0.000, 12:58:04.412
129, -3428.64, -3585.13, -4215.08, -3476.07, 0.000, 0.000, 0.000, 12:58:04.456
130, -3647.84, -3809.58, -4407.31, -3695.93, 0.000, 0.000, 0.000, 12:58:04.456
131, -3417.79, -3563.19, -4219.83, -3481.76, 0.000, 0.000, 0.000, 12:58:04.471
132, -3087.93, -3164.47, -3940.48, -3175.83, 0.000, 0.000, 0.000, 12:58:04.471
133, -3434.68, -3549.20, -4208.10, -3484.06, 0.000, 0.000, 0.000, 12:58:04.472
134, -3667.34, -3848.32, -4418.48, -3706.29, 0.000, 0.000, 0.000, 12:58:04.472
135, -3394.51, -3542.48, -4225.62, -3454.31, 0.000, 0.000, 0.000, 12:58:04.472
136, -3080.20, -3183.13, -3955.47, -3154.60, 0.000, 0.000, 0.000, 12:58:04.473
137, -3364.07, -3554.40, -4208.59, -3420.34, 0.000, 0.000, 0.000, 12:58:04.473
138, -3605.91, -3795.76, -4430.92, -3653.04, 0.000, 0.000, 0.000, 12:58:04.473
139, -3387.55, -3535.86, -4241.70, -3447.90, 0.000, 0.000, 0.000, 12:58:04.502
140, -3055.78, -3220.04, -3979.56, -3126.55, 0.000, 0.000, 0.000, 12:58:04.502
141, -3360.09, -3505.02, -4214.67, -3397.96, 0.000, 0.000, 0.000, 12:58:04.502
142, -3628.21, -3810.21, -4433.35, -3662.43, 0.000, 0.000, 0.000, 12:58:04.502
143, -3410.06, -3538.06, -4247.30, -3457.28, 0.000, 0.000, 0.000, 12:58:04.503
144, -3076.63, -3188.87, -3968.74, -3142.31, 0.000, 0.000, 0.000, 12:58:04.503
145, -3395.08, -3512.84, -4211.21, -3428.52, 0.000, 0.000, 0.000, 12:58:04.504
146, -3649.59, -3867.60, -4422.21, -3668.22, 0.000, 0.000, 0.000, 12:58:04.504
147, -3417.80, -3547.17, -4248.97, -3463.66, 0.000, 0.000, 0.000, 12:58:04.505
148, -3108.06, -3185.99, -3979.83, -3163.64, 0.000, 0.000, 0.000, 12:58:04.505
149, -3405.90, -3521.55, -4219.24, -3444.68, 0.000, 0.000, 0.000, 12:58:04.517
150, -3671.26, -3817.08, -4440.95, -3701.36, 0.000, 0.000, 0.000, 12:58:04.518
151, -3433.10, -3564.16, -4258.15, -3488.71, 0.000, 0.000, 0.000, 12:58:04.561
152, -3107.73, -3201.20, -3976.68, -3177.41, 0.000, 0.000, 0.000, 12:58:04.561
153, -3409.80, -3513.52, -4206.28, -3444.03, 0.000, 0.000, 0.000, 12:58:04.562
154, -3676.12, -3896.57, -4432.86, -3704.97, 0.000, 0.000, 0.000, 12:58:04.562
155, -3452.68, -3596.40, -4258.79, -3491.84, 0.000, 0.000, 0.000, 12:58:04.562
156, -3111.66, -3194.85, -3980.17, -3181.14, 0.000, 0.000, 0.000, 12:58:04.562
157, -3415.32, -3535.85, -4226.49, -3454.73, 0.000, 0.000, 0.000, 12:58:04.563
158, -3683.37, -3752.22, -4443.71, -3728.85, 0.000, 0.000, 0.000, 12:58:04.563
159, -3453.28, -3579.20, -4262.65, -3513.88, 0.000, 0.000, 0.000, 12:58:04.564
160, -3132.36, -3150.13, -3994.89, -3190.52, 0.000, 0.000, 0.000, 12:58:04.564
161, -3423.76, -3538.34, -4223.67, -3463.43, 0.000, 0.000, 0.000, 12:58:04.577
162, -3688.90, -3832.49, -4441.14, -3722.63, 0.000, 0.000, 0.000, 12:58:04.577
163, -3447.18, -3591.78, -4256.11, -3512.57, 0.000, 0.000, 0.000, 12:58:04.607
164, -3141.03, -3257.42, -4003.40, -3213.03, 0.000, 0.000, 0.000, 12:58:04.607
165, -3430.76, -3576.31, -4236.48, -3471.62, 0.000, 0.000, 0.000, 12:58:04.607
166, -3688.07, -3900.02, -4458.59, -3727.69, 0.000, 0.000, 0.000, 12:58:04.607
167, -3452.40, -3507.31, -4270.29, -3522.29, 0.000, 0.000, 0.000, 12:58:04.608
168, -3135.23, -3204.71, -3993.60, -3214.18, 0.000, 0.000, 0.000, 12:58:04.608
169, -3424.89, -3491.39, -4221.76, -3483.86, 0.000, 0.000, 0.000, 12:58:04.622
170, -3708.61, -3910.53, -4462.18, -3746.66, 0.000, 0.000, 0.000, 12:58:04.622
171, -3442.02, -3609.66, -4257.04, -3513.19, 0.000, 0.000, 0.000, 12:58:04.637
172, -3132.66, -3212.69, -4000.75, -3215.28, 0.000, 0.000, 0.000, 12:58:04.637
173, -3422.09, -3619.30, -4224.52, -3471.42, 0.000, 0.000, 0.000, 12:58:04.652
174, -3698.92, -3925.75, -4449.91, -3747.71, 0.000, 0.000, 0.000, 12:58:04.652
175, -3472.42, -3615.89, -4280.89, -3534.27, 0.000, 0.000, 0.000, 12:58:04.652
176, -3133.13, -3240.05, -3997.01, -3218.97, 0.000, 0.000, 0.000, 12:58:04.652
177, -3422.46, -3588.41, -4227.90, -3468.74, 0.000, 0.000, 0.000, 12:58:04.667
178, -3693.63, -3848.56, -4447.00, -3729.21, 0.000, 0.000, 0.000, 12:58:04.667
179, -3475.59, -3643.49, -4275.76, -3545.00, 0.000, 0.000, 0.000, 12:58:04.674
180, -3132.78, -3233.59, -4001.37, -3226.78, 0.000, 0.000, 0.000, 12:58:04.674
181, -3413.98, -3548.79, -4218.25, -3468.85, 0.000, 0.000, 0.000, 12:58:04.712
182, -3668.18, -3835.36, -4449.48, -3732.66, 0.000, 0.000, 0.000, 12:58:04.712
183, -3477.34, -3644.05, -4284.15, -3540.58, 0.000, 0.000, 0.000, 12:58:04.712
184, -3137.81, -3226.56, -4006.07, -3219.40, 0.000, 0.000, 0.000, 12:58:04.712
185, -3413.10, -3568.07, -4221.58, -3465.53, 0.000, 0.000, 0.000, 12:58:04.713
186, -3679.86, -3810.18, -4449.23, -3738.55, 0.000, 0.000, 0.000, 12:58:04.713
187, -3470.25, -3604.51, -4287.36, -3530.68, 0.000, 0.000, 0.000, 12:58:04.714
188, -3161.54, -3298.51, -4033.17, -3242.28, 0.000, 0.000, 0.000, 12:58:04.714
189, -3431.11, -3548.84, -4235.65, -3491.48, 0.000, 0.000, 0.000, 12:58:04.714
190, -3679.27, -3861.29, -4425.03, -3736.23, 0.000, 0.000, 0.000, 12:58:04.714
191, -3464.48, -3572.67, -4243.96, -3542.02, 0.000, 0.000, 0.000, 12:58:04.727
192, -3157.72, -3269.30, -3977.06, -3240.86, 0.000, 0.000, 0.000, 12:58:04.727
193, -3416.77, -3527.76, -4161.68, -3486.13, 0.000, 0.000, 0.000, 12:58:04.756
194, -3713.81, -3906.60, -4417.15, -3779.71, 0.000, 0.000, 0.000, 12:58:04.756
195, -3486.45, -3599.58, -4236.24, -3572.06, 0.000, 0.000, 0.000, 12:58:04.757
196, -3146.79, -3257.71, -3969.17, -3252.84, 0.000, 0.000, 0.000, 12:58:04.757
197, -3425.20, -3533.30, -4177.25, -3512.29, 0.000, 0.000, 0.000, 12:58:04.757
198, -3698.91, -3872.66, -4401.54, -3755.70, 0.000, 0.000, 0.000, 12:58:04.757
199, -3485.15, -3620.25, -4253.23, -3557.17, 0.000, 0.000, 0.000, 12:58:04.817
200, -3158.17, -3287.22, -3995.56, -3261.42, 0.000, 0.000, 0.000, 12:58:04.817
0, -3454.31, -3601.31, -4217.84, -3494.24, 0.000, 0.000, 0.000, 12:58:04.818
1, -3737.09, -3895.73, -4447.06, -3757.91, 0.000, 0.000, 0.000, 12:58:04.818
2, -3524.14, -3684.46, -4286.20, -3573.22, 0.000, 0.000, 0.000, 12:58:04.818
3, -3196.22, -3336.82, -4026.31, -3267.72, 0.000, 0.000, 0.000, 12:58:04.818
4, -3458.95, -3598.77, -4220.73, -3500.20, 0.000, 0.000, 0.000, 12:58:04.818
5, -3732.41, -3950.46, -4449.60, -3759.32, 0.000, 0.000, 0.000, 12:58:04.832
6, -3520.58, -3685.76, -4289.82, -3588.65, 0.000, 0.000, 0.000, 12:58:04.832
7, -3192.87, -3363.85, -4021.55, -3255.36, 0.000, 0.000, 0.000, 12:58:04.833
8, -3450.13, -3627.41, -4223.63, -3474.95, 0.000, 0.000, 0.000, 12:58:04.833
9, -3721.55, -3955.22, -4461.30, -3757.50, 0.000, 0.000, 0.000, 12:58:04.834
10, -3516.54, -3708.64, -4295.13, -3572.66, 0.000, 0.000, 0.000, 12:58:04.834
11, -3199.36, -3296.04, -4022.89, -3268.01, 0.000, 0.000, 0.000, 12:58:04.834
12, -3449.92, -3586.25, -4218.15, -3479.74, 0.000, 0.000, 0.000, 12:58:04.834
13, -3748.80, -3967.99, -4463.35, -3767.78, 0.000, 0.000, 0.000, 12:58:04.862
14, -3544.63, -3718.14, -4318.59, -3567.03, 0.000, 0.000, 0.000, 12:58:04.862
15, -3209.95, -3411.79, -4040.98, -3276.42, 0.000, 0.000, 0.000, 12:58:04.862
16, -3448.24, -3641.71, -4212.93, -3485.63, 0.000, 0.000, 0.000, 12:58:04.862
17, -3712.64, -3864.26, -4438.36, -3732.09, 0.000, 0.000, 0.000, 12:58:04.863
18, -3533.83, -3675.34, -4307.34, -3567.23, 0.000, 0.000, 0.000, 12:58:04.863
19, -3209.03, -3337.57, -4036.57, -3263.41, 0.000, 0.000, 0.000, 12:58:04.952
20, -3445.33, -3594.51, -4223.18, -3466.63, 0.000, 0.000, 0.000, 12:58:04.952
21, -3731.81, -3933.16, -4466.19, -3741.22, 0.000, 0.000, 0.000, 12:58:04.953
22, -3531.33, -3715.30, -4300.40, -3563.03, 0.000, 0.000, 0.000, 12:58:04.953
23, -3200.56, -3321.95, -4029.18, -3268.48, 0.000, 0.000, 0.000, 12:58:04.953
24, -3443.80, -3617.65, -4209.35, -3469.03, 0.000, 0.000, 0.000, 12:58:04.953
25, -3732.42, -3938.01, -4447.23, -3732.12, 0.000, 0.000, 0.000, 12:58:04.954
26, -3533.88, -3613.50, -4297.25, -3560.28, 0.000, 0.000, 0.000, 12:58:04.955
27, -3207.45, -3323.11, -4039.43, -3255.58, 0.000, 0.000, 0.000, 12:58:04.967
28, -3437.51, -3616.08, -4217.38, -3469.23, 0.000, 0.000, 0.000, 12:58:04.967
29, -3723.72, -3892.47, -4442.60, -3735.69, 0.000, 0.000, 0.000, 12:58:04.968
30, -3516.90, -3572.50, -4285.35, -3566.65, 0.000, 0.000, 0.000, 12:58:04.968
31, -3213.23, -3388.81, -4048.92, -3268.69, 0.000, 0.000, 0.000, 12:58:04.968
32, -3431.43, -3570.23, -4211.93, -3481.86, 0.000, 0.000, 0.000, 12:58:04.968
37, -3722.25, -3963.67, -4452.09, -3755.87, 0.000, 0.000, 0.000, 12:58:04.970
38, -3539.96, -3730.83, -4297.61, -3586.11, 0.000, 0.000, 0.000, 12:58:04.970
39, -3227.44, -3365.78, -4051.63, -3286.42, 0.000, 0.000, 0.000, 12:58:04.970
40, -3435.42, -3636.84, -4207.48, -3466.56, 0.000, 0.000, 0.000, 12:58:04.970
41, -3726.22, -3973.05, -4443.27, -3770.30, 0.000, 0.000, 0.000, 12:58:04.997
42, -3542.83, -3700.97, -4301.49, -3587.15, 0.000, 0.000, 0.000, 12:58:04.997
43, -3231.82, -3372.96, -4045.97, -3298.47, 0.000, 0.000, 0.000, 12:58:04.997
44, -3442.28, -3602.97, -4202.42, -3475.15, 0.000, 0.000, 0.000, 12:58:04.997
45, -3732.01, -3943.80, -4450.12, -3761.62, 0.000, 0.000, 0.000, 12:58:05.026
46, -3549.79, -3698.67, -4300.68, -3595.47, 0.000, 0.000, 0.000, 12:58:05.026
47, -3233.00, -3391.98, -4040.49, -3287.51, 0.000, 0.000, 0.000, 12:58:05.027
48, -3440.60, -3617.75, -4200.28, -3496.89, 0.000, 0.000, 0.000, 12:58:05.027
49, -3749.68, -3876.41, -4463.93, -3795.61, 0.000, 0.000, 0.000, 12:58:05.028
50, -3536.77, -3721.91, -4317.37, -3578.62, 0.000, 0.000, 0.000, 12:58:05.028
51, -3201.24, -3363.67, -4053.99, -3264.35, 0.000, 0.000, 0.000, 12:58:05.028
52, -3415.21, -3640.12, -4229.23, -3471.06, 0.000, 0.000, 0.000, 12:58:05.028
53, -3690.22, -3981.48, -4452.29, -3724.18, 0.000, 0.000, 0.000, 12:58:05.056
54, -3523.60, -3723.60, -4341.13, -3575.67, 0.000, 0.000, 0.000, 12:58:05.056
55, -3195.77, -3411.90, -4070.18, -3264.25, 0.000, 0.000, 0.000, 12:58:05.057
56, -3398.57, -3642.00, -4225.48, -3432.17, 0.000, 0.000, 0.000, 12:58:05.057
57, -3700.46, -4022.76, -4464.88, -3732.67, 0.000, 0.000, 0.000, 12:58:05.071
58, -3518.88, -3780.33, -4337.18, -3561.46, 0.000, 0.000, 0.000, 12:58:05.071
59, -3204.43, -3380.05, -4070.58, -3272.15, 0.000, 0.000, 0.000, 12:58:05.072
60, -3405.65, -3630.47, -4209.94, -3435.30, 0.000, 0.000, 0.000, 12:58:05.072
61, -3696.83, -3903.06, -4455.93, -3742.42, 0.000, 0.000, 0.000, 12:58:05.117
62, -3527.07, -3743.34, -4323.18, -3575.56, 0.000, 0.000, 0.000, 12:58:05.117
63, -3215.89, -3402.85, -4067.72, -3276.47, 0.000, 0.000, 0.000, 12:58:05.162
64, -3404.28, -3532.20, -4212.61, -3451.65, 0.000, 0.000, 0.000, 12:58:05.162
65, -3696.84, -3944.68, -4451.93, -3744.47, 0.000, 0.000, 0.000, 12:58:05.162
66, -3533.21, -3635.69, -4317.67, -3585.59, 0.000, 0.000, 0.000, 12:58:05.163
67, -3211.15, -3388.74, -4059.46, -3275.91, 0.000, 0.000, 0.000, 12:58:05.163
68, -3404.34, -3648.83, -4209.64, -3448.59, 0.000, 0.000, 0.000, 12:58:05.163
69, -3702.12, -3942.21, -4444.70, -3747.10, 0.000, 0.000, 0.000, 12:58:05.164
70, -3539.11, -3857.59, -4323.80, -3593.99, 0.000, 0.000, 0.000, 12:58:05.165
71, -3225.06, -3414.02, -4063.92, -3303.85, 0.000, 0.000, 0.000, 12:58:05.165
72, -3406.33, -3624.25, -4193.90, -3445.49, 0.000, 0.000, 0.000, 12:58:05.165
73, -3726.69, -3980.01, -4461.39, -3750.94, 0.000, 0.000, 0.000, 12:58:05.165
74, -3543.14, -3692.20, -4318.30, -3596.05, 0.000, 0.000, 0.000, 12:58:05.165
75, -3222.56, -3347.99, -4057.40, -3284.56, 0.000, 0.000, 0.000, 12:58:05.167
76, -3408.64, -3521.52, -4196.49, -3462.49, 0.000, 0.000, 0.000, 12:58:05.167
79, -3084.91, -3130.23, -3939.28, -3152.33, 0.000, 0.000, 0.000, 12:58:05.177
80, -3278.59, -3253.82, -4074.96, -3315.87, 0.000, 0.000, 0.000, 12:58:05.177
81, -3592.59, -3648.77, -4352.00, -3633.82, 0.000, 0.000, 0.000, 12:58:05.207
82, -3399.52, -3417.52, -4192.30, -3455.56, 0.000, 0.000, 0.000, 12:58:05.207
83, -3087.24, -3145.10, -3928.85, -3153.80, 0.000, 0.000, 0.000, 12:58:05.208
84, -3266.48, -3341.12, -4071.76, -3319.45, 0.000, 0.000, 0.000, 12:58:05.208
85, -3580.04, -3655.84, -4327.09, -3620.28, 0.000, 0.000, 0.000, 12:58:05.209
86, -3406.04, -3498.96, -4199.35, -3470.29, 0.000, 0.000, 0.000, 12:58:05.209
87, -3085.14, -3144.20, -3932.79, -3153.71, 0.000, 0.000, 0.000, 12:58:05.210
88, -3264.15, -3319.59, -4076.61, -3315.84, 0.000, 0.000, 0.000, 12:58:05.210
89, -3599.70, -3646.26, -4338.69, -3629.77, 0.000, 0.000, 0.000, 12:58:05.222
90, -3416.62, -3485.25, -4197.80, -3466.80, 0.000, 0.000, 0.000, 12:58:05.222
91, -3081.92, -3082.22, -3927.04, -3156.79, 0.000, 0.000, 0.000, 12:58:05.236
92, -3263.82, -3339.88, -4054.29, -3322.80, 0.000, 0.000, 0.000, 12:58:05.236
93, -3597.30, -3661.58, -4334.24, -3617.72, 0.000, 0.000, 0.000, 12:58:05.267
94, -3406.74, -3457.91, -4196.00, -3470.10, 0.000, 0.000, 0.000, 12:58:05.268
95, -3075.78, -3110.51, -3931.05, -3150.54, 0.000, 0.000, 0.000, 12:58:05.268
96, -3261.88, -3312.71, -4054.38, -3308.56, 0.000, 0.000, 0.000, 12:58:05.268
97, -3603.38, -3658.14, -4337.57, -3628.32, 0.000, 0.000, 0.000, 12:58:05.268
98, -3414.90, -3472.14, -4202.24, -3475.74, 0.000, 0.000, 0.000, 12:58:05.268
99, -3080.50, -3092.99, -3921.50, -3161.74, 0.000, 0.000, 0.000, 12:58:05.275
100, -3254.02, -3324.43, -4059.30, -3302.79, 0.000, 0.000, 0.000, 12:58:05.275
101, -3592.36, -3687.03, -4333.04, -3633.90, 0.000, 0.000, 0.000, 12:58:05.282
102, -3415.09, -3497.47, -4205.60, -3473.61, 0.000, 0.000, 0.000, 12:58:05.282
103, -3078.29, -3083.71, -3927.73, -3169.14, 0.000, 0.000, 0.000, 12:58:05.312
104, -3247.04, -3379.53, -4059.85, -3306.76, 0.000, 0.000, 0.000, 12:58:05.312
105, -3588.30, -3670.62, -4332.96, -3627.88, 0.000, 0.000, 0.000, 12:58:05.342
106, -3420.56, -3480.55, -4208.33, -3480.30, 0.000, 0.000, 0.000, 12:58:05.342
107, -3080.00, -3091.80, -3939.93, -3156.09, 0.000, 0.000, 0.000, 12:58:05.372
108, -3252.77, -3301.96, -4058.47, -3304.34, 0.000, 0.000, 0.000, 12:58:05.372
109, -3592.50, -3709.31, -4335.85, -3641.08, 0.000, 0.000, 0.000, 12:58:05.372
110, -3443.48, -3528.75, -4221.79, -3485.80, 0.000, 0.000, 0.000, 12:58:05.372
111, -3095.41, -3105.07, -3937.65, -3180.71, 0.000, 0.000, 0.000, 12:58:05.373
112, -3237.47, -3301.16, -4031.79, -3289.60, 0.000, 0.000, 0.000, 12:58:05.373
113, -3588.96, -3636.41, -4312.78, -3628.70, 0.000, 0.000, 0.000, 12:58:05.373
114, -3426.91, -3426.61, -4180.77, -3497.41, 0.000, 0.000, 0.000, 12:58:05.374
115, -3094.18, -3078.55, -3889.95, -3176.63, 0.000, 0.000, 0.000, 12:58:05.374
116, -3262.39, -3259.09, -4010.80, -3320.73, 0.000, 0.000, 0.000, 12:58:05.374
117, -3619.35, -3719.61, -4310.84, -3666.25, 0.000, 0.000, 0.000, 12:58:05.387
118, -3444.47, -3395.17, -4169.13, -3512.09, 0.000, 0.000, 0.000, 12:58:05.388
119, -3097.27, -3079.44, -3901.90, -3192.11, 0.000, 0.000, 0.000, 12:58:05.388
120, -3266.84, -3266.63, -4038.39, -3318.04, 0.000, 0.000, 0.000, 12:58:05.388
121, -3595.43, -3677.43, -4311.11, -3634.93, 0.000, 0.000, 0.000, 12:58:05.389
122, -3432.33, -3480.96, -4189.33, -3486.32, 0.000, 0.000, 0.000, 12:58:05.389
123, -3098.86, -3071.01, -3905.02, -3180.82, 0.000, 0.000, 0.000, 12:58:05.403
124, -3250.30, -3245.86, -4020.58, -3318.76, 0.000, 0.000, 0.000, 12:58:05.403
125, -3614.14, -3716.83, -4330.12, -3653.65, 0.000, 0.000, 0.000, 12:58:05.403
126, -3435.83, -3482.57, -4202.98, -3499.13, 0.000, 0.000, 0.000, 12:58:05.403
127, -3095.33, -3136.16, -3907.60, -3168.79, 0.000, 0.000, 0.000, 12:58:05.417
128, -3240.55, -3230.77, -4035.98, -3297.34, 0.000, 0.000, 0.000, 12:58:05.418
129, -3598.90, -3674.95, -4335.86, -3643.50, 0.000, 0.000, 0.000, 12:58:05.446
130, -3425.37, -3472.69, -4189.81, -3497.35, 0.000, 0.000, 0.000, 12:58:05.446
