%OpenBCI Raw EEG Data
%
%Sample Rate = 200.0 Hz
%First Column = SampleIndex
%Last Column = Timestamp 
%Other Columns = EEG data in microvolts followed by Accel Data (in G) interleaved with Aux Data
0, -4734.11, -5517.27, -5352.18, -4877.05, 0.000, 0.000, 0.000, 12:46:50.450
1, -4745.03, -5505.07, -5330.67, -4872.28, 0.000, 0.000, 0.000, 12:46:50.465
2, -4736.61, -5485.63, -5296.60, -4865.08, 0.000, 0.000, 0.000, 12:46:50.465
3, -4735.81, -5468.39, -5284.72, -4841.74, 0.000, 0.000, 0.000, 12:46:50.480
4, -4758.29, -5452.51, -5301.51, -4846.99, 0.000, 0.000, 0.000, 12:46:50.480
5, -4762.82, -5451.02, -5315.50, -4826.75, 0.000, 0.000, 0.000, 12:46:50.481
6, -4762.43, -5459.51, -5276.91, -4835.08, 0.000, 0.000, 0.000, 12:46:50.481
7, -4746.06, -5407.95, -5252.55, -4814.84, 0.000, 0.000, 0.000, 12:46:50.495
8, -4783.82, -5444.32, -5286.28, -4834.23, 0.000, 0.000, 0.000, 12:46:50.495
9, -4775.45, -5445.38, -5293.59, -4811.79, 0.000, 0.000, 0.000, 12:46:50.510
10, -4771.74, -5416.80, -5256.15, -4801.72, 0.000, 0.000, 0.000, 12:46:50.510
11, -4765.84, -5404.37, -5252.25, -4818.81, 0.000, 0.000, 0.000, 12:46:50.517
12, -4779.14, -5411.49, -5275.83, -4810.63, 0.000, 0.000, 0.000, 12:46:50.517
13, -4777.98, -5383.69, -5281.35, -4797.71, 0.000, 0.000, 0.000, 12:46:50.524
14, -4747.54, -5422.87, -5267.39, -4793.49, 0.000, 0.000, 0.000, 12:46:50.525
15, -4741.44, -5410.26, -5242.40, -4791.35, 0.000, 0.000, 0.000, 12:46:50.540
16, -4764.31, -5384.42, -5243.11, -4784.28, 0.000, 0.000, 0.000, 12:46:50.540
17, -4758.90, -5371.65, -5258.61, -4776.76, 0.000, 0.000, 0.000, 12:46:50.540
18, -4723.99, -5368.26, -5204.31, -4769.72, 0.000, 0.000, 0.000, 12:46:50.540
19, -4715.39, -5371.37, -5221.43, -4779.17, 0.000, 0.000, 0.000, 12:46:50.555
20, -4753.94, -5386.28, -5235.35, -4784.30, 0.000, 0.000, 0.000, 12:46:50.555
21, -4758.06, -5396.77, -5239.05, -4773.23, 0.000, 0.000, 0.000, 12:46:50.569
22, -4729.30, -5391.15, -5276.49, -4793.50, 0.000, 0.000, 0.000, 12:46:50.569
23, -4706.03, -5365.63, -5178.65, -4755.97, 0.000, 0.000, 0.000, 12:46:50.569
24, -4735.85, -5385.93, -5226.89, -4776.41, 0.000, 0.000, 0.000, 12:46:50.569
25, -4734.91, -5396.85, -5241.36, -4771.70, 0.000, 0.000, 0.000, 12:46:50.584
26, -4717.88, -5387.46, -5211.42, -4768.03, 0.000, 0.000, 0.000, 12:46:50.585
27, -4701.53, -5377.79, -5244.16, -4779.71, 0.000, 0.000, 0.000, 12:46:50.600
28, -4743.31, -5396.50, -5274.99, -4777.51, 0.000, 0.000, 0.000, 12:46:50.600
29, -4711.64, -5378.26, -5190.49, -4741.18, 0.000, 0.000, 0.000, 12:46:50.614
30, -4682.66, -5368.12, -5186.07, -4758.63, 0.000, 0.000, 0.000, 12:46:50.614
31, -4689.99, -5378.41, -5202.56, -4770.96, 0.000, 0.000, 0.000, 12:46:50.615
32, -4713.91, -5390.15, -5263.58, -4776.09, 0.000, 0.000, 0.000, 12:46:50.615
33, -4711.87, -5389.68, -5282.55, -4763.60, 0.000, 0.000, 0.000, 12:46:50.630
34, -4697.50, -5390.57, -5209.20, -4767.48, 0.000, 0.000, 0.000, 12:46:50.630
35, -4665.03, -5361.70, -5152.71, -4767.04, 0.000, 0.000, 0.000, 12:46:50.630
36, -4715.49, -5400.06, -5245.89, -4784.52, 0.000, 0.000, 0.000, 12:46:50.630
37, -4721.06, -5406.53, -5250.39, -4763.47, 0.000, 0.000, 0.000, 12:46:50.645
38, -4681.41, -5395.31, -5214.08, -4748.52, 0.000, 0.000, 0.000, 12:46:50.645
39, -4666.96, -5393.17, -5223.89, -4748.74, 0.000, 0.000, 0.000, 12:46:50.660
40, -4692.02, -5395.98, -5229.56, -4768.54, 0.000, 0.000, 0.000, 12:46:50.660
41, -4707.12, -5395.55, -5236.15, -4764.05, 0.000, 0.000, 0.000, 12:46:50.660
42, -4670.52, -5379.26, -5225.69, -4762.64, 0.000, 0.000, 0.000, 12:46:50.660
43, -4655.77, -5379.51, -5200.04, -4748.22, 0.000, 0.000, 0.000, 12:46:50.674
44, -4673.63, -5376.83, -5219.08, -4756.27, 0.000, 0.000, 0.000, 12:46:50.674
45, -4701.56, -5386.16, -5232.81, -4748.67, 0.000, 0.000, 0.000, 12:46:50.690
46, -4674.05, -5379.36, -5212.61, -4749.82, 0.000, 0.000, 0.000, 12:46:50.690
47, -4670.22, -5373.56, -5208.94, -4749.19, 0.000, 0.000, 0.000, 12:46:50.704
48, -4684.28, -5389.89, -5243.82, -4752.85, 0.000, 0.000, 0.000, 12:46:50.704
49, -4689.23, -5389.71, -5244.81, -4754.71, 0.000, 0.000, 0.000, 12:46:50.704
50, -4658.78, -5386.10, -5203.63, -4740.49, 0.000, 0.000, 0.000, 12:46:50.705
51, -4650.84, -5349.62, -5176.58, -4742.74, 0.000, 0.000, 0.000, 12:46:50.719
52, -4672.43, -5373.20, -5211.46, -4750.01, 0.000, 0.000, 0.000, 12:46:50.719
53, -4680.01, -5367.61, -5219.55, -4746.75, 0.000, 0.000, 0.000, 12:46:50.719
54, -4675.11, -5383.21, -5233.94, -4743.97, 0.000, 0.000, 0.000, 12:46:50.719
55, -4658.15, -5376.46, -5195.07, -4752.52, 0.000, 0.000, 0.000, 12:46:50.735
56, -4671.16, -5377.80, -5205.61, -4748.91, 0.000, 0.000, 0.000, 12:46:50.735
57, -4664.20, -5358.24, -5210.49, -4722.80, 0.000, 0.000, 0.000, 12:46:50.749
58, -4648.04, -5369.63, -5200.85, -4748.21, 0.000, 0.000, 0.000, 12:46:50.750
59, -4643.60, -5364.84, -5179.42, -4752.27, 0.000, 0.000, 0.000, 12:46:50.750
60, -4659.18, -5376.04, -5227.81, -4745.93, 0.000, 0.000, 0.000, 12:46:50.750
61, -4666.72, -5382.01, -5240.83, -4736.48, 0.000, 0.000, 0.000, 12:46:50.764
62, -4655.50, -5377.58, -5215.78, -4736.53, 0.000, 0.000, 0.000, 12:46:50.764
63, -4632.83, -5360.49, -5175.58, -4743.29, 0.000, 0.000, 0.000, 12:46:50.780
64, -4671.47, -5400.77, -5218.40, -4767.37, 0.000, 0.000, 0.000, 12:46:50.780
65, -4658.74, -5382.63, -5205.38, -4739.83, 0.000, 0.000, 0.000, 12:46:50.781
66, -4647.67, -5394.71, -5225.03, -4750.85, 0.000, 0.000, 0.000, 12:46:50.781
67, -4637.26, -5369.73, -5203.39, -4741.07, 0.000, 0.000, 0.000, 12:46:50.801
68, -4650.93, -5375.54, -5257.24, -4741.65, 0.000, 0.000, 0.000, 12:46:50.801
69, -4672.63, -5387.91, -5213.89, -4738.56, 0.000, 0.000, 0.000, 12:46:50.810
70, -4647.21, -5372.45, -5183.13, -4735.77, 0.000, 0.000, 0.000, 12:46:50.810
71, -4636.96, -5390.00, -5202.41, -4753.39, 0.000, 0.000, 0.000, 12:46:50.810
72, -4674.70, -5399.99, -5232.83, -4755.84, 0.000, 0.000, 0.000, 12:46:50.810
73, -4684.18, -5424.73, -5253.25, -4754.32, 0.000, 0.000, 0.000, 12:46:50.825
74, -4658.69, -5404.91, -5222.03, -4754.91, 0.000, 0.000, 0.000, 12:46:50.825
75, -4642.96, -5391.34, -5197.19, -4754.55, 0.000, 0.000, 0.000, 12:46:50.840
76, -4665.52, -5383.78, -5217.29, -4742.49, 0.000, 0.000, 0.000, 12:46:50.840
77, -4680.87, -5404.23, -5228.62, -4751.87, 0.000, 0.000, 0.000, 12:46:50.840
78, -4670.72, -5424.21, -5269.57, -4765.40, 0.000, 0.000, 0.000, 12:46:50.840
79, -4661.92, -5419.97, -5214.13, -4763.69, 0.000, 0.000, 0.000, 12:46:50.855
80, -4684.82, -5404.08, -5212.29, -4751.37, 0.000, 0.000, 0.000, 12:46:50.855
81, -4668.41, -5395.34, -5195.44, -4747.52, 0.000, 0.000, 0.000, 12:46:50.869
82, -4645.86, -5384.54, -5174.60, -4762.14, 0.000, 0.000, 0.000, 12:46:50.869
83, -4638.57, -5373.04, -5178.74, -4747.82, 0.000, 0.000, 0.000, 12:46:50.870
84, -4656.32, -5378.48, -5219.80, -4740.32, 0.000, 0.000, 0.000, 12:46:50.870
85, -4678.46, -5413.45, -5290.96, -4757.44, 0.000, 0.000, 0.000, 12:46:50.884
86, -4659.44, -5412.33, -5202.82, -4739.64, 0.000, 0.000, 0.000, 12:46:50.884
87, -4638.38, -5401.75, -5175.58, -4745.23, 0.000, 0.000, 0.000, 12:46:50.899
88, -4668.40, -5388.22, -5225.60, -4745.48, 0.000, 0.000, 0.000, 12:46:50.899
89, -4663.67, -5396.83, -5235.82, -4745.62, 0.000, 0.000, 0.000, 12:46:50.900
90, -4648.94, -5395.15, -5189.64, -4749.29, 0.000, 0.000, 0.000, 12:46:50.900
91, -4650.93, -5383.55, -5206.42, -4755.22, 0.000, 0.000, 0.000, 12:46:50.914
92, -4664.54, -5375.94, -5227.09, -4743.31, 0.000, 0.000, 0.000, 12:46:50.914
93, -4674.02, -5414.50, -5256.12, -4742.63, 0.000, 0.000, 0.000, 12:46:50.931
94, -4661.10, -5396.38, -5196.68, -4736.09, 0.000, 0.000, 0.000, 12:46:50.931
95, -4649.14, -5377.50, -5201.76, -4745.28, 0.000, 0.000, 0.000, 12:46:50.931
96, -4657.54, -5355.86, -5220.50, -4725.53, 0.000, 0.000, 0.000, 12:46:50.931
97, -4668.23, -5377.27, -5221.17, -4731.42, 0.000, 0.000, 0.000, 12:46:50.944
98, -4654.11, -5407.14, -5232.85, -4757.85, 0.000, 0.000, 0.000, 12:46:50.944
99, -4643.37, -5374.17, -5205.52, -4752.49, 0.000, 0.000, 0.000, 12:46:50.960
100, -4672.07, -5364.21, -5228.02, -4745.06, 0.000, 0.000, 0.000, 12:46:50.960
101, -4669.84, -5384.29, -5249.92, -4724.48, 0.000, 0.000, 0.000, 12:46:50.960
102, -4656.49, -5403.24, -5228.75, -4759.32, 0.000, 0.000, 0.000, 12:46:50.960
103, -4653.12, -5397.03, -5195.82, -4756.47, 0.000, 0.000, 0.000, 12:46:50.975
104, -4664.07, -5356.08, -5213.90, -4739.39, 0.000, 0.000, 0.000, 12:46:50.976
105, -4673.86, -5374.63, -5224.73, -4748.79, 0.000, 0.000, 0.000, 12:46:50.989
106, -4648.10, -5389.87, -5209.16, -4748.89, 0.000, 0.000, 0.000, 12:46:50.989
107, -4660.25, -5390.74, -5227.83, -4763.02, 0.000, 0.000, 0.000, 12:46:50.990
108, -4666.87, -5362.99, -5235.20, -4726.57, 0.000, 0.000, 0.000, 12:46:50.990
109, -4674.36, -5382.62, -5210.74, -4726.73, 0.000, 0.000, 0.000, 12:46:51.004
110, -4660.54, -5401.66, -5232.71, -4756.49, 0.000, 0.000, 0.000, 12:46:51.004
111, -4650.49, -5384.89, -5178.83, -4762.38, 0.000, 0.000, 0.000, 12:46:51.019
112, -4675.99, -5377.89, -5218.04, -4734.64, 0.000, 0.000, 0.000, 12:46:51.019
113, -4695.91, -5413.78, -5245.72, -4739.80, 0.000, 0.000, 0.000, 12:46:51.020
114, -4666.83, -5399.70, -5201.26, -4766.69, 0.000, 0.000, 0.000, 12:46:51.020
115, -4623.10, -5352.25, -5164.58, -4735.56, 0.000, 0.000, 0.000, 12:46:51.034
116, -4651.26, -5325.33, -5198.60, -4715.34, 0.000, 0.000, 0.000, 12:46:51.035
117, -4672.49, -5374.85, -5204.47, -4742.24, 0.000, 0.000, 0.000, 12:46:51.049
118, -4653.64, -5383.90, -5179.79, -4761.23, 0.000, 0.000, 0.000, 12:46:51.049
119, -4631.89, -5366.16, -5177.84, -4759.16, 0.000, 0.000, 0.000, 12:46:51.050
120, -4661.55, -5347.02, -5211.57, -4732.08, 0.000, 0.000, 0.000, 12:46:51.050
121, -4671.81, -5375.24, -5206.60, -4765.27, 0.000, 0.000, 0.000, 12:46:51.064
122, -4646.62, -5363.85, -5173.28, -4773.88, 0.000, 0.000, 0.000, 12:46:51.064
123, -4633.36, -5345.93, -5168.48, -4779.44, 0.000, 0.000, 0.000, 12:46:51.080
124, -4666.91, -5333.82, -5196.77, -4737.49, 0.000, 0.000, 0.000, 12:46:51.081
125, -4666.97, -5357.00, -5189.87, -4736.51, 0.000, 0.000, 0.000, 12:46:51.081
126, -4651.39, -5375.75, -5199.12, -4772.02, 0.000, 0.000, 0.000, 12:46:51.081
127, -4650.25, -5379.79, -5220.32, -4765.79, 0.000, 0.000, 0.000, 12:46:51.094
128, -4682.32, -5343.65, -5205.44, -4731.72, 0.000, 0.000, 0.000, 12:46:51.094
129, -4667.56, -5357.11, -5182.67, -4741.33, 0.000, 0.000, 0.000, 12:46:51.111
130, -4656.64, -5376.30, -5183.25, -4768.85, 0.000, 0.000, 0.000, 12:46:51.111
131, -4643.86, -5367.05, -5206.11, -4779.33, 0.000, 0.000, 0.000, 12:46:51.111
132, -4678.20, -5383.60, -5219.88, -4733.10, 0.000, 0.000, 0.000, 12:46:51.111
133, -4664.10, -5388.82, -5192.98, -4735.06, 0.000, 0.000, 0.000, 12:46:51.124
134, -4656.76, -5384.43, -5180.09, -4766.43, 0.000, 0.000, 0.000, 12:46:51.124
135, -4651.24, -5378.78, -5188.05, -4771.73, 0.000, 0.000, 0.000, 12:46:51.139
136, -4662.72, -5365.44, -5215.94, -4718.35, 0.000, 0.000, 0.000, 12:46:51.139
137, -4671.92, -5378.82, -5227.06, -4735.75, 0.000, 0.000, 0.000, 12:46:51.140
138, -4664.85, -5394.76, -5235.44, -4786.28, 0.000, 0.000, 0.000, 12:46:51.140
139, -4641.54, -5363.95, -5198.01, -4766.65, 0.000, 0.000, 0.000, 12:46:51.154
140, -4658.57, -5338.37, -5191.50, -4697.47, 0.000, 0.000, 0.000, 12:46:51.154
141, -4661.56, -5360.48, -5179.57, -4734.82, 0.000, 0.000, 0.000, 12:46:51.169
142, -4668.25, -5415.95, -5211.56, -4782.48, 0.000, 0.000, 0.000, 12:46:51.169
143, -4646.84, -5380.97, -5211.09, -4771.06, 0.000, 0.000, 0.000, 12:46:51.169
144, -4665.96, -5356.88, -5244.60, -4703.74, 0.000, 0.000, 0.000, 12:46:51.169
145, -4657.03, -5381.48, -5225.63, -4724.72, 0.000, 0.000, 0.000, 12:46:51.185
146, -4637.65, -5376.00, -5164.76, -4764.41, 0.000, 0.000, 0.000, 12:46:51.185
147, -4643.54, -5350.63, -5165.29, -4768.00, 0.000, 0.000, 0.000, 12:46:51.199
148, -4679.21, -5350.16, -5217.22, -4725.99, 0.000, 0.000, 0.000, 12:46:51.199
149, -4660.47, -5375.54, -5210.12, -4745.18, 0.000, 0.000, 0.000, 12:46:51.199
150, -4664.03, -5407.09, -5221.47, -4774.71, 0.000, 0.000, 0.000, 12:46:51.199
151, -4664.48, -5388.52, -5204.88, -4771.58, 0.000, 0.000, 0.000, 12:46:51.214
152, -4668.48, -5345.02, -5215.02, -4716.75, 0.000, 0.000, 0.000, 12:46:51.214
153, -4658.90, -5358.43, -5223.71, -4734.39, 0.000, 0.000, 0.000, 12:46:51.231
154, -4621.22, -5375.82, -5190.29, -4746.48, 0.000, 0.000, 0.000, 12:46:51.231
155, -4643.65, -5371.92, -5223.46, -4737.40, 0.000, 0.000, 0.000, 12:46:51.231
156, -4686.69, -5378.77, -5277.50, -4701.92, 0.000, 0.000, 0.000, 12:46:51.231
157, -4666.64, -5394.20, -5254.84, -4720.28, 0.000, 0.000, 0.000, 12:46:51.245
158, -4642.09, -5388.45, -5201.73, -4748.36, 0.000, 0.000, 0.000, 12:46:51.245
159, -4649.57, -5376.47, -5213.01, -4756.44, 0.000, 0.000, 0.000, 12:46:51.260
160, -4676.46, -5348.07, -5252.47, -4688.09, 0.000, 0.000, 0.000, 12:46:51.260
161, -4677.52, -5382.95, -5229.70, -4712.86, 0.000, 0.000, 0.000, 12:46:51.260
162, -4642.91, -5380.35, -5218.11, -4748.82, 0.000, 0.000, 0.000, 12:46:51.260
163, -4673.76, -5396.01, -5232.88, -4773.90, 0.000, 0.000, 0.000, 12:46:51.289
164, -4671.45, -5366.01, -5222.55, -4708.76, 0.000, 0.000, 0.000, 12:46:51.289
165, -4694.95, -5410.38, -5273.66, -4741.04, 0.000, 0.000, 0.000, 12:46:51.290
166, -4679.58, -5417.00, -5243.95, -4788.38, 0.000, 0.000, 0.000, 12:46:51.290
167, -4659.62, -5380.60, -5215.85, -4765.95, 0.000, 0.000, 0.000, 12:46:51.297
168, -4688.96, -5366.22, -5260.72, -4724.81, 0.000, 0.000, 0.000, 12:46:51.297
169, -4682.94, -5404.51, -5249.39, -4749.61, 0.000, 0.000, 0.000, 12:46:51.304
170, -4667.93, -5431.17, -5217.27, -4797.85, 0.000, 0.000, 0.000, 12:46:51.304
171, -4662.17, -5391.51, -5236.45, -4778.54, 0.000, 0.000, 0.000, 12:46:51.319
172, -4673.09, -5372.89, -5237.07, -4708.22, 0.000, 0.000, 0.000, 12:46:51.319
173, -4667.19, -5387.82, -5262.63, -4746.36, 0.000, 0.000, 0.000, 12:46:51.320
174, -4634.60, -5398.51, -5217.06, -4769.63, 0.000, 0.000, 0.000, 12:46:51.320
175, -4622.77, -5369.03, -5158.40, -4743.96, 0.000, 0.000, 0.000, 12:46:51.334
176, -4663.37, -5346.92, -5200.80, -4702.12, 0.000, 0.000, 0.000, 12:46:51.334
177, -4678.46, -5407.29, -5249.09, -4763.45, 0.000, 0.000, 0.000, 12:46:51.350
178, -4639.99, -5413.42, -5207.12, -4784.66, 0.000, 0.000, 0.000, 12:46:51.350
179, -4640.46, -5397.26, -5202.83, -4773.68, 0.000, 0.000, 0.000, 12:46:51.350
180, -4659.09, -5381.18, -5279.04, -4721.11, 0.000, 0.000, 0.000, 12:46:51.350
181, -4649.98, -5398.11, -5208.26, -4737.13, 0.000, 0.000, 0.000, 12:46:51.365
182, -4647.65, -5412.07, -5191.86, -4779.97, 0.000, 0.000, 0.000, 12:46:51.365
183, -4659.67, -5415.47, -5199.92, -4773.35, 0.000, 0.000, 0.000, 12:46:51.380
184, -4662.07, -5391.33, -5237.86, -4705.84, 0.000, 0.000, 0.000, 12:46:51.380
185, -4667.86, -5421.30, -5241.22, -4748.61, 0.000, 0.000, 0.000, 12:46:51.380
186, -4638.68, -5417.82, -5223.81, -4779.34, 0.000, 0.000, 0.000, 12:46:51.380
187, -4636.17, -5411.29, -5201.93, -4766.40, 0.000, 0.000, 0.000, 12:46:51.394
188, -4663.28, -5416.76, -5251.39, -4714.66, 0.000, 0.000, 0.000, 12:46:51.394
189, -4656.23, -5437.98, -5221.83, -4732.54, 0.000, 0.000, 0.000, 12:46:51.411
190, -4642.29, -5456.17, -5226.15, -4815.22, 0.000, 0.000, 0.000, 12:46:51.411
191, -4633.16, -5423.37, -5224.46, -4787.01, 0.000, 0.000, 0.000, 12:46:51.411
192, -4648.71, -5408.95, -5267.66, -4705.70, 0.000, 0.000, 0.000, 12:46:51.411
193, -4672.56, -5434.35, -5235.06, -4734.02, 0.000, 0.000, 0.000, 12:46:51.424
194, -4640.18, -5437.19, -5198.65, -4771.64, 0.000, 0.000, 0.000, 12:46:51.424
195, -4638.70, -5436.37, -5210.51, -4792.15, 0.000, 0.000, 0.000, 12:46:51.439
196, -4647.29, -5396.23, -5225.03, -4722.06, 0.000, 0.000, 0.000, 12:46:51.439
197, -4655.31, -5421.98, -5234.44, -4745.17, 0.000, 0.000, 0.000, 12:46:51.440
198, -4618.81, -5428.66, -5213.90, -4786.71, 0.000, 0.000, 0.000, 12:46:51.440
199, -4633.45, -5414.37, -5245.11, -4769.89, 0.000, 0.000, 0.000, 12:46:51.454
200, -4651.25, -5400.04, -5249.74, -4716.35, 0.000, 0.000, 0.000, 12:46:51.454
0, -4658.40, -5424.27, -5219.79, -4751.35, 0.000, 0.000, 0.000, 12:46:51.454
1, -4629.55, -5416.33, -5192.06, -4776.61, 0.000, 0.000, 0.000, 12:46:51.484
2, -4651.55, -5417.80, -5222.93, -4778.87, 0.000, 0.000, 0.000, 12:46:51.484
3, -4665.24, -5369.54, -5243.63, -4718.80, 0.000, 0.000, 0.000, 12:46:51.484
4, -4660.99, -5423.15, -5244.54, -4742.25, 0.000, 0.000, 0.000, 12:46:51.484
5, -4643.59, -5411.69, -5227.67, -4770.83, 0.000, 0.000, 0.000, 12:46:51.486
6, -4632.94, -5390.63, -5225.99, -4770.47, 0.000, 0.000, 0.000, 12:46:51.486
7, -4638.87, -5323.50, -5244.35, -4703.85, 0.000, 0.000, 0.000, 12:46:51.500
8, -4660.28, -5367.81, -5211.81, -4749.85, 0.000, 0.000, 0.000, 12:46:51.500
9, -4652.14, -5409.64, -5205.51, -4790.51, 0.000, 0.000, 0.000, 12:46:51.515
10, -4640.66, -5408.94, -5215.78, -4757.41, 0.000, 0.000, 0.000, 12:46:51.515
11, -4640.72, -5329.18, -5227.10, -4704.83, 0.000, 0.000, 0.000, 12:46:51.515
12, -4639.49, -5345.35, -5172.15, -4719.25, 0.000, 0.000, 0.000, 12:46:51.515
13, -4626.45, -5371.15, -5172.29, -4754.50, 0.000, 0.000, 0.000, 12:46:51.530
14, -4629.46, -5371.74, -5238.20, -4744.64, 0.000, 0.000, 0.000, 12:46:51.531
15, -4641.18, -5365.65, -5231.65, -4720.56, 0.000, 0.000, 0.000, 12:46:51.544
16, -4624.13, -5393.60, -5226.52, -4718.70, 0.000, 0.000, 0.000, 12:46:51.544
17, -4585.69, -5387.23, -5195.81, -4731.63, 0.000, 0.000, 0.000, 12:46:51.545
18, -4577.04, -5350.76, -5204.64, -4741.48, 0.000, 0.000, 0.000, 12:46:51.545
19, -4597.35, -5350.06, -5263.56, -4699.60, 0.000, 0.000, 0.000, 12:46:51.559
20, -4576.59, -5385.85, -5247.48, -4724.96, 0.000, 0.000, 0.000, 12:46:51.560
21, -4560.59, -5422.19, -5174.72, -4745.22, 0.000, 0.000, 0.000, 12:46:51.575
22, -4550.67, -5380.39, -5178.72, -4734.89, 0.000, 0.000, 0.000, 12:46:51.575
23, -4553.84, -5375.31, -5189.14, -4702.81, 0.000, 0.000, 0.000, 12:46:51.575
24, -4551.36, -5408.56, -5206.94, -4710.53, 0.000, 0.000, 0.000, 12:46:51.575
25, -4533.62, -5415.41, -5227.35, -4766.44, 0.000, 0.000, 0.000, 12:46:51.590
26, -4513.56, -5374.67, -5176.22, -4733.12, 0.000, 0.000, 0.000, 12:46:51.590
27, -4545.93, -5373.11, -5268.07, -4705.78, 0.000, 0.000, 0.000, 12:46:51.604
28, -4538.30, -5379.91, -5169.11, -4743.59, 0.000, 0.000, 0.000, 12:46:51.605
29, -4543.75, -5405.72, -5172.25, -4758.53, 0.000, 0.000, 0.000, 12:46:51.605
30, -4541.56, -5358.59, -5172.93, -4741.54, 0.000, 0.000, 0.000, 12:46:51.605
31, -4591.20, -5376.19, -5241.15, -4716.75, 0.000, 0.000, 0.000, 12:46:51.619
32, -4589.78, -5373.71, -5224.73, -4726.85, 0.000, 0.000, 0.000, 12:46:51.619
33, -4589.96, -5379.16, -5182.76, -4784.43, 0.000, 0.000, 0.000, 12:46:51.635
34, -4617.99, -5366.36, -5192.14, -4775.20, 0.000, 0.000, 0.000, 12:46:51.635
35, -4649.75, -5329.20, -5190.90, -4705.24, 0.000, 0.000, 0.000, 12:46:51.635
36, -4651.63, -5328.95, -5186.03, -4728.24, 0.000, 0.000, 0.000, 12:46:51.635
37, -4674.43, -5384.76, -5224.11, -4786.12, 0.000, 0.000, 0.000, 12:46:51.650
38, -4688.88, -5353.38, -5202.12, -4778.86, 0.000, 0.000, 0.000, 12:46:51.650
39, -4722.80, -5343.05, -5232.76, -4716.39, 0.000, 0.000, 0.000, 12:46:51.664
40, -4715.37, -5362.17, -5220.38, -4753.20, 0.000, 0.000, 0.000, 12:46:51.664
41, -4706.18, -5374.91, -5218.15, -4788.26, 0.000, 0.000, 0.000, 12:46:51.664
42, -4710.26, -5354.73, -5237.63, -4775.53, 0.000, 0.000, 0.000, 12:46:51.665
43, -4732.77, -5349.41, -5246.10, -4746.26, 0.000, 0.000, 0.000, 12:46:51.680
44, -4750.76, -5389.98, -5221.55, -4756.59, 0.000, 0.000, 0.000, 12:46:51.680
45, -4722.65, -5410.20, -5208.32, -4781.59, 0.000, 0.000, 0.000, 12:46:51.694
46, -4715.52, -5386.94, -5219.96, -4780.71, 0.000, 0.000, 0.000, 12:46:51.694
47, -4720.14, -5348.52, -5247.66, -4733.64, 0.000, 0.000, 0.000, 12:46:51.695
48, -4676.18, -5372.09, -5218.10, -4746.79, 0.000, 0.000, 0.000, 12:46:51.695
49, -4673.17, -5419.88, -5225.11, -4780.74, 0.000, 0.000, 0.000, 12:46:51.709
50, -4630.16, -5411.14, -5213.13, -4765.83, 0.000, 0.000, 0.000, 12:46:51.710
51, -4606.81, -5368.32, -5226.37, -4694.87, 0.000, 0.000, 0.000, 12:46:51.725
52, -4569.04, -5385.54, -5218.01, -4715.34, 0.000, 0.000, 0.000, 12:46:51.725
53, -4529.46, -5436.87, -5181.95, -4734.95, 0.000, 0.000, 0.000, 12:46:51.725
54, -4511.22, -5439.69, -5202.37, -4721.93, 0.000, 0.000, 0.000, 12:46:51.726
55, -4506.08, -5444.27, -5234.62, -4685.33, 0.000, 0.000, 0.000, 12:46:51.739
56, -4486.31, -5460.25, -5239.67, -4716.10, 0.000, 0.000, 0.000, 12:46:51.740
57, -4458.70, -5472.48, -5212.56, -4739.27, 0.000, 0.000, 0.000, 12:46:51.754
58, -4478.04, -5451.18, -5199.50, -4722.39, 0.000, 0.000, 0.000, 12:46:51.754
59, -4509.63, -5417.58, -5204.40, -4693.12, 0.000, 0.000, 0.000, 12:46:51.755
60, -4528.55, -5466.33, -5197.24, -4729.27, 0.000, 0.000, 0.000, 12:46:51.755
61, -4492.12, -5457.75, -5189.12, -4761.36, 0.000, 0.000, 0.000, 12:46:51.770
62, -4531.40, -5431.89, -5221.84, -4770.10, 0.000, 0.000, 0.000, 12:46:51.770
63, -4569.09, -5406.17, -5230.70, -4723.09, 0.000, 0.000, 0.000, 12:46:51.784
64, -4596.15, -5405.64, -5207.12, -4742.56, 0.000, 0.000, 0.000, 12:46:51.784
65, -4621.96, -5427.66, -5203.02, -4795.70, 0.000, 0.000, 0.000, 12:46:51.793
66, -4639.77, -5378.64, -5195.06, -4760.49, 0.000, 0.000, 0.000, 12:46:51.793
67, -4690.37, -5359.18, -5223.70, -4753.61, 0.000, 0.000, 0.000, 12:46:51.799
68, -4721.17, -5392.69, -5237.42, -4787.96, 0.000, 0.000, 0.000, 12:46:51.799
69, -4703.87, -5384.46, -5212.76, -4781.34, 0.000, 0.000, 0.000, 12:46:51.815
70, -4720.74, -5353.13, -5211.76, -4768.08, 0.000, 0.000, 0.000, 12:46:51.815
71, -4770.61, -5341.34, -5227.40, -4752.97, 0.000, 0.000, 0.000, 12:46:51.815
72, -4758.09, -5346.01, -5201.42, -4760.18, 0.000, 0.000, 0.000, 12:46:51.815
73, -4739.43, -5364.34, -5194.75, -4790.52, 0.000, 0.000, 0.000, 12:46:51.830
74, -4761.21, -5348.52, -5220.22, -4787.93, 0.000, 0.000, 0.000, 12:46:51.831
75, -4795.35, -5352.61, -5215.86, -4741.53, 0.000, 0.000, 0.000, 12:46:51.845
76, -4790.34, -5369.68, -5213.14, -4758.90, 0.000, 0.000, 0.000, 12:46:51.845
77, -4786.08, -5395.36, -5221.85, -4805.32, 0.000, 0.000, 0.000, 12:46:51.846
78, -4792.40, -5390.33, -5239.12, -4789.81, 0.000, 0.000, 0.000, 12:46:51.846
79, -4796.83, -5367.68, -5238.79, -4748.88, 0.000, 0.000, 0.000, 12:46:51.860
80, -4766.84, -5373.15, -5220.88, -4772.08, 0.000, 0.000, 0.000, 12:46:51.860
81, -4747.83, -5379.02, -5195.64, -4795.44, 0.000, 0.000, 0.000, 12:46:51.874
82, -4753.53, -5363.21, -5211.35, -4775.35, 0.000, 0.000, 0.000, 12:46:51.875
83, -4776.96, -5360.31, -5229.61, -4743.68, 0.000, 0.000, 0.000, 12:46:51.875
84, -4744.96, -5361.92, -5205.27, -4761.05, 0.000, 0.000, 0.000, 12:46:51.875
85, -4746.02, -5407.54, -5215.60, -4803.52, 0.000, 0.000, 0.000, 12:46:51.890
86, -4739.87, -5387.50, -5210.28, -4769.05, 0.000, 0.000, 0.000, 12:46:51.890
87, -4746.67, -5374.06, -5228.15, -4727.96, 0.000, 0.000, 0.000, 12:46:51.905
88, -4722.28, -5381.42, -5231.57, -4756.94, 0.000, 0.000, 0.000, 12:46:51.905
89, -4682.33, -5397.90, -5214.96, -4788.95, 0.000, 0.000, 0.000, 12:46:51.905
90, -4670.21, -5381.81, -5214.32, -4760.40, 0.000, 0.000, 0.000, 12:46:51.905
91, -4642.49, -5374.38, -5220.99, -4714.94, 0.000, 0.000, 0.000, 12:46:51.920
92, -4605.07, -5410.40, -5202.62, -4731.26, 0.000, 0.000, 0.000, 12:46:51.920
93, -4546.06, -5418.06, -5178.92, -4765.11, 0.000, 0.000, 0.000, 12:46:51.934
94, -4531.54, -5416.64, -5218.70, -4740.20, 0.000, 0.000, 0.000, 12:46:51.934
95, -4500.29, -5406.63, -5215.66, -4677.15, 0.000, 0.000, 0.000, 12:46:51.935
96, -4436.31, -5420.65, -5196.96, -4690.11, 0.000, 0.000, 0.000, 12:46:51.935
97, -4418.32, -5456.33, -5181.80, -4730.51, 0.000, 0.000, 0.000, 12:46:51.950
98, -4417.14, -5421.36, -5190.74, -4705.80, 0.000, 0.000, 0.000, 12:46:51.950
99, -4447.47, -5413.60, -5219.67, -4689.42, 0.000, 0.000, 0.000, 12:46:51.964
100, -4427.62, -5403.82, -5171.50, -4701.17, 0.000, 0.000, 0.000, 12:46:51.965
101, -4462.26, -5437.21, -5163.09, -4766.73, 0.000, 0.000, 0.000, 12:46:51.965
102, -4509.10, -5409.89, -5192.81, -4744.53, 0.000, 0.000, 0.000, 12:46:51.965
103, -4548.92, -5376.48, -5203.32, -4716.40, 0.000, 0.000, 0.000, 12:46:51.979
104, -4561.33, -5389.43, -5186.90, -4764.51, 0.000, 0.000, 0.000, 12:46:51.980
105, -4568.19, -5378.10, -5151.63, -4779.58, 0.000, 0.000, 0.000, 12:46:51.995
106, -4624.19, -5360.49, -5174.18, -4773.76, 0.000, 0.000, 0.000, 12:46:51.995
107, -4652.25, -5332.90, -5191.50, -4733.06, 0.000, 0.000, 0.000, 12:46:51.995
108, -4684.15, -5369.54, -5189.74, -4779.89, 0.000, 0.000, 0.000, 12:46:51.996
109, -4681.54, -5357.70, -5180.54, -4805.22, 0.000, 0.000, 0.000, 12:46:52.011
110, -4727.48, -5352.28, -5206.72, -4785.76, 0.000, 0.000, 0.000, 12:46:52.011
111, -4747.66, -5329.67, -5207.49, -4745.73, 0.000, 0.000, 0.000, 12:46:52.025
112, -4755.25, -5359.56, -5207.43, -4772.34, 0.000, 0.000, 0.000, 12:46:52.025
113, -4740.70, -5357.72, -5194.72, -4802.27, 0.000, 0.000, 0.000, 12:46:52.025
114, -4766.79, -5343.95, -5207.02, -4784.27, 0.000, 0.000, 0.000, 12:46:52.026
115, -4788.11, -5341.75, -5224.36, -4747.85, 0.000, 0.000, 0.000, 12:46:52.039
116, -4772.39, -5340.19, -5206.64, -4768.02, 0.000, 0.000, 0.000, 12:46:52.040
117, -4775.33, -5366.20, -5211.45, -4804.27, 0.000, 0.000, 0.000, 12:46:52.055
118, -4778.22, -5336.27, -5194.93, -4769.55, 0.000, 0.000, 0.000, 12:46:52.055
119, -4805.78, -5347.25, -5226.35, -4760.87, 0.000, 0.000, 0.000, 12:46:52.055
120, -4793.00, -5355.21, -5208.49, -4778.73, 0.000, 0.000, 0.000, 12:46:52.055
121, -4769.67, -5364.13, -5190.93, -4800.87, 0.000, 0.000, 0.000, 12:46:52.070
122, -4788.68, -5358.77, -5221.73, -4774.44, 0.000, 0.000, 0.000, 12:46:52.070
123, -4803.84, -5356.57, -5255.20, -4758.20, 0.000, 0.000, 0.000, 12:46:52.084
124, -4769.88, -5362.04, -5217.19, -4767.50, 0.000, 0.000, 0.000, 12:46:52.085
125, -4755.32, -5392.49, -5209.82, -4803.70, 0.000, 0.000, 0.000, 12:46:52.085
126, -4764.20, -5368.00, -5261.79, -4783.56, 0.000, 0.000, 0.000, 12:46:52.085
127, -4778.12, -5380.50, -5214.25, -4735.86, 0.000, 0.000, 0.000, 12:46:52.099
128, -4764.88, -5366.48, -5202.05, -4764.67, 0.000, 0.000, 0.000, 12:46:52.099
129, -4747.02, -5383.34, -5197.29, -4818.43, 0.000, 0.000, 0.000, 12:46:52.115
130, -4751.48, -5367.65, -5207.76, -4766.65, 0.000, 0.000, 0.000, 12:46:52.115
131, -4762.82, -5362.96, -5259.83, -4733.43, 0.000, 0.000, 0.000, 12:46:52.115
132, -4734.13, -5377.71, -5213.68, -4756.30, 0.000, 0.000, 0.000, 12:46:52.115
133, -4726.67, -5392.98, -5192.73, -4806.16, 0.000, 0.000, 0.000, 12:46:52.130
134, -4754.78, -5377.65, -5218.75, -4788.41, 0.000, 0.000, 0.000, 12:46:52.130
135, -4739.76, -5357.99, -5230.84, -4714.25, 0.000, 0.000, 0.000, 12:46:52.145
136, -4730.95, -5401.34, -5235.88, -4762.41, 0.000, 0.000, 0.000, 12:46:52.145
137, -4716.22, -5411.93, -5214.40, -4796.21, 0.000, 0.000, 0.000, 12:46:52.145
138, -4719.18, -5366.81, -5208.73, -4756.70, 0.000, 0.000, 0.000, 12:46:52.146
139, -4730.88, -5363.26, -5221.54, -4729.66, 0.000, 0.000, 0.000, 12:46:52.166
140, -4712.78, -5373.63, -5217.54, -4764.49, 0.000, 0.000, 0.000, 12:46:52.166
141, -4691.50, -5398.61, -5213.39, -4801.63, 0.000, 0.000, 0.000, 12:46:52.174
142, -4698.51, -5374.04, -5228.06, -4752.29, 0.000, 0.000, 0.000, 12:46:52.175
143, -4708.81, -5373.01, -5233.93, -4719.66, 0.000, 0.000, 0.000, 12:46:52.175
144, -4697.35, -5379.29, -5225.70, -4749.58, 0.000, 0.000, 0.000, 12:46:52.175
145, -4693.48, -5398.12, -5195.00, -4803.95, 0.000, 0.000, 0.000, 12:46:52.189
146, -4686.40, -5357.19, -5219.13, -4749.85, 0.000, 0.000, 0.000, 12:46:52.189
147, -4705.41, -5363.83, -5244.39, -4725.34, 0.000, 0.000, 0.000, 12:46:52.205
148, -4685.70, -5381.25, -5187.51, -4763.06, 0.000, 0.000, 0.000, 12:46:52.205
149, -4659.23, -5366.09, -5173.37, -4771.45, 0.000, 0.000, 0.000, 12:46:52.205
150, -4668.12, -5351.75, -5192.21, -4749.47, 0.000, 0.000, 0.000, 12:46:52.205
151, -4700.55, -5375.06, -5242.96, -4730.16, 0.000, 0.000, 0.000, 12:46:52.219
152, -4692.48, -5389.44, -5224.65, -4761.04, 0.000, 0.000, 0.000, 12:46:52.219
153, -4664.18, -5399.44, -5225.22, -4789.74, 0.000, 0.000, 0.000, 12:46:52.234
154, -4676.58, -5375.35, -5232.43, -4753.57, 0.000, 0.000, 0.000, 12:46:52.234
155, -4684.94, -5345.59, -5235.97, -4715.53, 0.000, 0.000, 0.000, 12:46:52.234
156, -4676.59, -5376.57, -5180.50, -4738.47, 0.000, 0.000, 0.000, 12:46:52.235
157, -4669.80, -5403.02, -5195.82, -4785.48, 0.000, 0.000, 0.000, 12:46:52.249
158, -4678.14, -5365.98, -5214.48, -4750.78, 0.000, 0.000, 0.000, 12:46:52.249
159, -4679.50, -5360.88, -5220.47, -4713.02, 0.000, 0.000, 0.000, 12:46:52.264
160, -4681.48, -5404.16, -5249.43, -4772.01, 0.000, 0.000, 0.000, 12:46:52.265
161, -4658.39, -5388.74, -5213.59, -4779.07, 0.000, 0.000, 0.000, 12:46:52.265
162, -4661.60, -5356.14, -5192.08, -4727.09, 0.000, 0.000, 0.000, 12:46:52.265
163, -4678.00, -5377.79, -5229.28, -4721.64, 0.000, 0.000, 0.000, 12:46:52.280
164, -4671.48, -5394.00, -5235.25, -4763.02, 0.000, 0.000, 0.000, 12:46:52.280
165, -4644.15, -5412.59, -5229.81, -4796.24, 0.000, 0.000, 0.000, 12:46:52.294
166, -4656.97, -5377.17, -5198.57, -4732.68, 0.000, 0.000, 0.000, 12:46:52.295
167, -4678.83, -5364.31, -5240.70, -4720.90, 0.000, 0.000, 0.000, 12:46:52.296
168, -4666.88, -5378.23, -5208.23, -4748.61, 0.000, 0.000, 0.000, 12:46:52.296
169, -4650.40, -5412.19, -5217.44, -4781.55, 0.000, 0.000, 0.000, 12:46:52.310
170, -4657.25, -5359.41, -5213.20, -4755.77, 0.000, 0.000, 0.000, 12:46:52.310
171, -4683.55, -5356.13, -5236.14, -4714.83, 0.000, 0.000, 0.000, 12:46:52.324
172, -4665.40, -5399.11, -5210.88, -4761.59, 0.000, 0.000, 0.000, 12:46:52.325
173, -4662.65, -5421.32, -5252.79, -4788.15, 0.000, 0.000, 0.000, 12:46:52.325
174, -4652.53, -5367.00, -5193.80, -4726.86, 0.000, 0.000, 0.000, 12:46:52.325
175, -4658.55, -5373.99, -5236.38, -4701.69, 0.000, 0.000, 0.000, 12:46:52.340
176, -4668.03, -5418.12, -5269.89, -4745.19, 0.000, 0.000, 0.000, 12:46:52.340
177, -4657.96, -5414.79, -5247.76, -4760.74, 0.000, 0.000, 0.000, 12:46:52.355
178, -4654.69, -5391.65, -5243.84, -4712.67, 0.000, 0.000, 0.000, 12:46:52.355
179, -4674.51, -5392.01, -5258.93, -4700.10, 0.000, 0.000, 0.000, 12:46:52.355
180, -4663.89, -5407.45, -5251.83, -4740.22, 0.000, 0.000, 0.000, 12:46:52.355
181, -4647.20, -5419.78, -5259.63, -4755.53, 0.000, 0.000, 0.000, 12:46:52.369
182, -4655.65, -5384.50, -5265.96, -4714.89, 0.000, 0.000, 0.000, 12:46:52.370
183, -4674.53, -5409.33, -5269.89, -4699.05, 0.000, 0.000, 0.000, 12:46:52.384
184, -4670.85, -5417.71, -5232.98, -4747.57, 0.000, 0.000, 0.000, 12:46:52.385
185, -4654.59, -5420.38, -5244.06, -4781.53, 0.000, 0.000, 0.000, 12:46:52.385
186, -4671.44, -5380.97, -5237.17, -4737.02, 0.000, 0.000, 0.000, 12:46:52.385
187, -4681.29, -5378.33, -5257.34, -4710.79, 0.000, 0.000, 0.000, 12:46:52.399
188, -4662.12, -5410.60, -5224.22, -4746.71, 0.000, 0.000, 0.000, 12:46:52.399
189, -4648.31, -5406.58, -5185.60, -4781.98, 0.000, 0.000, 0.000, 12:46:52.414
190, -4664.74, -5378.90, -5237.52, -4739.18, 0.000, 0.000, 0.000, 12:46:52.415
191, -4668.60, -5382.18, -5247.27, -4712.61, 0.000, 0.000, 0.000, 12:46:52.415
192, -4655.81, -5399.99, -5225.74, -4729.20, 0.000, 0.000, 0.000, 12:46:52.415
193, -4650.63, -5401.38, -5209.13, -4766.57, 0.000, 0.000, 0.000, 12:46:52.430
194, -4653.91, -5366.46, -5197.15, -4724.29, 0.000, 0.000, 0.000, 12:46:52.430
195, -4666.23, -5385.12, -5232.08, -4710.66, 0.000, 0.000, 0.000, 12:46:52.444
196, -4662.70, -5386.91, -5250.38, -4756.98, 0.000, 0.000, 0.000, 12:46:52.444
197, -4648.90, -5397.49, -5219.73, -4769.81, 0.000, 0.000, 0.000, 12:46:52.446
198, -4665.96, -5383.60, -5218.64, -4745.78, 0.000, 0.000, 0.000, 12:46:52.446
199, -4669.48, -5386.32, -5243.18, -4720.73, 0.000, 0.000, 0.000, 12:46:52.459
200, -4657.13, -5393.45, -5238.68, -4757.31, 0.000, 0.000, 0.000, 12:46:52.460
0, -4664.87, -5408.35, -5202.55, -4767.82, 0.000, 0.000, 0.000, 12:46:52.460
1, -4665.84, -5373.59, -5221.51, -4740.86, 0.000, 0.000, 0.000, 12:46:52.475
2, -4677.56, -5371.74, -5232.30, -4710.50, 0.000, 0.000, 0.000, 12:46:52.475
3, -4663.59, -5369.32, -5239.64, -4746.19, 0.000, 0.000, 0.000, 12:46:52.490
4, -4653.65, -5398.25, -5204.43, -4774.03, 0.000, 0.000, 0.000, 12:46:52.490
5, -4646.40, -5343.31, -5209.97, -4721.64, 0.000, 0.000, 0.000, 12:46:52.505
6, -4666.16, -5373.03, -5207.01, -4725.54, 0.000, 0.000, 0.000, 12:46:52.505
7, -4659.40, -5390.31, -5241.82, -4759.11, 0.000, 0.000, 0.000, 12:46:52.512
8, -4655.51, -5393.92, -5190.24, -4775.80, 0.000, 0.000, 0.000, 12:46:52.512
9, -4673.37, -5367.69, -5230.94, -4739.20, 0.000, 0.000, 0.000, 12:46:52.519
10, -4668.04, -5372.82, -5234.63, -4709.21, 0.000, 0.000, 0.000, 12:46:52.519
11, -4669.78, -5401.04, -5260.43, -4763.27, 0.000, 0.000, 0.000, 12:46:52.520
12, -4663.92, -5414.53, -5222.90, -4789.93, 0.000, 0.000, 0.000, 12:46:52.520
13, -4678.34, -5369.60, -5229.74, -4738.02, 0.000, 0.000, 0.000, 12:46:52.535
14, -4686.81, -5382.41, -5240.75, -4717.32, 0.000, 0.000, 0.000, 12:46:52.535
15, -4668.64, -5399.78, -5242.90, -4744.09, 0.000, 0.000, 0.000, 12:46:52.549
16, -4653.33, -5381.04, -5192.97, -4780.39, 0.000, 0.000, 0.000, 12:46:52.549
17, -4665.13, -5341.24, -5227.75, -4749.90, 0.000, 0.000, 0.000, 12:46:52.550
18, -4675.27, -5358.62, -5238.91, -4725.68, 0.000, 0.000, 0.000, 12:46:52.550
19, -4665.55, -5393.59, -5243.45, -4745.76, 0.000, 0.000, 0.000, 12:46:52.564
20, -4652.52, -5398.63, -5223.90, -4780.01, 0.000, 0.000, 0.000, 12:46:52.564
21, -4657.15, -5365.22, -5251.17, -4721.71, 0.000, 0.000, 0.000, 12:46:52.580
22, -4680.21, -5381.04, -5211.55, -4714.71, 0.000, 0.000, 0.000, 12:46:52.580
23, -4672.84, -5396.80, -5227.08, -4749.33, 0.000, 0.000, 0.000, 12:46:52.580
24, -4666.65, -5408.04, -5234.98, -4784.22, 0.000, 0.000, 0.000, 12:46:52.580
25, -4672.46, -5365.74, -5229.49, -4737.12, 0.000, 0.000, 0.000, 12:46:52.594
26, -4672.23, -5379.13, -5241.59, -4732.48, 0.000, 0.000, 0.000, 12:46:52.595
27, -4658.34, -5381.22, -5216.30, -4757.88, 0.000, 0.000, 0.000, 12:46:52.609
28, -4650.00, -5381.09, -5219.58, -4773.63, 0.000, 0.000, 0.000, 12:46:52.609
29, -4669.29, -5372.59, -5280.84, -4739.12, 0.000, 0.000, 0.000, 12:46:52.610
30, -4681.10, -5395.81, -5249.65, -4723.47, 0.000, 0.000, 0.000, 12:46:52.610
31, -4673.35, -5403.68, -5205.23, -4748.36, 0.000, 0.000, 0.000, 12:46:52.624
32, -4657.32, -5410.39, -5192.09, -4778.38, 0.000, 0.000, 0.000, 12:46:52.625
33, -4667.72, -5358.03, -5231.56, -4732.27, 0.000, 0.000, 0.000, 12:46:52.639
34, -4671.01, -5361.16, -5253.19, -4724.40, 0.000, 0.000, 0.000, 12:46:52.639
35, -4663.73, -5385.99, -5221.45, -4754.55, 0.000, 0.000, 0.000, 12:46:52.640
36, -4656.52, -5408.96, -5212.98, -4777.76, 0.000, 0.000, 0.000, 12:46:52.641
37, -4670.05, -5365.04, -5230.88, -4738.05, 0.000, 0.000, 0.000, 12:46:52.655
38, -4665.52, -5361.89, -5224.98, -4714.46, 0.000, 0.000, 0.000, 12:46:52.655
39, -4664.27, -5399.28, -5243.02, -4767.51, 0.000, 0.000, 0.000, 12:46:52.669
40, -4648.84, -5403.73, -5227.98, -4781.39, 0.000, 0.000, 0.000, 12:46:52.669
41, -4662.18, -5383.61, -5230.33, -4734.22, 0.000, 0.000, 0.000, 12:46:52.670
42, -4677.37, -5403.27, -5234.90, -4732.11, 0.000, 0.000, 0.000, 12:46:52.670
43, -4656.32, -5381.61, -5223.51, -4753.53, 0.000, 0.000, 0.000, 12:46:52.685
44, -4646.72, -5389.10, -5203.10, -4794.33, 0.000, 0.000, 0.000, 12:46:52.685
45, -4651.46, -5360.28, -5204.85, -4727.05, 0.000, 0.000, 0.000, 12:46:52.699
46, -4652.50, -5362.31, -5220.60, -4714.04, 0.000, 0.000, 0.000, 12:46:52.699
47, -4650.14, -5392.95, -5238.54, -4748.92, 0.000, 0.000, 0.000, 12:46:52.700
48, -4649.59, -5428.86, -5253.73, -4790.44, 0.000, 0.000, 0.000, 12:46:52.700
49, -4660.54, -5373.49, -5214.09, -4744.48, 0.000, 0.000, 0.000, 12:46:52.715
50, -4679.50, -5368.76, -5211.12, -4736.49, 0.000, 0.000, 0.000, 12:46:52.715
51, -4659.60, -5394.26, -5221.99, -4768.37, 0.000, 0.000, 0.000, 12:46:52.730
52, -4652.14, -5411.06, -5229.87, -4786.44, 0.000, 0.000, 0.000, 12:46:52.730
53, -4659.56, -5370.02, -5221.39, -4734.59, 0.000, 0.000, 0.000, 12:46:52.730
54, -4674.00, -5381.87, -5238.01, -4732.02, 0.000, 0.000, 0.000, 12:46:52.730
55, -4649.31, -5397.48, -5231.27, -4767.77, 0.000, 0.000, 0.000, 12:46:52.745
56, -4652.81, -5412.68, -5215.65, -4780.83, 0.000, 0.000, 0.000, 12:46:52.745
57, -4668.95, -5364.25, -5209.12, -4731.44, 0.000, 0.000, 0.000, 12:46:52.760
58, -4674.31, -5375.56, -5223.44, -4721.85, 0.000, 0.000, 0.000, 12:46:52.760
59, -4658.05, -5392.74, -5239.11, -4768.09, 0.000, 0.000, 0.000, 12:46:52.760
60, -4646.51, -5402.90, -5193.71, -4787.45, 0.000, 0.000, 0.000, 12:46:52.760
61, -4669.92, -5369.35, -5208.66, -4757.90, 0.000, 0.000, 0.000, 12:46:52.775
62, -4672.98, -5380.98, -5220.29, -4729.20, 0.000, 0.000, 0.000, 12:46:52.775
63, -4654.72, -5387.06, -5206.53, -4747.87, 0.000, 0.000, 0.000, 12:46:52.789
64, -4658.09, -5406.48, -5213.06, -4782.25, 0.000, 0.000, 0.000, 12:46:52.789
65, -4668.66, -5369.73, -5246.00, -4738.01, 0.000, 0.000, 0.000, 12:46:52.791
66, -4679.83, -5376.16, -5238.22, -4729.68, 0.000, 0.000, 0.000, 12:46:52.791
67, -4669.18, -5389.31, -5202.73, -4763.09, 0.000, 0.000, 0.000, 12:46:52.804
68, -4650.53, -5412.91, -5228.31, -4795.97, 0.000, 0.000, 0.000, 12:46:52.804
69, -4662.19, -5397.25, -5220.19, -4750.32, 0.000, 0.000, 0.000, 12:46:52.819
70, -4674.12, -5361.24, -5233.44, -4732.44, 0.000, 0.000, 0.000, 12:46:52.819
71, -4663.37, -5391.19, -5219.81, -4752.24, 0.000, 0.000, 0.000, 12:46:52.820
72, -4656.28, -5404.38, -5205.32, -4784.01, 0.000, 0.000, 0.000, 12:46:52.820
73, -4666.18, -5361.56, -5235.94, -4739.45, 0.000, 0.000, 0.000, 12:46:52.834
74, -4674.85, -5367.32, -5219.02, -4731.33, 0.000, 0.000, 0.000, 12:46:52.834
75, -4665.28, -5392.67, -5208.82, -4768.74, 0.000, 0.000, 0.000, 12:46:52.849
76, -4651.85, -5401.88, -5210.93, -4798.77, 0.000, 0.000, 0.000, 12:46:52.849
77, -4659.52, -5367.56, -5223.52, -4735.58, 0.000, 0.000, 0.000, 12:46:52.850
78, -4660.05, -5365.33, -5216.83, -4724.18, 0.000, 0.000, 0.000, 12:46:52.850
79, -4651.97, -5398.02, -5209.23, -4757.89, 0.000, 0.000, 0.000, 12:46:52.865
80, -4643.17, -5395.69, -5204.97, -4789.21, 0.000, 0.000, 0.000, 12:46:52.865
81, -4650.37, -5368.71, -5214.42, -4745.26, 0.000, 0.000, 0.000, 12:46:52.879
82, -4658.00, -5365.03, -5224.51, -4724.92, 0.000, 0.000, 0.000, 12:46:52.879
83, -4641.32, -5376.67, -5208.31, -4754.73, 0.000, 0.000, 0.000, 12:46:52.879
84, -4627.33, -5408.57, -5184.52, -4775.01, 0.000, 0.000, 0.000, 12:46:52.879
85, -4634.97, -5372.27, -5215.09, -4729.15, 0.000, 0.000, 0.000, 12:46:52.894
86, -4641.90, -5381.67, -5241.67, -4731.02, 0.000, 0.000, 0.000, 12:46:52.894
87, -4613.42, -5400.90, -5236.76, -4762.62, 0.000, 0.000, 0.000, 12:46:52.910
88, -4590.98, -5404.18, -5185.54, -4767.90, 0.000, 0.000, 0.000, 12:46:52.910
89, -4594.73, -5376.92, -5211.08, -4720.56, 0.000, 0.000, 0.000, 12:46:52.910
90, -4589.66, -5393.30, -5217.37, -4716.35, 0.000, 0.000, 0.000, 12:46:52.910
91, -4556.35, -5431.22, -5202.03, -4746.84, 0.000, 0.000, 0.000, 12:46:52.924
92, -4543.42, -5425.42, -5204.61, -4770.48, 0.000, 0.000, 0.000, 12:46:52.925
93, -4555.42, -5390.74, -5234.89, -4725.37, 0.000, 0.000, 0.000, 12:46:52.939
94, -4547.21, -5405.03, -5218.45, -4708.40, 0.000, 0.000, 0.000, 12:46:52.939
95, -4532.36, -5431.84, -5209.56, -4741.42, 0.000, 0.000, 0.000, 12:46:52.939
96, -4513.69, -5437.33, -5201.53, -4768.38, 0.000, 0.000, 0.000, 12:46:52.940
97, -4534.61, -5405.08, -5219.63, -4727.77, 0.000, 0.000, 0.000, 12:46:52.954
98, -4552.39, -5424.82, -5227.13, -4712.22, 0.000, 0.000, 0.000, 12:46:52.954
99, -4537.57, -5414.84, -5197.48, -4731.77, 0.000, 0.000, 0.000, 12:46:52.969
100, -4555.19, -5426.40, -5197.77, -4770.37, 0.000, 0.000, 0.000, 12:46:52.969
101, -4601.56, -5399.30, -5230.58, -4740.34, 0.000, 0.000, 0.000, 12:46:52.969
102, -4606.91, -5386.52, -5212.36, -4728.28, 0.000, 0.000, 0.000, 12:46:52.970
103, -4613.86, -5403.78, -5207.16, -4754.84, 0.000, 0.000, 0.000, 12:46:52.984
104, -4626.19, -5404.97, -5201.14, -4787.23, 0.000, 0.000, 0.000, 12:46:52.984
105, -4662.36, -5368.62, -5215.78, -4741.77, 0.000, 0.000, 0.000, 12:46:52.999
106, -4673.73, -5373.76, -5211.31, -4738.97, 0.000, 0.000, 0.000, 12:46:52.999
107, -4679.99, -5390.13, -5214.30, -4771.50, 0.000, 0.000, 0.000, 12:46:52.999
108, -4673.76, -5393.65, -5192.37, -4802.18, 0.000, 0.000, 0.000, 12:46:52.999
109, -4701.18, -5360.90, -5212.47, -4757.32, 0.000, 0.000, 0.000, 12:46:53.015
110, -4705.90, -5359.52, -5210.97, -4755.68, 0.000, 0.000, 0.000, 12:46:53.015
111, -4709.84, -5398.45, -5210.27, -4775.50, 0.000, 0.000, 0.000, 12:46:53.030
112, -4699.14, -5396.36, -5210.65, -4784.52, 0.000, 0.000, 0.000, 12:46:53.030
113, -4715.78, -5349.17, -5214.02, -4746.52, 0.000, 0.000, 0.000, 12:46:53.030
114, -4735.66, -5381.81, -5224.74, -4762.63, 0.000, 0.000, 0.000, 12:46:53.030
115, -4715.18, -5377.64, -5201.19, -4778.01, 0.000, 0.000, 0.000, 12:46:53.044
116, -4699.41, -5380.46, -5189.59, -4781.23, 0.000, 0.000, 0.000, 12:46:53.046
117, -4723.26, -5354.64, -5215.65, -4747.44, 0.000, 0.000, 0.000, 12:46:53.060
118, -4724.90, -5386.27, -5223.61, -4736.25, 0.000, 0.000, 0.000, 12:46:53.060
119, -4704.44, -5379.09, -5202.69, -4770.25, 0.000, 0.000, 0.000, 12:46:53.061
120, -4701.01, -5399.84, -5199.30, -4790.31, 0.000, 0.000, 0.000, 12:46:53.061
121, -4719.97, -5358.60, -5215.97, -4740.19, 0.000, 0.000, 0.000, 12:46:53.074
122, -4716.16, -5373.28, -5213.10, -4746.57, 0.000, 0.000, 0.000, 12:46:53.074
123, -4712.36, -5412.22, -5236.20, -4768.99, 0.000, 0.000, 0.000, 12:46:53.090
124, -4696.92, -5380.10, -5218.44, -4783.21, 0.000, 0.000, 0.000, 12:46:53.090
125, -4721.66, -5356.64, -5215.65, -4735.45, 0.000, 0.000, 0.000, 12:46:53.090
126, -4715.18, -5362.57, -5201.52, -4742.83, 0.000, 0.000, 0.000, 12:46:53.091
127, -4706.29, -5381.06, -5190.22, -4764.30, 0.000, 0.000, 0.000, 12:46:53.104
128, -4696.32, -5402.13, -5215.63, -4804.37, 0.000, 0.000, 0.000, 12:46:53.104
129, -4705.43, -5370.83, -5232.71, -4744.04, 0.000, 0.000, 0.000, 12:46:53.120
130, -4716.25, -5373.92, -5230.32, -4741.51, 0.000, 0.000, 0.000, 12:46:53.120
131, -4694.29, -5382.32, -5237.04, -4762.90, 0.000, 0.000, 0.000, 12:46:53.120
132, -4678.00, -5401.16, -5211.71, -4776.47, 0.000, 0.000, 0.000, 12:46:53.120
133, -4698.31, -5362.34, -5205.45, -4743.79, 0.000, 0.000, 0.000, 12:46:53.135
134, -4689.00, -5364.04, -5206.00, -4738.59, 0.000, 0.000, 0.000, 12:46:53.135
135, -4670.01, -5374.14, -5192.93, -4768.97, 0.000, 0.000, 0.000, 12:46:53.149
136, -4671.08, -5389.07, -5192.93, -4777.28, 0.000, 0.000, 0.000, 12:46:53.149
137, -4680.34, -5358.20, -5228.02, -4730.88, 0.000, 0.000, 0.000, 12:46:53.149
138, -4689.08, -5385.38, -5261.59, -4734.01, 0.000, 0.000, 0.000, 12:46:53.149
139, -4674.57, -5422.54, -5202.32, -4762.28, 0.000, 0.000, 0.000, 12:46:53.165
140, -4677.31, -5385.18, -5190.57, -4780.06, 0.000, 0.000, 0.000, 12:46:53.165
141, -4687.83, -5353.81, -5203.25, -4743.62, 0.000, 0.000, 0.000, 12:46:53.180
142, -4693.57, -5372.73, -5244.40, -4737.66, 0.000, 0.000, 0.000, 12:46:53.180
143, -4670.51, -5398.80, -5233.08, -4763.55, 0.000, 0.000, 0.000, 12:46:53.180
144, -4651.72, -5399.93, -5213.88, -4775.73, 0.000, 0.000, 0.000, 12:46:53.180
145, -4676.67, -5359.42, -5205.14, -4727.47, 0.000, 0.000, 0.000, 12:46:53.194
146, -4675.47, -5367.83, -5193.63, -4712.27, 0.000, 0.000, 0.000, 12:46:53.194
147, -4653.29, -5381.26, -5207.70, -4755.61, 0.000, 0.000, 0.000, 12:46:53.210
148, -4651.64, -5399.97, -5213.05, -4774.61, 0.000, 0.000, 0.000, 12:46:53.210
149, -4672.60, -5356.92, -5214.75, -4730.40, 0.000, 0.000, 0.000, 12:46:53.210
150, -4667.40, -5367.25, -5212.09, -4725.65, 0.000, 0.000, 0.000, 12:46:53.210
151, -4658.23, -5390.67, -5201.67, -4756.46, 0.000, 0.000, 0.000, 12:46:53.224
152, -4653.16, -5391.03, -5204.22, -4792.71, 0.000, 0.000, 0.000, 12:46:53.225
153, -4675.91, -5366.60, -5214.99, -4736.31, 0.000, 0.000, 0.000, 12:46:53.239
154, -4673.42, -5397.70, -5265.31, -4731.80, 0.000, 0.000, 0.000, 12:46:53.240
155, -4655.76, -5398.98, -5220.60, -4755.36, 0.000, 0.000, 0.000, 12:46:53.240
156, -4647.65, -5394.61, -5186.61, -4769.50, 0.000, 0.000, 0.000, 12:46:53.240
157, -4670.02, -5357.43, -5212.38, -4719.63, 0.000, 0.000, 0.000, 12:46:53.254
158, -4666.67, -5384.99, -5217.84, -4732.55, 0.000, 0.000, 0.000, 12:46:53.254
159, -4656.18, -5401.83, -5229.47, -4771.58, 0.000, 0.000, 0.000, 12:46:53.270
160, -4656.88, -5419.91, -5225.61, -4789.19, 0.000, 0.000, 0.000, 12:46:53.270
161, -4669.65, -5347.38, -5216.70, -4721.00, 0.000, 0.000, 0.000, 12:46:53.270
162, -4682.69, -5376.62, -5222.11, -4727.74, 0.000, 0.000, 0.000, 12:46:53.270
163, -4678.72, -5406.07, -5231.43, -4773.91, 0.000, 0.000, 0.000, 12:46:53.291
164, -4664.27, -5409.28, -5218.09, -4785.56, 0.000, 0.000, 0.000, 12:46:53.291
165, -4667.63, -5350.43, -5202.61, -4724.83, 0.000, 0.000, 0.000, 12:46:53.299
166, -4675.74, -5355.12, -5206.75, -4740.31, 0.000, 0.000, 0.000, 12:46:53.299
167, -4636.73, -5356.81, -5170.08, -4771.80, 0.000, 0.000, 0.000, 12:46:53.300
168, -4636.31, -5363.93, -5164.10, -4799.86, 0.000, 0.000, 0.000, 12:46:53.300
169, -4675.19, -5339.25, -5192.58, -4752.58, 0.000, 0.000, 0.000, 12:46:53.314
170, -4659.81, -5342.52, -5190.41, -4760.67, 0.000, 0.000, 0.000, 12:46:53.314
171, -4637.30, -5338.66, -5143.17, -4782.92, 0.000, 0.000, 0.000, 12:46:53.329
172, -4635.30, -5333.90, -5140.19, -4807.52, 0.000, 0.000, 0.000, 12:46:53.330
173, -4653.98, -5308.22, -5170.58, -4760.28, 0.000, 0.000, 0.000, 12:46:53.330
174, -4655.06, -5326.97, -5158.38, -4755.29, 0.000, 0.000, 0.000, 12:46:53.330
175, -4645.04, -5345.15, -5139.30, -4790.19, 0.000, 0.000, 0.000, 12:46:53.344
176, -4645.49, -5371.12, -5161.11, -4806.44, 0.000, 0.000, 0.000, 12:46:53.344
177, -4673.00, -5333.47, -5190.96, -4752.97, 0.000, 0.000, 0.000, 12:46:53.360
178, -4670.71, -5348.62, -5196.71, -4750.53, 0.000, 0.000, 0.000, 12:46:53.360
179, -4656.72, -5394.94, -5196.14, -4787.30, 0.000, 0.000, 0.000, 12:46:53.360
180, -4660.95, -5401.52, -5210.55, -4802.42, 0.000, 0.000, 0.000, 12:46:53.360
181, -4662.24, -5335.09, -5219.35, -4725.71, 0.000, 0.000, 0.000, 12:46:53.374
182, -4675.76, -5369.05, -5198.88, -4744.54, 0.000, 0.000, 0.000, 12:46:53.375
183, -4650.26, -5383.67, -5170.74, -4766.81, 0.000, 0.000, 0.000, 12:46:53.390
184, -4645.50, -5372.77, -5181.14, -4797.50, 0.000, 0.000, 0.000, 12:46:53.390
185, -4670.76, -5352.13, -5203.53, -4744.37, 0.000, 0.000, 0.000, 12:46:53.390
186, -4673.28, -5368.52, -5205.53, -4742.90, 0.000, 0.000, 0.000, 12:46:53.391
187, -4641.93, -5386.74, -5195.94, -4766.76, 0.000, 0.000, 0.000, 12:46:53.404
188, -4646.95, -5405.99, -5189.46, -4787.58, 0.000, 0.000, 0.000, 12:46:53.404
189, -4671.54, -5365.95, -5223.22, -4723.90, 0.000, 0.000, 0.000, 12:46:53.419
190, -4650.14, -5358.00, -5214.66, -4733.06, 0.000, 0.000, 0.000, 12:46:53.419
191, -4652.31, -5400.34, -5199.75, -4772.03, 0.000, 0.000, 0.000, 12:46:53.419
192, -4641.11, -5387.47, -5209.36, -4787.75, 0.000, 0.000, 0.000, 12:46:53.419
193, -4656.65, -5364.10, -5249.10, -4742.54, 0.000, 0.000, 0.000, 12:46:53.435
194, -4671.15, -5406.17, -5212.69, -4733.82, 0.000, 0.000, 0.000, 12:46:53.435
195, -4647.90, -5405.71, -5180.91, -4772.58, 0.000, 0.000, 0.000, 12:46:53.449
196, -4649.96, -5391.05, -5189.22, -4795.03, 0.000, 0.000, 0.000, 12:46:53.449
197, -4676.13, -5352.02, -5219.28, -4733.59, 0.000, 0.000, 0.000, 12:46:53.450
198, -4669.38, -5379.30, -5221.60, -4736.29, 0.000, 0.000, 0.000, 12:46:53.450
199, -4647.06, -5381.69, -5213.96, -4755.21, 0.000, 0.000, 0.000, 12:46:53.465
200, -4649.95, -5399.09, -5231.38, -4779.59, 0.000, 0.000, 0.000, 12:46:53.465
0, -4676.50, -5407.56, -5228.31, -4720.47, 0.000, 0.000, 0.000, 12:46:53.465
1, -4672.68, -5392.29, -5220.82, -4735.48, 0.000, 0.000, 0.000, 12:46:53.480
2, -4645.34, -5379.76, -5192.20, -4779.97, 0.000, 0.000, 0.000, 12:46:53.480
3, -4657.21, -5407.91, -5198.02, -4801.30, 0.000, 0.000, 0.000, 12:46:53.494
4, -4690.33, -5402.20, -5235.67, -4738.52, 0.000, 0.000, 0.000, 12:46:53.494
5, -4653.22, -5377.91, -5222.49, -4703.51, 0.000, 0.000, 0.000, 12:46:53.495
6, -4629.66, -5379.78, -5226.83, -4740.37, 0.000, 0.000, 0.000, 12:46:53.495
7, -4633.77, -5408.53, -5270.39, -4756.43, 0.000, 0.000, 0.000, 12:46:53.510
8, -4660.21, -5400.72, -5271.15, -4704.85, 0.000, 0.000, 0.000, 12:46:53.510
9, -4649.82, -5415.96, -5267.22, -4686.88, 0.000, 0.000, 0.000, 12:46:53.525
10, -4634.53, -5425.81, -5248.60, -4725.30, 0.000, 0.000, 0.000, 12:46:53.525
11, -4636.43, -5419.89, -5259.87, -4745.03, 0.000, 0.000, 0.000, 12:46:53.526
12, -4664.05, -5415.93, -5289.48, -4692.02, 0.000, 0.000, 0.000, 12:46:53.526
13, -4643.92, -5418.75, -5287.08, -4696.82, 0.000, 0.000, 0.000, 12:46:53.540
14, -4639.19, -5423.23, -5243.73, -4736.65, 0.000, 0.000, 0.000, 12:46:53.540
15, -4636.57, -5409.02, -5225.32, -4752.97, 0.000, 0.000, 0.000, 12:46:53.555
16, -4673.01, -5394.27, -5275.47, -4706.77, 0.000, 0.000, 0.000, 12:46:53.555
17, -4672.92, -5412.68, -5267.64, -4720.87, 0.000, 0.000, 0.000, 12:46:53.555
18, -4644.55, -5418.52, -5240.42, -4744.51, 0.000, 0.000, 0.000, 12:46:53.555
19, -4638.95, -5405.54, -5230.33, -4774.62, 0.000, 0.000, 0.000, 12:46:53.570
20, -4666.60, -5381.22, -5250.00, -4716.64, 0.000, 0.000, 0.000, 12:46:53.570
21, -4676.24, -5403.38, -5248.24, -4710.44, 0.000, 0.000, 0.000, 12:46:53.584
22, -4649.14, -5403.93, -5240.46, -4763.80, 0.000, 0.000, 0.000, 12:46:53.584
23, -4634.52, -5397.08, -5217.62, -4757.46, 0.000, 0.000, 0.000, 12:46:53.585
24, -4668.56, -5378.63, -5239.97, -4706.22, 0.000, 0.000, 0.000, 12:46:53.585
25, -4659.92, -5378.90, -5239.63, -4730.84, 0.000, 0.000, 0.000, 12:46:53.600
26, -4640.30, -5384.03, -5223.88, -4757.90, 0.000, 0.000, 0.000, 12:46:53.600
27, -4639.56, -5410.37, -5206.90, -4772.92, 0.000, 0.000, 0.000, 12:46:53.614
28, -4687.16, -5385.93, -5232.45, -4703.18, 0.000, 0.000, 0.000, 12:46:53.614
29, -4674.93, -5392.51, -5250.93, -4712.77, 0.000, 0.000, 0.000, 12:46:53.614
30, -4656.12, -5420.42, -5242.22, -4767.84, 0.000, 0.000, 0.000, 12:46:53.614
31, -4650.88, -5380.47, -5204.90, -4765.53, 0.000, 0.000, 0.000, 12:46:53.629
32, -4677.40, -5371.20, -5242.27, -4716.79, 0.000, 0.000, 0.000, 12:46:53.629
33, -4677.37, -5384.40, -5247.23, -4725.05, 0.000, 0.000, 0.000, 12:46:53.645
34, -4652.55, -5391.57, -5220.24, -4760.01, 0.000, 0.000, 0.000, 12:46:53.645
35, -4638.06, -5416.68, -5229.38, -4774.91, 0.000, 0.000, 0.000, 12:46:53.646
36, -4696.97, -5413.06, -5247.98, -4725.04, 0.000, 0.000, 0.000, 12:46:53.646
37, -4672.42, -5374.51, -5217.63, -4727.26, 0.000, 0.000, 0.000, 12:46:53.659
38, -4643.98, -5370.64, -5204.58, -4760.25, 0.000, 0.000, 0.000, 12:46:53.659
39, -4637.84, -5363.69, -5181.90, -4770.66, 0.000, 0.000, 0.000, 12:46:53.674
40, -4672.51, -5365.81, -5240.35, -4727.59, 0.000, 0.000, 0.000, 12:46:53.675
41, -4684.51, -5397.39, -5260.20, -4750.79, 0.000, 0.000, 0.000, 12:46:53.675
42, -4644.56, -5397.35, -5232.84, -4760.78, 0.000, 0.000, 0.000, 12:46:53.675
43, -4631.68, -5377.39, -5182.47, -4760.52, 0.000, 0.000, 0.000, 12:46:53.696
44, -4689.41, -5394.06, -5227.94, -4719.15, 0.000, 0.000, 0.000, 12:46:53.696
45, -4667.08, -5401.93, -5218.32, -4738.39, 0.000, 0.000, 0.000, 12:46:53.704
46, -4647.57, -5397.97, -5211.30, -4769.94, 0.000, 0.000, 0.000, 12:46:53.704
47, -4619.94, -5376.93, -5207.11, -4767.12, 0.000, 0.000, 0.000, 12:46:53.705
48, -4665.99, -5380.49, -5259.90, -4718.35, 0.000, 0.000, 0.000, 12:46:53.705
49, -4664.86, -5392.62, -5219.10, -4727.78, 0.000, 0.000, 0.000, 12:46:53.719
50, -4642.73, -5382.32, -5200.46, -4762.13, 0.000, 0.000, 0.000, 12:46:53.719
51, -4613.54, -5346.15, -5185.44, -4745.99, 0.000, 0.000, 0.000, 12:46:53.735
52, -4664.49, -5381.89, -5242.18, -4720.37, 0.000, 0.000, 0.000, 12:46:53.735
53, -4658.20, -5381.32, -5236.40, -4737.67, 0.000, 0.000, 0.000, 12:46:53.735
54, -4632.01, -5371.79, -5194.27, -4749.13, 0.000, 0.000, 0.000, 12:46:53.735
55, -4622.28, -5377.54, -5187.14, -4765.56, 0.000, 0.000, 0.000, 12:46:53.749
56, -4674.48, -5371.78, -5247.90, -4729.12, 0.000, 0.000, 0.000, 12:46:53.750
57, -4670.70, -5396.21, -5258.41, -4732.19, 0.000, 0.000, 0.000, 12:46:53.764
58, -4640.85, -5380.68, -5188.91, -4770.26, 0.000, 0.000, 0.000, 12:46:53.764
59, -4617.45, -5365.50, -5173.33, -4762.22, 0.000, 0.000, 0.000, 12:46:53.780
60, -4679.91, -5373.04, -5238.32, -4727.37, 0.000, 0.000, 0.000, 12:46:53.780
61, -4670.69, -5392.38, -5242.88, -4740.06, 0.000, 0.000, 0.000, 12:46:53.780
62, -4633.20, -5377.45, -5206.56, -4775.12, 0.000, 0.000, 0.000, 12:46:53.780
63, -4634.49, -5385.23, -5201.66, -4762.86, 0.000, 0.000, 0.000, 12:46:53.794
64, -4682.91, -5392.12, -5249.58, -4717.52, 0.000, 0.000, 0.000, 12:46:53.794
65, -4684.17, -5402.44, -5236.90, -4745.36, 0.000, 0.000, 0.000, 12:46:53.796
66, -4642.00, -5382.22, -5195.47, -4766.35, 0.000, 0.000, 0.000, 12:46:53.796
67, -4644.19, -5387.17, -5193.78, -4773.55, 0.000, 0.000, 0.000, 12:46:53.809
68, -4681.88, -5389.22, -5263.83, -4723.65, 0.000, 0.000, 0.000, 12:46:53.809
69, -4679.48, -5396.88, -5241.46, -4739.01, 0.000, 0.000, 0.000, 12:46:53.824
70, -4642.85, -5397.13, -5212.32, -4755.58, 0.000, 0.000, 0.000, 12:46:53.825
71, -4626.53, -5376.39, -5189.27, -4763.10, 0.000, 0.000, 0.000, 12:46:53.825
72, -4680.98, -5372.85, -5255.96, -4721.18, 0.000, 0.000, 0.000, 12:46:53.825
73, -4670.01, -5396.35, -5233.94, -4730.21, 0.000, 0.000, 0.000, 12:46:53.840
74, -4641.79, -5395.83, -5192.22, -4763.68, 0.000, 0.000, 0.000, 12:46:53.840
75, -4628.47, -5385.88, -5188.56, -4771.33, 0.000, 0.000, 0.000, 12:46:53.855
76, -4677.75, -5380.78, -5240.65, -4711.29, 0.000, 0.000, 0.000, 12:46:53.855
77, -4668.18, -5399.96, -5240.21, -4729.35, 0.000, 0.000, 0.000, 12:46:53.855
78, -4635.36, -5397.97, -5203.13, -4773.01, 0.000, 0.000, 0.000, 12:46:53.855
79, -4624.25, -5370.93, -5187.42, -4762.72, 0.000, 0.000, 0.000, 12:46:53.870
80, -4680.83, -5365.92, -5260.56, -4724.30, 0.000, 0.000, 0.000, 12:46:53.870
81, -4665.55, -5390.04, -5237.97, -4734.76, 0.000, 0.000, 0.000, 12:46:53.884
82, -4627.83, -5380.31, -5187.50, -4765.89, 0.000, 0.000, 0.000, 12:46:53.884
83, -4626.52, -5375.89, -5193.71, -4766.33, 0.000, 0.000, 0.000, 12:46:53.884
84, -4677.21, -5375.68, -5248.93, -4709.05, 0.000, 0.000, 0.000, 12:46:53.884
85, -4662.97, -5386.30, -5240.53, -4730.09, 0.000, 0.000, 0.000, 12:46:53.900
86, -4635.86, -5396.63, -5198.54, -4775.03, 0.000, 0.000, 0.000, 12:46:53.900
87, -4621.09, -5376.42, -5184.48, -4782.94, 0.000, 0.000, 0.000, 12:46:53.914
88, -4683.36, -5374.68, -5252.07, -4734.53, 0.000, 0.000, 0.000, 12:46:53.914
89, -4668.92, -5399.17, -5217.92, -4723.53, 0.000, 0.000, 0.000, 12:46:53.915
90, -4632.01, -5366.69, -5181.91, -4781.86, 0.000, 0.000, 0.000, 12:46:53.915
91, -4636.75, -5383.31, -5202.82, -4778.43, 0.000, 0.000, 0.000, 12:46:53.930
92, -4675.41, -5369.09, -5265.08, -4710.53, 0.000, 0.000, 0.000, 12:46:53.931
93, -4675.83, -5403.47, -5219.64, -4732.14, 0.000, 0.000, 0.000, 12:46:53.945
94, -4630.09, -5372.68, -5174.21, -4765.91, 0.000, 0.000, 0.000, 12:46:53.945
95, -4629.90, -5361.60, -5180.55, -4760.93, 0.000, 0.000, 0.000, 12:46:53.945
96, -4694.15, -5400.89, -5254.56, -4707.78, 0.000, 0.000, 0.000, 12:46:53.945
97, -4671.93, -5388.43, -5231.62, -4728.19, 0.000, 0.000, 0.000, 12:46:53.959
98, -4633.16, -5375.43, -5194.75, -4777.95, 0.000, 0.000, 0.000, 12:46:53.960
99, -4631.53, -5378.15, -5198.14, -4769.31, 0.000, 0.000, 0.000, 12:46:53.975
100, -4690.62, -5391.91, -5260.68, -4716.05, 0.000, 0.000, 0.000, 12:46:53.975
101, -4661.17, -5376.21, -5229.92, -4726.30, 0.000, 0.000, 0.000, 12:46:53.975
102, -4629.39, -5387.41, -5207.76, -4770.23, 0.000, 0.000, 0.000, 12:46:53.975
103, -4617.29, -5364.70, -5155.47, -4756.75, 0.000, 0.000, 0.000, 12:46:53.990
104, -4681.54, -5388.96, -5239.87, -4717.56, 0.000, 0.000, 0.000, 12:46:53.990
105, -4662.80, -5384.77, -5219.06, -4728.08, 0.000, 0.000, 0.000, 12:46:54.004
106, -4620.71, -5377.58, -5184.89, -4773.29, 0.000, 0.000, 0.000, 12:46:54.004
107, -4615.46, -5356.02, -5172.63, -4781.98, 0.000, 0.000, 0.000, 12:46:54.005
108, -4686.49, -5385.66, -5252.60, -4706.71, 0.000, 0.000, 0.000, 12:46:54.005
109, -4649.93, -5384.74, -5226.20, -4726.21, 0.000, 0.000, 0.000, 12:46:54.020
110, -4629.56, -5391.13, -5198.92, -4782.15, 0.000, 0.000, 0.000, 12:46:54.020
111, -4628.51, -5378.17, -5205.59, -4773.67, 0.000, 0.000, 0.000, 12:46:54.035
112, -4689.89, -5392.53, -5247.92, -4709.84, 0.000, 0.000, 0.000, 12:46:54.035
113, -4668.42, -5374.25, -5222.55, -4729.73, 0.000, 0.000, 0.000, 12:46:54.035
114, -4627.98, -5368.97, -5174.75, -4771.18, 0.000, 0.000, 0.000, 12:46:54.035
115, -4628.91, -5359.25, -5181.46, -4772.63, 0.000, 0.000, 0.000, 12:46:54.049
116, -4691.56, -5397.47, -5261.09, -4702.33, 0.000, 0.000, 0.000, 12:46:54.049
117, -4672.13, -5395.79, -5248.88, -4737.74, 0.000, 0.000, 0.000, 12:46:54.064
118, -4636.25, -5402.37, -5187.91, -4783.26, 0.000, 0.000, 0.000, 12:46:54.065
119, -4629.48, -5383.95, -5205.27, -4772.06, 0.000, 0.000, 0.000, 12:46:54.065
120, -4680.22, -5367.42, -5254.22, -4698.74, 0.000, 0.000, 0.000, 12:46:54.065
121, -4665.97, -5384.32, -5228.87, -4735.19, 0.000, 0.000, 0.000, 12:46:54.080
122, -4629.03, -5381.86, -5185.60, -4769.29, 0.000, 0.000, 0.000, 12:46:54.080
123, -4623.67, -5379.56, -5197.87, -4780.06, 0.000, 0.000, 0.000, 12:46:54.094
124, -4689.48, -5395.84, -5264.40, -4713.75, 0.000, 0.000, 0.000, 12:46:54.094
125, -4668.98, -5407.88, -5234.04, -4733.00, 0.000, 0.000, 0.000, 12:46:54.095
126, -4632.04, -5387.08, -5192.90, -4782.45, 0.000, 0.000, 0.000, 12:46:54.095
127, -4627.34, -5387.57, -5203.87, -4777.05, 0.000, 0.000, 0.000, 12:46:54.116
128, -4686.76, -5395.95, -5265.58, -4712.38, 0.000, 0.000, 0.000, 12:46:54.116
129, -4665.16, -5384.08, -5226.84, -4735.23, 0.000, 0.000, 0.000, 12:46:54.125
130, -4637.78, -5400.92, -5192.51, -4792.51, 0.000, 0.000, 0.000, 12:46:54.125
131, -4624.13, -5368.65, -5172.21, -4770.71, 0.000, 0.000, 0.000, 12:46:54.126
132, -4671.74, -5380.26, -5246.68, -4707.48, 0.000, 0.000, 0.000, 12:46:54.126
133, -4654.51, -5392.68, -5224.92, -4730.01, 0.000, 0.000, 0.000, 12:46:54.139
134, -4613.80, -5367.14, -5173.06, -4784.41, 0.000, 0.000, 0.000, 12:46:54.139
135, -4623.69, -5384.40, -5198.32, -4774.57, 0.000, 0.000, 0.000, 12:46:54.154
136, -4674.30, -5398.35, -5252.81, -4703.08, 0.000, 0.000, 0.000, 12:46:54.154
137, -4653.36, -5394.96, -5215.34, -4730.81, 0.000, 0.000, 0.000, 12:46:54.155
138, -4625.33, -5395.66, -5192.15, -4792.44, 0.000, 0.000, 0.000, 12:46:54.155
139, -4609.65, -5375.19, -5182.42, -4780.36, 0.000, 0.000, 0.000, 12:46:54.169
140, -4653.02, -5384.93, -5232.87, -4685.24, 0.000, 0.000, 0.000, 12:46:54.169
141, -4641.90, -5379.93, -5219.75, -4734.43, 0.000, 0.000, 0.000, 12:46:54.185
142, -4614.96, -5391.74, -5177.23, -4781.22, 0.000, 0.000, 0.000, 12:46:54.185
143, -4614.20, -5393.38, -5196.97, -4771.95, 0.000, 0.000, 0.000, 12:46:54.185
144, -4668.40, -5413.83, -5270.35, -4706.07, 0.000, 0.000, 0.000, 12:46:54.185
145, -4651.59, -5412.64, -5240.93, -4726.81, 0.000, 0.000, 0.000, 12:46:54.199
146, -4608.42, -5388.46, -5171.83, -4786.31, 0.000, 0.000, 0.000, 12:46:54.199
147, -4598.96, -5359.73, -5167.95, -4766.61, 0.000, 0.000, 0.000, 12:46:54.214
148, -4655.76, -5382.91, -5248.52, -4683.96, 0.000, 0.000, 0.000, 12:46:54.214
149, -4665.54, -5423.68, -5264.08, -4735.17, 0.000, 0.000, 0.000, 12:46:54.215
150, -4615.85, -5406.50, -5201.27, -4787.96, 0.000, 0.000, 0.000, 12:46:54.215
151, -4609.95, -5377.23, -5197.04, -4767.65, 0.000, 0.000, 0.000, 12:46:54.229
152, -4660.73, -5395.30, -5253.45, -4698.81, 0.000, 0.000, 0.000, 12:46:54.229
153, -4651.49, -5413.98, -5244.24, -4733.85, 0.000, 0.000, 0.000, 12:46:54.244
154, -4618.99, -5406.26, -5182.39, -4779.17, 0.000, 0.000, 0.000, 12:46:54.245
155, -4614.60, -5384.03, -5184.52, -4776.19, 0.000, 0.000, 0.000, 12:46:54.245
156, -4665.89, -5400.20, -5257.91, -4689.88, 0.000, 0.000, 0.000, 12:46:54.245
157, -4651.20, -5397.51, -5229.84, -4726.33, 0.000, 0.000, 0.000, 12:46:54.260
158, -4616.09, -5402.17, -5208.17, -4786.88, 0.000, 0.000, 0.000, 12:46:54.260
159, -4615.88, -5388.30, -5206.74, -4777.16, 0.000, 0.000, 0.000, 12:46:54.276
160, -4678.81, -5409.54, -5259.18, -4696.88, 0.000, 0.000, 0.000, 12:46:54.276
161, -4641.40, -5401.05, -5213.18, -4730.44, 0.000, 0.000, 0.000, 12:46:54.276
162, -4628.63, -5401.55, -5195.27, -4791.01, 0.000, 0.000, 0.000, 12:46:54.277
163, -4632.55, -5400.34, -5199.42, -4764.34, 0.000, 0.000, 0.000, 12:46:54.289
164, -4671.28, -5395.82, -5249.48, -4689.60, 0.000, 0.000, 0.000, 12:46:54.289
165, -4651.88, -5405.17, -5222.05, -4727.50, 0.000, 0.000, 0.000, 12:46:54.304
166, -4631.01, -5399.11, -5232.08, -4800.31, 0.000, 0.000, 0.000, 12:46:54.304
167, -4614.19, -5384.49, -5197.35, -4775.51, 0.000, 0.000, 0.000, 12:46:54.306
168, -4670.92, -5395.58, -5232.95, -4699.46, 0.000, 0.000, 0.000, 12:46:54.306
169, -4659.16, -5412.91, -5217.69, -4740.96, 0.000, 0.000, 0.000, 12:46:54.319
170, -4620.06, -5388.02, -5189.50, -4806.41, 0.000, 0.000, 0.000, 12:46:54.319
171, -4629.33, -5401.97, -5208.20, -4771.21, 0.000, 0.000, 0.000, 12:46:54.335
172, -4672.14, -5425.30, -5277.07, -4689.53, 0.000, 0.000, 0.000, 12:46:54.335
173, -4655.36, -5419.93, -5226.73, -4733.43, 0.000, 0.000, 0.000, 12:46:54.335
174, -4619.13, -5382.07, -5166.92, -4784.91, 0.000, 0.000, 0.000, 12:46:54.335
175, -4621.52, -5382.18, -5192.30, -4774.84, 0.000, 0.000, 0.000, 12:46:54.349
176, -4660.00, -5387.08, -5256.25, -4693.89, 0.000, 0.000, 0.000, 12:46:54.350
177, -4648.67, -5404.50, -5236.58, -4735.46, 0.000, 0.000, 0.000, 12:46:54.365
178, -4618.87, -5409.21, -5201.69, -4790.50, 0.000, 0.000, 0.000, 12:46:54.365
179, -4623.57, -5387.42, -5206.74, -4767.34, 0.000, 0.000, 0.000, 12:46:54.365
180, -4657.93, -5399.04, -5246.64, -4685.86, 0.000, 0.000, 0.000, 12:46:54.365
181, -4652.83, -5402.65, -5251.50, -4744.52, 0.000, 0.000, 0.000, 12:46:54.380
182, -4625.07, -5410.06, -5177.01, -4785.63, 0.000, 0.000, 0.000, 12:46:54.380
183, -4629.23, -5378.25, -5179.12, -4764.43, 0.000, 0.000, 0.000, 12:46:54.394
184, -4668.81, -5392.75, -5241.21, -4710.24, 0.000, 0.000, 0.000, 12:46:54.394
185, -4648.20, -5374.48, -5227.28, -4738.20, 0.000, 0.000, 0.000, 12:46:54.396
186, -4622.88, -5400.93, -5182.47, -4778.81, 0.000, 0.000, 0.000, 12:46:54.396
187, -4631.75, -5402.65, -5234.23, -4765.81, 0.000, 0.000, 0.000, 12:46:54.409
188, -4674.23, -5407.34, -5255.65, -4707.59, 0.000, 0.000, 0.000, 12:46:54.409
189, -4660.58, -5401.50, -5208.83, -4744.71, 0.000, 0.000, 0.000, 12:46:54.425
190, -4633.22, -5391.54, -5162.81, -4801.53, 0.000, 0.000, 0.000, 12:46:54.425
191, -4632.42, -5365.29, -5184.25, -4757.84, 0.000, 0.000, 0.000, 12:46:54.426
192, -4686.47, -5396.54, -5271.45, -4699.83, 0.000, 0.000, 0.000, 12:46:54.426
193, -4659.23, -5397.19, -5232.24, -4738.00, 0.000, 0.000, 0.000, 12:46:54.439
194, -4624.71, -5380.73, -5204.83, -4775.56, 0.000, 0.000, 0.000, 12:46:54.439
195, -4641.77, -5390.96, -5191.70, -4765.49, 0.000, 0.000, 0.000, 12:46:54.454
196, -4682.00, -5384.28, -5244.20, -4699.05, 0.000, 0.000, 0.000, 12:46:54.454
197, -4659.67, -5397.13, -5216.37, -4734.63, 0.000, 0.000, 0.000, 12:46:54.455
198, -4632.24, -5377.55, -5192.56, -4783.43, 0.000, 0.000, 0.000, 12:46:54.455
199, -4640.46, -5386.66, -5222.34, -4766.85, 0.000, 0.000, 0.000, 12:46:54.470
200, -4683.14, -5372.60, -5223.91, -4702.37, 0.000, 0.000, 0.000, 12:46:54.470
0, -4664.68, -5402.45, -5215.93, -4738.14, 0.000, 0.000, 0.000, 12:46:54.470
1, -4644.19, -5375.48, -5196.15, -4791.56, 0.000, 0.000, 0.000, 12:46:54.484
2, -4640.53, -5370.93, -5188.11, -4750.06, 0.000, 0.000, 0.000, 12:46:54.484
3, -4686.89, -5399.84, -5243.22, -4715.80, 0.000, 0.000, 0.000, 12:46:54.500
4, -4671.47, -5406.38, -5230.91, -4739.22, 0.000, 0.000, 0.000, 12:46:54.500
5, -4640.75, -5377.16, -5192.02, -4783.78, 0.000, 0.000, 0.000, 12:46:54.501
6, -4653.94, -5375.32, -5214.20, -4767.89, 0.000, 0.000, 0.000, 12:46:54.501
7, -4690.77, -5398.16, -5241.21, -4710.77, 0.000, 0.000, 0.000, 12:46:54.520
8, -4676.00, -5399.61, -5252.74, -4765.04, 0.000, 0.000, 0.000, 12:46:54.521
9, -4648.18, -5412.96, -5214.70, -4783.96, 0.000, 0.000, 0.000, 12:46:54.530
10, -4640.47, -5346.94, -5184.52, -4754.23, 0.000, 0.000, 0.000, 12:46:54.530
11, -4690.74, -5360.74, -5231.11, -4708.69, 0.000, 0.000, 0.000, 12:46:54.530
12, -4672.38, -5378.47, -5213.02, -4726.57, 0.000, 0.000, 0.000, 12:46:54.530
13, -4639.34, -5377.19, -5186.63, -4774.97, 0.000, 0.000, 0.000, 12:46:54.545
14, -4647.53, -5389.40, -5194.44, -4769.93, 0.000, 0.000, 0.000, 12:46:54.546
15, -4703.50, -5383.27, -5306.76, -4726.52, 0.000, 0.000, 0.000, 12:46:54.560
16, -4680.36, -5409.09, -5217.05, -4751.10, 0.000, 0.000, 0.000, 12:46:54.560
17, -4645.21, -5389.00, -5174.42, -4797.19, 0.000, 0.000, 0.000, 12:46:54.560
18, -4648.73, -5362.59, -5185.66, -4760.82, 0.000, 0.000, 0.000, 12:46:54.560
19, -4684.67, -5377.40, -5262.18, -4709.81, 0.000, 0.000, 0.000, 12:46:54.574
20, -4685.02, -5396.75, -5259.89, -4753.55, 0.000, 0.000, 0.000, 12:46:54.574
21, -4646.95, -5383.29, -5179.03, -4794.82, 0.000, 0.000, 0.000, 12:46:54.590
22, -4648.96, -5374.92, -5209.51, -4768.76, 0.000, 0.000, 0.000, 12:46:54.590
23, -4694.49, -5405.47, -5257.18, -4716.16, 0.000, 0.000, 0.000, 12:46:54.590
24, -4678.64, -5404.65, -5228.94, -4759.22, 0.000, 0.000, 0.000, 12:46:54.590
25, -4637.78, -5378.07, -5181.79, -4798.47, 0.000, 0.000, 0.000, 12:46:54.604
26, -4653.88, -5391.63, -5207.80, -4754.93, 0.000, 0.000, 0.000, 12:46:54.604
27, -4687.94, -5381.80, -5263.87, -4728.33, 0.000, 0.000, 0.000, 12:46:54.619
28, -4663.36, -5397.31, -5229.27, -4739.92, 0.000, 0.000, 0.000, 12:46:54.619
29, -4629.96, -5373.48, -5179.37, -4779.09, 0.000, 0.000, 0.000, 12:46:54.619
30, -4648.67, -5367.75, -5211.53, -4767.56, 0.000, 0.000, 0.000, 12:46:54.620
31, -4696.13, -5387.66, -5263.72, -4717.81, 0.000, 0.000, 0.000, 12:46:54.635
32, -4662.79, -5390.44, -5220.95, -4746.02, 0.000, 0.000, 0.000, 12:46:54.635
33, -4627.47, -5382.18, -5197.11, -4785.53, 0.000, 0.000, 0.000, 12:46:54.649
34, -4643.17, -5364.62, -5198.64, -4767.79, 0.000, 0.000, 0.000, 12:46:54.649
35, -4688.77, -5401.27, -5257.11, -4721.23, 0.000, 0.000, 0.000, 12:46:54.650
36, -4672.01, -5416.72, -5225.19, -4739.92, 0.000, 0.000, 0.000, 12:46:54.650
37, -4638.14, -5378.87, -5194.02, -4784.32, 0.000, 0.000, 0.000, 12:46:54.664
38, -4639.65, -5356.44, -5224.93, -4759.29, 0.000, 0.000, 0.000, 12:46:54.664
39, -4678.53, -5390.42, -5260.88, -4723.11, 0.000, 0.000, 0.000, 12:46:54.680
40, -4665.32, -5393.28, -5202.07, -4750.88, 0.000, 0.000, 0.000, 12:46:54.680
41, -4643.05, -5387.97, -5169.94, -4797.61, 0.000, 0.000, 0.000, 12:46:54.680
42, -4640.15, -5379.80, -5208.10, -4763.21, 0.000, 0.000, 0.000, 12:46:54.680
43, -4683.61, -5369.58, -5248.79, -4703.48, 0.000, 0.000, 0.000, 12:46:54.695
44, -4661.21, -5391.13, -5225.61, -4752.28, 0.000, 0.000, 0.000, 12:46:54.695
45, -4639.85, -5380.21, -5184.69, -4791.18, 0.000, 0.000, 0.000, 12:46:54.710
46, -4640.86, -5368.43, -5188.49, -4759.45, 0.000, 0.000, 0.000, 12:46:54.710
47, -4685.70, -5382.11, -5248.13, -4703.76, 0.000, 0.000, 0.000, 12:46:54.710
48, -4678.25, -5397.21, -5230.85, -4745.29, 0.000, 0.000, 0.000, 12:46:54.710
49, -4638.21, -5384.49, -5202.46, -4796.95, 0.000, 0.000, 0.000, 12:46:54.725
50, -4648.79, -5381.21, -5203.39, -4761.90, 0.000, 0.000, 0.000, 12:46:54.725
51, -4678.12, -5370.80, -5244.42, -4702.41, 0.000, 0.000, 0.000, 12:46:54.739
52, -4667.15, -5382.07, -5205.19, -4752.96, 0.000, 0.000, 0.000, 12:46:54.739
53, -4633.78, -5390.33, -5182.15, -4795.42, 0.000, 0.000, 0.000, 12:46:54.740
54, -4642.99, -5379.95, -5225.31, -4759.81, 0.000, 0.000, 0.000, 12:46:54.740
55, -4681.72, -5390.41, -5246.23, -4713.49, 0.000, 0.000, 0.000, 12:46:54.755
56, -4672.37, -5405.30, -5227.33, -4751.25, 0.000, 0.000, 0.000, 12:46:54.755
57, -4648.21, -5398.80, -5191.25, -4804.13, 0.000, 0.000, 0.000, 12:46:54.769
58, -4653.86, -5384.57, -5247.12, -4766.00, 0.000, 0.000, 0.000, 12:46:54.769
59, -4691.24, -5391.13, -5249.25, -4710.68, 0.000, 0.000, 0.000, 12:46:54.770
60, -4672.69, -5412.45, -5213.29, -4755.93, 0.000, 0.000, 0.000, 12:46:54.770
61, -4629.06, -5380.24, -5167.87, -4795.47, 0.000, 0.000, 0.000, 12:46:54.784
62, -4638.58, -5362.76, -5172.28, -4757.52, 0.000, 0.000, 0.000, 12:46:54.784
63, -4692.57, -5396.84, -5262.62, -4708.45, 0.000, 0.000, 0.000, 12:46:54.799
64, -4666.39, -5405.06, -5211.38, -4743.74, 0.000, 0.000, 0.000, 12:46:54.799
65, -4639.79, -5392.28, -5208.10, -4793.25, 0.000, 0.000, 0.000, 12:46:54.802
66, -4645.55, -5373.82, -5225.13, -4757.82, 0.000, 0.000, 0.000, 12:46:54.802
67, -4690.80, -5387.28, -5224.52, -4703.43, 0.000, 0.000, 0.000, 12:46:54.814
68, -4677.13, -5379.59, -5203.78, -4755.87, 0.000, 0.000, 0.000, 12:46:54.814
69, -4638.68, -5380.22, -5178.10, -4802.54, 0.000, 0.000, 0.000, 12:46:54.830
70, -4653.97, -5370.78, -5211.31, -4753.11, 0.000, 0.000, 0.000, 12:46:54.830
71, -4694.93, -5387.00, -5278.78, -4709.52, 0.000, 0.000, 0.000, 12:46:54.830
72, -4667.73, -5385.84, -5234.15, -4753.51, 0.000, 0.000, 0.000, 12:46:54.830
73, -4638.44, -5388.44, -5176.83, -4795.05, 0.000, 0.000, 0.000, 12:46:54.845
74, -4643.09, -5360.53, -5205.15, -4743.47, 0.000, 0.000, 0.000, 12:46:54.845
75, -4692.56, -5400.02, -5254.46, -4712.87, 0.000, 0.000, 0.000, 12:46:54.859
76, -4664.46, -5400.75, -5209.45, -4740.04, 0.000, 0.000, 0.000, 12:46:54.860
77, -4643.93, -5380.46, -5196.51, -4797.30, 0.000, 0.000, 0.000, 12:46:54.860
78, -4655.54, -5372.54, -5220.69, -4758.06, 0.000, 0.000, 0.000, 12:46:54.860
79, -4689.12, -5380.81, -5241.99, -4703.37, 0.000, 0.000, 0.000, 12:46:54.875
80, -4664.41, -5391.27, -5207.72, -4749.19, 0.000, 0.000, 0.000, 12:46:54.875
81, -4638.21, -5398.39, -5198.00, -4797.12, 0.000, 0.000, 0.000, 12:46:54.889
82, -4646.98, -5386.13, -5224.84, -4762.06, 0.000, 0.000, 0.000, 12:46:54.889
83, -4688.70, -5389.43, -5251.56, -4704.21, 0.000, 0.000, 0.000, 12:46:54.890
84, -4666.60, -5399.52, -5226.12, -4746.50, 0.000, 0.000, 0.000, 12:46:54.890
85, -4630.02, -5360.44, -5178.03, -4780.71, 0.000, 0.000, 0.000, 12:46:54.905
86, -4646.13, -5365.50, -5232.54, -4753.44, 0.000, 0.000, 0.000, 12:46:54.905
87, -4682.90, -5382.72, -5242.56, -4711.92, 0.000, 0.000, 0.000, 12:46:54.919
88, -4668.22, -5402.91, -5214.83, -4747.13, 0.000, 0.000, 0.000, 12:46:54.919
89, -4640.97, -5399.56, -5188.07, -4787.21, 0.000, 0.000, 0.000, 12:46:54.920
90, -4656.86, -5376.72, -5198.04, -4749.36, 0.000, 0.000, 0.000, 12:46:54.920
91, -4694.73, -5396.68, -5265.56, -4706.79, 0.000, 0.000, 0.000, 12:46:54.934
92, -4659.68, -5392.34, -5224.58, -4744.47, 0.000, 0.000, 0.000, 12:46:54.934
93, -4630.81, -5368.00, -5183.65, -4791.37, 0.000, 0.000, 0.000, 12:46:54.949
94, -4652.16, -5373.16, -5190.45, -4760.58, 0.000, 0.000, 0.000, 12:46:54.949
95, -4690.95, -5386.60, -5242.97, -4731.86, 0.000, 0.000, 0.000, 12:46:54.950
96, -4660.25, -5399.66, -5215.24, -4751.36, 0.000, 0.000, 0.000, 12:46:54.950
97, -4637.97, -5396.43, -5194.21, -4792.11, 0.000, 0.000, 0.000, 12:46:54.964
98, -4649.06, -5367.70, -5209.87, -4754.16, 0.000, 0.000, 0.000, 12:46:54.964
99, -4692.74, -5389.36, -5262.91, -4708.61, 0.000, 0.000, 0.000, 12:46:54.980
100, -4657.98, -5388.08, -5233.72, -4748.81, 0.000, 0.000, 0.000, 12:46:54.980
101, -4617.53, -5360.96, -5179.59, -4785.95, 0.000, 0.000, 0.000, 12:46:54.987
102, -4645.63, -5375.07, -5215.46, -4753.62, 0.000, 0.000, 0.000, 12:46:54.987
103, -4682.45, -5402.14, -5256.72, -4706.16, 0.000, 0.000, 0.000, 12:46:54.996
104, -4664.57, -5402.13, -5235.38, -4751.58, 0.000, 0.000, 0.000, 12:46:54.996
105, -4633.71, -5396.33, -5190.35, -4793.05, 0.000, 0.000, 0.000, 12:46:55.010
106, -4654.25, -5385.90, -5219.01, -4739.86, 0.000, 0.000, 0.000, 12:46:55.010
107, -4705.78, -5405.99, -5268.52, -4726.83, 0.000, 0.000, 0.000, 12:46:55.011
108, -4673.05, -5382.08, -5212.36, -4745.90, 0.000, 0.000, 0.000, 12:46:55.011
109, -4628.72, -5357.39, -5185.62, -4770.24, 0.000, 0.000, 0.000, 12:46:55.025
110, -4650.56, -5374.65, -5210.43, -4759.91, 0.000, 0.000, 0.000, 12:46:55.025
111, -4694.89, -5402.75, -5252.23, -4719.48, 0.000, 0.000, 0.000, 12:46:55.039
112, -4657.06, -5395.93, -5208.84, -4755.98, 0.000, 0.000, 0.000, 12:46:55.039
113, -4630.13, -5393.65, -5188.55, -4792.52, 0.000, 0.000, 0.000, 12:46:55.040
114, -4640.91, -5361.26, -5209.97, -4742.78, 0.000, 0.000, 0.000, 12:46:55.040
115, -4681.95, -5385.58, -5277.99, -4718.52, 0.000, 0.000, 0.000, 12:46:55.055
116, -4662.09, -5403.19, -5209.03, -4751.65, 0.000, 0.000, 0.000, 12:46:55.055
117, -4627.26, -5372.71, -5177.94, -4789.01, 0.000, 0.000, 0.000, 12:46:55.069
118, -4657.56, -5363.89, -5218.51, -4759.03, 0.000, 0.000, 0.000, 12:46:55.069
119, -4690.52, -5382.54, -5252.10, -4703.42, 0.000, 0.000, 0.000, 12:46:55.069
120, -4651.81, -5386.38, -5214.50, -4737.59, 0.000, 0.000, 0.000, 12:46:55.070
121, -4616.97, -5360.72, -5165.25, -4772.37, 0.000, 0.000, 0.000, 12:46:55.084
122, -4650.10, -5367.97, -5217.20, -4756.15, 0.000, 0.000, 0.000, 12:46:55.084
123, -4688.04, -5383.65, -5264.71, -4717.07, 0.000, 0.000, 0.000, 12:46:55.100
124, -4665.61, -5391.60, -5212.81, -4757.40, 0.000, 0.000, 0.000, 12:46:55.100
125, -4626.40, -5376.54, -5168.81, -4786.61, 0.000, 0.000, 0.000, 12:46:55.100
126, -4665.59, -5366.22, -5204.90, -4758.52, 0.000, 0.000, 0.000, 12:46:55.100
127, -4702.44, -5386.97, -5267.66, -4734.60, 0.000, 0.000, 0.000, 12:46:55.114
128, -4671.46, -5410.04, -5230.09, -4765.38, 0.000, 0.000, 0.000, 12:46:55.114
129, -4641.03, -5372.91, -5199.31, -4796.43, 0.000, 0.000, 0.000, 12:46:55.130
130, -4661.33, -5357.49, -5237.95, -4738.22, 0.000, 0.000, 0.000, 12:46:55.130
131, -4702.86, -5396.87, -5257.71, -4720.14, 0.000, 0.000, 0.000, 12:46:55.130
132, -4670.48, -5404.59, -5231.61, -4772.31, 0.000, 0.000, 0.000, 12:46:55.130
133, -4622.21, -5375.14, -5168.04, -4784.51, 0.000, 0.000, 0.000, 12:46:55.145
134, -4640.73, -5364.72, -5209.74, -4729.80, 0.000, 0.000, 0.000, 12:46:55.146
135, -4689.43, -5386.40, -5240.13, -4724.02, 0.000, 0.000, 0.000, 12:46:55.160
136, -4665.97, -5379.84, -5219.53, -4757.35, 0.000, 0.000, 0.000, 12:46:55.160
137, -4625.46, -5368.44, -5174.51, -4778.08, 0.000, 0.000, 0.000, 12:46:55.160
138, -4647.54, -5361.30, -5206.23, -4753.54, 0.000, 0.000, 0.000, 12:46:55.160
139, -4684.00, -5406.21, -5263.36, -4733.71, 0.000, 0.000, 0.000, 12:46:55.175
140, -4657.46, -5401.30, -5231.53, -4749.95, 0.000, 0.000, 0.000, 12:46:55.175
141, -4627.69, -5381.99, -5192.16, -4776.23, 0.000, 0.000, 0.000, 12:46:55.190
142, -4644.87, -5344.25, -5194.54, -4751.98, 0.000, 0.000, 0.000, 12:46:55.190
143, -4691.49, -5390.38, -5231.56, -4713.35, 0.000, 0.000, 0.000, 12:46:55.190
144, -4651.57, -5390.59, -5216.75, -4748.72, 0.000, 0.000, 0.000, 12:46:55.190
145, -4622.17, -5378.88, -5184.89, -4778.78, 0.000, 0.000, 0.000, 12:46:55.205
146, -4656.82, -5360.85, -5238.00, -4749.17, 0.000, 0.000, 0.000, 12:46:55.205
147, -4698.32, -5379.71, -5242.23, -4723.92, 0.000, 0.000, 0.000, 12:46:55.219
148, -4670.72, -5382.85, -5242.14, -4748.11, 0.000, 0.000, 0.000, 12:46:55.219
149, -4628.86, -5385.16, -5178.23, -4795.01, 0.000, 0.000, 0.000, 12:46:55.220
150, -4668.33, -5371.58, -5233.26, -4739.63, 0.000, 0.000, 0.000, 12:46:55.220
151, -4703.07, -5391.16, -5261.96, -4712.70, 0.000, 0.000, 0.000, 12:46:55.235
152, -4667.87, -5389.75, -5228.23, -4745.35, 0.000, 0.000, 0.000, 12:46:55.235
153, -4618.83, -5373.37, -5163.36, -4789.58, 0.000, 0.000, 0.000, 12:46:55.249
154, -4659.01, -5371.56, -5210.02, -4743.17, 0.000, 0.000, 0.000, 12:46:55.249
155, -4700.00, -5403.35, -5262.83, -4726.35, 0.000, 0.000, 0.000, 12:46:55.249
156, -4678.47, -5408.11, -5231.85, -4758.41, 0.000, 0.000, 0.000, 12:46:55.250
157, -4619.48, -5377.95, -5175.92, -4776.48, 0.000, 0.000, 0.000, 12:46:55.264
158, -4657.37, -5368.50, -5232.98, -4751.10, 0.000, 0.000, 0.000, 12:46:55.265
159, -4690.64, -5392.69, -5262.83, -4713.48, 0.000, 0.000, 0.000, 12:46:55.279
160, -4667.49, -5384.17, -5223.92, -4757.17, 0.000, 0.000, 0.000, 12:46:55.279
161, -4624.59, -5376.76, -5169.95, -4774.90, 0.000, 0.000, 0.000, 12:46:55.280
162, -4658.35, -5365.42, -5208.85, -4747.09, 0.000, 0.000, 0.000, 12:46:55.280
163, -4692.54, -5402.78, -5256.22, -4734.05, 0.000, 0.000, 0.000, 12:46:55.295
164, -4658.83, -5391.23, -5219.11, -4766.13, 0.000, 0.000, 0.000, 12:46:55.296
165, -4619.05, -5366.06, -5152.06, -4771.47, 0.000, 0.000, 0.000, 12:46:55.310
166, -4647.93, -5367.77, -5221.81, -4727.77, 0.000, 0.000, 0.000, 12:46:55.310
167, -4693.74, -5393.11, -5275.17, -4712.92, 0.000, 0.000, 0.000, 12:46:55.317
168, -4654.73, -5396.01, -5205.11, -4744.35, 0.000, 0.000, 0.000, 12:46:55.317
169, -4604.20, -5359.91, -5142.98, -4772.16, 0.000, 0.000, 0.000, 12:46:55.324
170, -4659.12, -5382.89, -5239.51, -4741.84, 0.000, 0.000, 0.000, 12:46:55.324
171, -4701.17, -5406.75, -5267.30, -4719.99, 0.000, 0.000, 0.000, 12:46:55.339
172, -4663.50, -5392.37, -5233.58, -4743.98, 0.000, 0.000, 0.000, 12:46:55.340
173, -4602.97, -5365.14, -5150.42, -4763.37, 0.000, 0.000, 0.000, 12:46:55.340
174, -4654.97, -5378.97, -5215.36, -4746.42, 0.000, 0.000, 0.000, 12:46:55.340
175, -4703.55, -5402.00, -5263.12, -4727.39, 0.000, 0.000, 0.000, 12:46:55.354
176, -4679.51, -5400.40, -5222.27, -4758.99, 0.000, 0.000, 0.000, 12:46:55.354
177, -4620.33, -5372.79, -5165.78, -4787.43, 0.000, 0.000, 0.000, 12:46:55.369
178, -4672.05, -5368.95, -5214.58, -4734.30, 0.000, 0.000, 0.000, 12:46:55.369
179, -4702.30, -5395.96, -5280.13, -4714.21, 0.000, 0.000, 0.000, 12:46:55.369
180, -4661.93, -5400.73, -5237.50, -4754.95, 0.000, 0.000, 0.000, 12:46:55.369
181, -4619.38, -5399.26, -5180.98, -4768.92, 0.000, 0.000, 0.000, 12:46:55.384
182, -4674.63, -5406.29, -5248.59, -4740.88, 0.000, 0.000, 0.000, 12:46:55.384
183, -4702.53, -5391.44, -5252.56, -4726.52, 0.000, 0.000, 0.000, 12:46:55.399
184, -4668.22, -5391.28, -5222.75, -4767.16, 0.000, 0.000, 0.000, 12:46:55.400
185, -4607.54, -5353.62, -5165.53, -4779.39, 0.000, 0.000, 0.000, 12:46:55.400
186, -4636.99, -5347.77, -5213.36, -4724.86, 0.000, 0.000, 0.000, 12:46:55.400
187, -4697.10, -5396.24, -5283.49, -4729.24, 0.000, 0.000, 0.000, 12:46:55.415
188, -4645.63, -5373.45, -5196.50, -4749.08, 0.000, 0.000, 0.000, 12:46:55.415
189, -4619.57, -5377.35, -5163.18, -4788.98, 0.000, 0.000, 0.000, 12:46:55.429
190, -4660.66, -5387.95, -5218.45, -4731.04, 0.000, 0.000, 0.000, 12:46:55.429
191, -4710.45, -5421.54, -5280.79, -4743.03, 0.000, 0.000, 0.000, 12:46:55.430
192, -4673.56, -5402.12, -5226.54, -4767.34, 0.000, 0.000, 0.000, 12:46:55.430
193, -4606.06, -5347.62, -5173.05, -4777.19, 0.000, 0.000, 0.000, 12:46:55.445
194, -4665.19, -5367.49, -5232.31, -4738.43, 0.000, 0.000, 0.000, 12:46:55.445
195, -4716.22, -5416.50, -5288.85, -4729.47, 0.000, 0.000, 0.000, 12:46:55.460
196, -4660.03, -5388.78, -5215.64, -4769.48, 0.000, 0.000, 0.000, 12:46:55.460
197, -4602.91, -5350.48, -5162.51, -4786.46, 0.000, 0.000, 0.000, 12:46:55.460
198, -4618.17, -5336.04, -5191.17, -4724.34, 0.000, 0.000, 0.000, 12:46:55.460
199, -4688.30, -5383.36, -5261.89, -4722.76, 0.000, 0.000, 0.000, 12:46:55.474
200, -4624.66, -5343.71, -5196.04, -4745.38, 0.000, 0.000, 0.000, 12:46:55.475
0, -4578.45, -5307.53, -5128.60, -4750.54, 0.000, 0.000, 0.000, 12:46:55.475
1, -4629.11, -5313.25, -5192.52, -4710.46, 0.000, 0.000, 0.000, 12:46:55.489
2, -4690.98, -5387.51, -5244.16, -4711.19, 0.000, 0.000, 0.000, 12:46:55.490
3, -4630.64, -5328.75, -5196.12, -4733.60, 0.000, 0.000, 0.000, 12:46:55.505
4, -4580.85, -5303.87, -5116.99, -4756.01, 0.000, 0.000, 0.000, 12:46:55.505
5, -4646.28, -5310.74, -5204.21, -4727.33, 0.000, 0.000, 0.000, 12:46:55.506
6, -4686.77, -5351.31, -5268.47, -4725.16, 0.000, 0.000, 0.000, 12:46:55.506
7, -4641.24, -5356.14, -5204.21, -4737.64, 0.000, 0.000, 0.000, 12:46:55.519
8, -4586.51, -5324.57, -5137.83, -4752.56, 0.000, 0.000, 0.000, 12:46:55.519
9, -4640.44, -5338.62, -5201.55, -4730.29, 0.000, 0.000, 0.000, 12:46:55.534
10, -4699.96, -5403.49, -5256.40, -4719.56, 0.000, 0.000, 0.000, 12:46:55.534
11, -4658.56, -5391.05, -5210.62, -4748.48, 0.000, 0.000, 0.000, 12:46:55.535
12, -4611.83, -5345.26, -5171.98, -4776.84, 0.000, 0.000, 0.000, 12:46:55.535
13, -4655.63, -5340.03, -5222.96, -4736.16, 0.000, 0.000, 0.000, 12:46:55.550
14, -4704.24, -5409.23, -5278.07, -4728.81, 0.000, 0.000, 0.000, 12:46:55.550
15, -4645.24, -5374.46, -5196.33, -4736.40, 0.000, 0.000, 0.000, 12:46:55.564
16, -4605.18, -5362.15, -5151.72, -4773.37, 0.000, 0.000, 0.000, 12:46:55.565
17, -4655.92, -5372.46, -5215.43, -4741.55, 0.000, 0.000, 0.000, 12:46:55.565
18, -4705.16, -5414.29, -5272.35, -4727.89, 0.000, 0.000, 0.000, 12:46:55.565
19, -4654.66, -5384.56, -5223.39, -4755.42, 0.000, 0.000, 0.000, 12:46:55.580
20, -4600.01, -5353.14, -5172.13, -4784.47, 0.000, 0.000, 0.000, 12:46:55.580
21, -4665.21, -5376.06, -5247.48, -4728.69, 0.000, 0.000, 0.000, 12:46:55.596
22, -4710.27, -5415.62, -5254.42, -4727.76, 0.000, 0.000, 0.000, 12:46:55.596
23, -4673.20, -5399.15, -5223.76, -4766.54, 0.000, 0.000, 0.000, 12:46:55.596
24, -4603.69, -5365.66, -5152.95, -4777.23, 0.000, 0.000, 0.000, 12:46:55.596
25, -4658.60, -5373.56, -5232.21, -4737.21, 0.000, 0.000, 0.000, 12:46:55.610
26, -4694.22, -5410.93, -5259.52, -4708.33, 0.000, 0.000, 0.000, 12:46:55.610
27, -4661.68, -5401.10, -5217.26, -4754.09, 0.000, 0.000, 0.000, 12:46:55.625
28, -4604.62, -5373.55, -5175.42, -4781.05, 0.000, 0.000, 0.000, 12:46:55.625
29, -4672.69, -5380.09, -5234.23, -4745.10, 0.000, 0.000, 0.000, 12:46:55.625
30, -4716.95, -5417.26, -5280.99, -4738.93, 0.000, 0.000, 0.000, 12:46:55.625
31, -4665.78, -5403.18, -5223.28, -4759.08, 0.000, 0.000, 0.000, 12:46:55.640
32, -4610.32, -5355.92, -5158.48, -4773.82, 0.000, 0.000, 0.000, 12:46:55.640
33, -4657.57, -5354.44, -5207.55, -4732.82, 0.000, 0.000, 0.000, 12:46:55.654
34, -4695.03, -5395.43, -5265.98, -4730.92, 0.000, 0.000, 0.000, 12:46:55.654
35, -4655.03, -5398.43, -5211.49, -4755.68, 0.000, 0.000, 0.000, 12:46:55.655
36, -4609.40, -5366.00, -5165.16, -4775.59, 0.000, 0.000, 0.000, 12:46:55.655
37, -4668.86, -5377.93, -5248.79, -4748.28, 0.000, 0.000, 0.000, 12:46:55.669
38, -4698.38, -5409.16, -5271.20, -4734.28, 0.000, 0.000, 0.000, 12:46:55.669
39, -4653.18, -5367.95, -5198.12, -4762.85, 0.000, 0.000, 0.000, 12:46:55.684
40, -4608.46, -5383.23, -5154.02, -4781.33, 0.000, 0.000, 0.000, 12:46:55.684
41, -4663.48, -5382.04, -5231.99, -4753.83, 0.000, 0.000, 0.000, 12:46:55.685
42, -4693.22, -5379.93, -5259.47, -4747.96, 0.000, 0.000, 0.000, 12:46:55.685
43, -4647.59, -5378.21, -5199.05, -4751.08, 0.000, 0.000, 0.000, 12:46:55.699
44, -4606.80, -5372.86, -5174.72, -4770.89, 0.000, 0.000, 0.000, 12:46:55.699
45, -4664.13, -5376.66, -5224.30, -4745.30, 0.000, 0.000, 0.000, 12:46:55.715
46, -4694.75, -5402.29, -5246.13, -4734.39, 0.000, 0.000, 0.000, 12:46:55.715
47, -4643.48, -5385.45, -5185.81, -4759.80, 0.000, 0.000, 0.000, 12:46:55.715
48, -4603.69, -5375.24, -5158.10, -4780.52, 0.000, 0.000, 0.000, 12:46:55.715
49, -4665.68, -5374.62, -5227.05, -4733.68, 0.000, 0.000, 0.000, 12:46:55.729
50, -4697.49, -5414.14, -5262.09, -4737.24, 0.000, 0.000, 0.000, 12:46:55.729
51, -4645.77, -5383.60, -5204.93, -4757.96, 0.000, 0.000, 0.000, 12:46:55.745
52, -4608.25, -5372.74, -5167.79, -4770.15, 0.000, 0.000, 0.000, 12:46:55.745
53, -4679.05, -5379.37, -5256.92, -4736.64, 0.000, 0.000, 0.000, 12:46:55.746
54, -4702.47, -5418.61, -5271.68, -4738.23, 0.000, 0.000, 0.000, 12:46:55.746
55, -4652.72, -5400.94, -5210.18, -4765.85, 0.000, 0.000, 0.000, 12:46:55.760
56, -4594.65, -5372.60, -5158.99, -4771.84, 0.000, 0.000, 0.000, 12:46:55.760
57, -4664.13, -5380.55, -5246.02, -4732.91, 0.000, 0.000, 0.000, 12:46:55.774
58, -4701.64, -5414.94, -5252.89, -4744.63, 0.000, 0.000, 0.000, 12:46:55.775
59, -4636.25, -5376.36, -5192.11, -4760.85, 0.000, 0.000, 0.000, 12:46:55.775
60, -4592.29, -5357.58, -5159.28, -4779.82, 0.000, 0.000, 0.000, 12:46:55.775
61, -4659.41, -5384.95, -5245.54, -4720.31, 0.000, 0.000, 0.000, 12:46:55.790
62, -4692.10, -5406.35, -5254.20, -4731.41, 0.000, 0.000, 0.000, 12:46:55.790
63, -4647.33, -5396.47, -5208.69, -4766.42, 0.000, 0.000, 0.000, 12:46:55.805
64, -4592.48, -5343.35, -5140.89, -4779.38, 0.000, 0.000, 0.000, 12:46:55.805
65, -4663.77, -5377.42, -5238.98, -4716.31, 0.000, 0.000, 0.000, 12:46:55.805
66, -4690.45, -5407.59, -5274.84, -4723.27, 0.000, 0.000, 0.000, 12:46:55.806
67, -4644.64, -5373.29, -5216.49, -4754.42, 0.000, 0.000, 0.000, 12:46:55.820
68, -4585.59, -5312.40, -5141.56, -4772.69, 0.000, 0.000, 0.000, 12:46:55.820
69, -4665.19, -5390.48, -5249.24, -4736.50, 0.000, 0.000, 0.000, 12:46:55.834
70, -4695.49, -5420.17, -5269.13, -4723.00, 0.000, 0.000, 0.000, 12:46:55.834
71, -4652.53, -5422.97, -5213.60, -4773.02, 0.000, 0.000, 0.000, 12:46:55.834
72, -4603.00, -5376.02, -5159.20, -4786.72, 0.000, 0.000, 0.000, 12:46:55.834
73, -4659.65, -5350.56, -5252.64, -4729.63, 0.000, 0.000, 0.000, 12:46:55.849
74, -4697.15, -5388.75, -5262.46, -4722.01, 0.000, 0.000, 0.000, 12:46:55.849
75, -4649.75, -5381.96, -5197.64, -4770.64, 0.000, 0.000, 0.000, 12:46:55.864
76, -4605.66, -5363.09, -5140.01, -4776.56, 0.000, 0.000, 0.000, 12:46:55.864
77, -4685.98, -5400.63, -5263.80, -4735.70, 0.000, 0.000, 0.000, 12:46:55.864
78, -4696.36, -5408.24, -5261.12, -4723.49, 0.000, 0.000, 0.000, 12:46:55.864
79, -4651.39, -5387.51, -5209.71, -4762.06, 0.000, 0.000, 0.000, 12:46:55.879
80, -4601.78, -5369.73, -5155.25, -4792.56, 0.000, 0.000, 0.000, 12:46:55.879
81, -4669.30, -5362.31, -5227.93, -4737.05, 0.000, 0.000, 0.000, 12:46:55.895
82, -4714.10, -5431.52, -5286.83, -4728.38, 0.000, 0.000, 0.000, 12:46:55.895
83, -4672.41, -5435.69, -5233.86, -4756.36, 0.000, 0.000, 0.000, 12:46:55.895
84, -4612.92, -5376.72, -5173.04, -4786.55, 0.000, 0.000, 0.000, 12:46:55.895
85, -4690.84, -5394.89, -5257.69, -4716.04, 0.000, 0.000, 0.000, 12:46:55.909
86, -4699.51, -5389.84, -5245.35, -4736.86, 0.000, 0.000, 0.000, 12:46:55.909
87, -4662.04, -5427.63, -5208.06, -4776.50, 0.000, 0.000, 0.000, 12:46:55.925
88, -4597.07, -5343.05, -5156.30, -4783.35, 0.000, 0.000, 0.000, 12:46:55.925
89, -4656.63, -5350.66, -5247.05, -4719.06, 0.000, 0.000, 0.000, 12:46:55.926
90, -4718.61, -5491.36, -5286.44, -4748.64, 0.000, 0.000, 0.000, 12:46:55.926
91, -4647.78, -5413.69, -5216.95, -4783.68, 0.000, 0.000, 0.000, 12:46:55.940
92, -4615.01, -5386.22, -5165.52, -4804.53, 0.000, 0.000, 0.000, 12:46:55.940
93, -4689.31, -5405.30, -5248.12, -4716.88, 0.000, 0.000, 0.000, 12:46:55.954
94, -4709.94, -5439.84, -5278.34, -4726.83, 0.000, 0.000, 0.000, 12:46:55.954
95, -4660.93, -5415.02, -5227.86, -4763.97, 0.000, 0.000, 0.000, 12:46:55.955
96, -4617.22, -5370.33, -5176.62, -4790.77, 0.000, 0.000, 0.000, 12:46:55.955
97, -4688.04, -5431.25, -5257.63, -4742.27, 0.000, 0.000, 0.000, 12:46:55.976
98, -4696.07, -5443.60, -5275.79, -4735.05, 0.000, 0.000, 0.000, 12:46:55.976
99, -4667.51, -5414.51, -5214.79, -4780.12, 0.000, 0.000, 0.000, 12:46:55.984
100, -4610.59, -5386.60, -5151.17, -4791.71, 0.000, 0.000, 0.000, 12:46:55.985
101, -4695.20, -5388.45, -5270.05, -4734.80, 0.000, 0.000, 0.000, 12:46:55.985
102, -4711.87, -5427.25, -5287.21, -4745.82, 0.000, 0.000, 0.000, 12:46:55.985
103, -4657.46, -5421.03, -5218.46, -4775.17, 0.000, 0.000, 0.000, 12:46:56.014
104, -4618.62, -5411.03, -5175.55, -4796.07, 0.000, 0.000, 0.000, 12:46:56.015
105, -4688.21, -5419.00, -5253.16, -4738.09, 0.000, 0.000, 0.000, 12:46:56.015
106, -4715.31, -5445.04, -5291.79, -4742.28, 0.000, 0.000, 0.000, 12:46:56.015
107, -4642.29, -5408.49, -5212.33, -4762.15, 0.000, 0.000, 0.000, 12:46:56.016
108, -4608.97, -5384.95, -5180.04, -4778.77, 0.000, 0.000, 0.000, 12:46:56.016
109, -4692.93, -5416.05, -5271.08, -4724.87, 0.000, 0.000, 0.000, 12:46:56.029
110, -4710.86, -5433.34, -5271.59, -4735.51, 0.000, 0.000, 0.000, 12:46:56.029
111, -4658.56, -5414.63, -5217.88, -4781.39, 0.000, 0.000, 0.000, 12:46:56.045
112, -4612.49, -5391.92, -5180.65, -4786.73, 0.000, 0.000, 0.000, 12:46:56.046
113, -4682.64, -5391.96, -5268.95, -4722.83, 0.000, 0.000, 0.000, 12:46:56.046
114, -4720.11, -5433.66, -5284.30, -4742.39, 0.000, 0.000, 0.000, 12:46:56.046
115, -4656.27, -5411.22, -5196.68, -4761.57, 0.000, 0.000, 0.000, 12:46:56.059
116, -4608.89, -5373.67, -5171.02, -4790.77, 0.000, 0.000, 0.000, 12:46:56.059
117, -4685.16, -5404.22, -5282.47, -4731.94, 0.000, 0.000, 0.000, 12:46:56.089
118, -4712.18, -5452.81, -5259.40, -4750.19, 0.000, 0.000, 0.000, 12:46:56.089
119, -4659.60, -5416.99, -5215.75, -4764.85, 0.000, 0.000, 0.000, 12:46:56.090
120, -4609.06, -5367.73, -5147.87, -4786.91, 0.000, 0.000, 0.000, 12:46:56.090
121, -4686.82, -5394.15, -5231.39, -4732.95, 0.000, 0.000, 0.000, 12:46:56.091
122, -4710.56, -5430.65, -5266.76, -4748.72, 0.000, 0.000, 0.000, 12:46:56.091
123, -4649.37, -5407.56, -5199.81, -4765.34, 0.000, 0.000, 0.000, 12:46:56.091
124, -4613.73, -5391.55, -5181.69, -4779.19, 0.000, 0.000, 0.000, 12:46:56.091
125, -4694.48, -5419.93, -5274.66, -4729.80, 0.000, 0.000, 0.000, 12:46:56.104
126, -4702.70, -5401.21, -5279.47, -4738.56, 0.000, 0.000, 0.000, 12:46:56.104
127, -4642.62, -5389.93, -5205.78, -4775.51, 0.000, 0.000, 0.000, 12:46:56.119
128, -4613.97, -5364.36, -5140.90, -4784.83, 0.000, 0.000, 0.000, 12:46:56.119
129, -4680.77, -5379.98, -5249.53, -4732.28, 0.000, 0.000, 0.000, 12:46:56.134
130, -4696.23, -5420.23, -5270.59, -4728.23, 0.000, 0.000, 0.000, 12:46:56.134
131, -4640.29, -5404.24, -5204.24, -4759.72, 0.000, 0.000, 0.000, 12:46:56.135
132, -4603.63, -5393.74, -5167.68, -4780.78, 0.000, 0.000, 0.000, 12:46:56.135
133, -4692.40, -5400.08, -5269.62, -4733.67, 0.000, 0.000, 0.000, 12:46:56.164
134, -4692.34, -5403.07, -5259.19, -4734.60, 0.000, 0.000, 0.000, 12:46:56.164
135, -4642.32, -5376.97, -5182.98, -4755.59, 0.000, 0.000, 0.000, 12:46:56.165
136, -4609.21, -5376.54, -5161.81, -4786.75, 0.000, 0.000, 0.000, 12:46:56.165
137, -4696.85, -5390.59, -5267.29, -4732.03, 0.000, 0.000, 0.000, 12:46:56.165
138, -4711.51, -5420.37, -5276.90, -4747.54, 0.000, 0.000, 0.000, 12:46:56.165
139, -4644.81, -5395.35, -5185.44, -4768.16, 0.000, 0.000, 0.000, 12:46:56.180
140, -4610.42, -5348.80, -5148.98, -4782.27, 0.000, 0.000, 0.000, 12:46:56.180
141, -4686.19, -5382.40, -5243.58, -4723.03, 0.000, 0.000, 0.000, 12:46:56.195
142, -4691.88, -5405.70, -5267.46, -4722.77, 0.000, 0.000, 0.000, 12:46:56.196
143, -4649.02, -5383.35, -5191.21, -4763.73, 0.000, 0.000, 0.000, 12:46:56.196
144, -4614.73, -5362.26, -5163.97, -4792.43, 0.000, 0.000, 0.000, 12:46:56.196
145, -4678.08, -5368.39, -5247.57, -4716.95, 0.000, 0.000, 0.000, 12:46:56.210
146, -4697.40, -5413.39, -5272.49, -4738.36, 0.000, 0.000, 0.000, 12:46:56.210
147, -4641.38, -5401.82, -5206.23, -4767.68, 0.000, 0.000, 0.000, 12:46:56.225
148, -4608.76, -5356.01, -5160.48, -4788.75, 0.000, 0.000, 0.000, 12:46:56.225
149, -4684.85, -5381.38, -5251.28, -4716.86, 0.000, 0.000, 0.000, 12:46:56.225
150, -4702.94, -5428.13, -5275.71, -4728.42, 0.000, 0.000, 0.000, 12:46:56.226
151, -4637.32, -5389.74, -5208.92, -4765.81, 0.000, 0.000, 0.000, 12:46:56.239
152, -4596.52, -5360.94, -5147.96, -4778.05, 0.000, 0.000, 0.000, 12:46:56.239
153, -4693.52, -5380.68, -5267.53, -4719.07, 0.000, 0.000, 0.000, 12:46:56.254
154, -4694.55, -5394.37, -5251.83, -4732.07, 0.000, 0.000, 0.000, 12:46:56.254
155, -4643.16, -5375.86, -5191.88, -4770.46, 0.000, 0.000, 0.000, 12:46:56.255
156, -4612.60, -5362.63, -5169.63, -4783.75, 0.000, 0.000, 0.000, 12:46:56.255
157, -4695.26, -5396.93, -5248.95, -4728.05, 0.000, 0.000, 0.000, 12:46:56.269
158, -4692.85, -5411.28, -5250.57, -4727.70, 0.000, 0.000, 0.000, 12:46:56.269
159, -4643.78, -5401.49, -5218.15, -4777.77, 0.000, 0.000, 0.000, 12:46:56.285
160, -4607.62, -5359.07, -5173.37, -4784.46, 0.000, 0.000, 0.000, 12:46:56.285
161, -4686.36, -5365.66, -5235.60, -4726.12, 0.000, 0.000, 0.000, 12:46:56.285
162, -4706.11, -5399.60, -5246.83, -4740.74, 0.000, 0.000, 0.000, 12:46:56.285
163, -4658.30, -5394.09, -5199.00, -4777.56, 0.000, 0.000, 0.000, 12:46:56.299
164, -4615.82, -5368.31, -5157.85, -4781.83, 0.000, 0.000, 0.000, 12:46:56.299
165, -4700.80, -5410.11, -5272.06, -4729.37, 0.000, 0.000, 0.000, 12:46:56.314
166, -4696.62, -5413.81, -5270.48, -4737.76, 0.000, 0.000, 0.000, 12:46:56.314
167, -4649.16, -5383.76, -5191.26, -4770.58, 0.000, 0.000, 0.000, 12:46:56.315
168, -4614.72, -5349.42, -5163.68, -4801.16, 0.000, 0.000, 0.000, 12:46:56.315
169, -4694.76, -5383.63, -5266.17, -4723.99, 0.000, 0.000, 0.000, 12:46:56.329
170, -4688.37, -5402.75, -5264.38, -4747.61, 0.000, 0.000, 0.000, 12:46:56.329
171, -4634.38, -5387.94, -5229.16, -4759.91, 0.000, 0.000, 0.000, 12:46:56.346
172, -4612.28, -5381.69, -5166.42, -4792.72, 0.000, 0.000, 0.000, 12:46:56.346
173, -4695.37, -5397.99, -5239.21, -4720.84, 0.000, 0.000, 0.000, 12:46:56.346
174, -4708.49, -5422.30, -5251.76, -4733.89, 0.000, 0.000, 0.000, 12:46:56.346
175, -4640.06, -5364.07, -5184.28, -4763.26, 0.000, 0.000, 0.000, 12:46:56.360
176, -4607.04, -5347.05, -5145.51, -4776.41, 0.000, 0.000, 0.000, 12:46:56.360
177, -4691.61, -5387.90, -5251.20, -4732.37, 0.000, 0.000, 0.000, 12:46:56.375
178, -4690.91, -5405.56, -5269.32, -4731.95, 0.000, 0.000, 0.000, 12:46:56.375
179, -4639.62, -5400.36, -5220.25, -4773.78, 0.000, 0.000, 0.000, 12:46:56.382
180, -4608.22, -5354.22, -5167.82, -4777.48, 0.000, 0.000, 0.000, 12:46:56.382
181, -4688.95, -5395.35, -5238.67, -4724.10, 0.000, 0.000, 0.000, 12:46:56.389
182, -4699.65, -5413.52, -5267.70, -4731.94, 0.000, 0.000, 0.000, 12:46:56.389
183, -4641.24, -5374.53, -5191.69, -4760.92, 0.000, 0.000, 0.000, 12:46:56.404
184, -4597.82, -5345.27, -5165.27, -4779.06, 0.000, 0.000, 0.000, 12:46:56.404
185, -4680.17, -5393.60, -5245.39, -4725.66, 0.000, 0.000, 0.000, 12:46:56.405
186, -4688.78, -5402.77, -5229.45, -4737.98, 0.000, 0.000, 0.000, 12:46:56.405
187, -4632.17, -5376.50, -5178.36, -4769.33, 0.000, 0.000, 0.000, 12:46:56.419
188, -4628.96, -5371.62, -5176.44, -4803.86, 0.000, 0.000, 0.000, 12:46:56.419
189, -4690.87, -5383.79, -5241.70, -4735.93, 0.000, 0.000, 0.000, 12:46:56.434
190, -4700.79, -5432.76, -5266.47, -4745.29, 0.000, 0.000, 0.000, 12:46:56.434
191, -4646.20, -5403.94, -5220.98, -4772.37, 0.000, 0.000, 0.000, 12:46:56.435
192, -4611.96, -5367.87, -5176.30, -4787.78, 0.000, 0.000, 0.000, 12:46:56.435
193, -4694.12, -5378.82, -5234.24, -4730.30, 0.000, 0.000, 0.000, 12:46:56.450
194, -4691.80, -5406.59, -5249.08, -4739.34, 0.000, 0.000, 0.000, 12:46:56.450
195, -4631.93, -5377.00, -5162.40, -4766.23, 0.000, 0.000, 0.000, 12:46:56.464
196, -4617.80, -5365.41, -5157.10, -4774.24, 0.000, 0.000, 0.000, 12:46:56.464
197, -4700.25, -5404.11, -5263.92, -4744.61, 0.000, 0.000, 0.000, 12:46:56.465
198, -4691.74, -5424.28, -5266.93, -4762.47, 0.000, 0.000, 0.000, 12:46:56.465
199, -4636.97, -5393.55, -5200.64, -4784.07, 0.000, 0.000, 0.000, 12:46:56.480
200, -4607.87, -5374.03, -5167.64, -4783.81, 0.000, 0.000, 0.000, 12:46:56.480
0, -4685.53, -5384.09, -5249.46, -4722.58, 0.000, 0.000, 0.000, 12:46:56.480
1, -4687.27, -5408.47, -5242.72, -4736.38, 0.000, 0.000, 0.000, 12:46:56.495
2, -4635.53, -5384.89, -5164.10, -4768.56, 0.000, 0.000, 0.000, 12:46:56.495
3, -4607.67, -5362.39, -5139.69, -4776.88, 0.000, 0.000, 0.000, 12:46:56.510
4, -4696.71, -5391.73, -5258.31, -4719.60, 0.000, 0.000, 0.000, 12:46:56.510
5, -4684.18, -5404.08, -5252.61, -4729.64, 0.000, 0.000, 0.000, 12:46:56.510
6, -4645.85, -5397.83, -5203.18, -4787.80, 0.000, 0.000, 0.000, 12:46:56.510
7, -4609.72, -5356.28, -5167.93, -4781.74, 0.000, 0.000, 0.000, 12:46:56.525
8, -4692.42, -5396.70, -5297.03, -4720.44, 0.000, 0.000, 0.000, 12:46:56.525
9, -4690.18, -5423.36, -5256.54, -4742.24, 0.000, 0.000, 0.000, 12:46:56.540
10, -4635.40, -5395.18, -5162.82, -4767.60, 0.000, 0.000, 0.000, 12:46:56.540
11, -4614.66, -5372.71, -5180.47, -4782.65, 0.000, 0.000, 0.000, 12:46:56.540
12, -4696.01, -5388.04, -5267.61, -4713.82, 0.000, 0.000, 0.000, 12:46:56.540
13, -4689.90, -5408.15, -5238.31, -4735.45, 0.000, 0.000, 0.000, 12:46:56.569
14, -4637.98, -5392.63, -5192.37, -4772.58, 0.000, 0.000, 0.000, 12:46:56.569
15, -4619.49, -5363.10, -5171.63, -4781.78, 0.000, 0.000, 0.000, 12:46:56.570
16, -4702.04, -5397.58, -5258.61, -4731.32, 0.000, 0.000, 0.000, 12:46:56.570
17, -4696.87, -5411.34, -5268.37, -4739.84, 0.000, 0.000, 0.000, 12:46:56.571
18, -4639.53, -5393.08, -5205.18, -4759.91, 0.000, 0.000, 0.000, 12:46:56.571
19, -4612.15, -5376.76, -5179.50, -4773.19, 0.000, 0.000, 0.000, 12:46:56.585
20, -4690.29, -5379.52, -5244.29, -4714.76, 0.000, 0.000, 0.000, 12:46:56.585
21, -4695.17, -5415.75, -5232.93, -4748.02, 0.000, 0.000, 0.000, 12:46:56.599
22, -4644.37, -5399.56, -5196.19, -4790.23, 0.000, 0.000, 0.000, 12:46:56.600
23, -4616.77, -5367.61, -5171.31, -4767.84, 0.000, 0.000, 0.000, 12:46:56.600
24, -4688.10, -5396.62, -5270.13, -4720.05, 0.000, 0.000, 0.000, 12:46:56.600
25, -4693.86, -5430.99, -5284.92, -4743.31, 0.000, 0.000, 0.000, 12:46:56.615
26, -4642.02, -5393.88, -5206.54, -4770.04, 0.000, 0.000, 0.000, 12:46:56.615
27, -4611.70, -5361.23, -5162.89, -4771.64, 0.000, 0.000, 0.000, 12:46:56.630
28, -4698.67, -5396.71, -5269.51, -4729.24, 0.000, 0.000, 0.000, 12:46:56.630
29, -4697.16, -5417.03, -5258.42, -4748.04, 0.000, 0.000, 0.000, 12:46:56.630
30, -4641.69, -5383.24, -5202.01, -4783.60, 0.000, 0.000, 0.000, 12:46:56.630
31, -4622.88, -5386.08, -5177.21, -4780.67, 0.000, 0.000, 0.000, 12:46:56.645
32, -4693.01, -5399.85, -5268.01, -4728.28, 0.000, 0.000, 0.000, 12:46:56.645
33, -4694.60, -5432.88, -5267.43, -4751.56, 0.000, 0.000, 0.000, 12:46:56.659
34, -4646.86, -5405.30, -5218.01, -4793.86, 0.000, 0.000, 0.000, 12:46:56.659
35, -4619.31, -5365.74, -5203.76, -4768.24, 0.000, 0.000, 0.000, 12:46:56.660
36, -4702.12, -5408.27, -5321.53, -4709.86, 0.000, 0.000, 0.000, 12:46:56.660
37, -4696.04, -5421.25, -5254.63, -4737.66, 0.000, 0.000, 0.000, 12:46:56.674
38, -4635.69, -5377.30, -5161.31, -4783.13, 0.000, 0.000, 0.000, 12:46:56.675
39, -4616.28, -5369.79, -5148.72, -4780.60, 0.000, 0.000, 0.000, 12:46:56.689
40, -4712.13, -5412.03, -5267.50, -4734.24, 0.000, 0.000, 0.000, 12:46:56.689
41, -4696.85, -5409.81, -5245.15, -4743.37, 0.000, 0.000, 0.000, 12:46:56.690
42, -4638.17, -5397.07, -5202.33, -4769.95, 0.000, 0.000, 0.000, 12:46:56.690
43, -4628.56, -5376.67, -5195.40, -4763.47, 0.000, 0.000, 0.000, 12:46:56.705
44, -4701.25, -5402.91, -5298.91, -4724.23, 0.000, 0.000, 0.000, 12:46:56.705
45, -4689.35, -5413.94, -5261.14, -4751.10, 0.000, 0.000, 0.000, 12:46:56.720
46, -4640.82, -5396.52, -5180.41, -4777.26, 0.000, 0.000, 0.000, 12:46:56.720
47, -4613.95, -5352.90, -5171.49, -4780.75, 0.000, 0.000, 0.000, 12:46:56.721
48, -4691.71, -5381.43, -5250.98, -4716.76, 0.000, 0.000, 0.000, 12:46:56.721
49, -4690.78, -5409.85, -5238.14, -4738.63, 0.000, 0.000, 0.000, 12:46:56.734
50, -4627.34, -5386.48, -5190.35, -4777.05, 0.000, 0.000, 0.000, 12:46:56.734
51, -4609.10, -5358.30, -5173.61, -4764.66, 0.000, 0.000, 0.000, 12:46:56.749
52, -4693.85, -5393.99, -5274.32, -4713.29, 0.000, 0.000, 0.000, 12:46:56.749
53, -4685.25, -5405.01, -5250.40, -4740.21, 0.000, 0.000, 0.000, 12:46:56.750
54, -4628.01, -5374.28, -5190.23, -4785.40, 0.000, 0.000, 0.000, 12:46:56.750
55, -4614.87, -5359.94, -5170.39, -4771.78, 0.000, 0.000, 0.000, 12:46:56.764
56, -4694.47, -5399.49, -5275.10, -4724.01, 0.000, 0.000, 0.000, 12:46:56.764
57, -4677.28, -5416.16, -5248.81, -4740.48, 0.000, 0.000, 0.000, 12:46:56.781
58, -4624.34, -5386.21, -5180.55, -4773.74, 0.000, 0.000, 0.000, 12:46:56.781
59, -4613.05, -5358.63, -5160.62, -4774.82, 0.000, 0.000, 0.000, 12:46:56.781
60, -4700.31, -5392.92, -5269.15, -4718.10, 0.000, 0.000, 0.000, 12:46:56.781
61, -4696.76, -5417.64, -5260.15, -4749.09, 0.000, 0.000, 0.000, 12:46:56.810
62, -4639.58, -5384.20, -5193.31, -4768.36, 0.000, 0.000, 0.000, 12:46:56.810
63, -4622.55, -5369.63, -5179.45, -4770.14, 0.000, 0.000, 0.000, 12:46:56.810
64, -4702.38, -5395.76, -5274.62, -4727.44, 0.000, 0.000, 0.000, 12:46:56.810
65, -4691.34, -5417.95, -5261.15, -4750.25, 0.000, 0.000, 0.000, 12:46:56.812
66, -4632.57, -5383.18, -5174.26, -4779.37, 0.000, 0.000, 0.000, 12:46:56.812
67, -4611.59, -5346.74, -5163.34, -4770.10, 0.000, 0.000, 0.000, 12:46:56.827
68, -4699.59, -5394.64, -5265.63, -4723.38, 0.000, 0.000, 0.000, 12:46:56.827
69, -4700.56, -5418.14, -5264.96, -4752.53, 0.000, 0.000, 0.000, 12:46:56.855
70, -4641.12, -5382.25, -5186.94, -4781.10, 0.000, 0.000, 0.000, 12:46:56.855
71, -4618.22, -5369.95, -5167.03, -4775.17, 0.000, 0.000, 0.000, 12:46:56.855
72, -4704.33, -5412.54, -5271.98, -4727.28, 0.000, 0.000, 0.000, 12:46:56.855
73, -4681.83, -5396.89, -5252.12, -4742.61, 0.000, 0.000, 0.000, 12:46:56.856
74, -4617.37, -5375.62, -5178.18, -4769.07, 0.000, 0.000, 0.000, 12:46:56.856
75, -4621.58, -5355.24, -5175.91, -4787.83, 0.000, 0.000, 0.000, 12:46:56.857
76, -4697.03, -5392.71, -5269.38, -4719.95, 0.000, 0.000, 0.000, 12:46:56.857
77, -4688.32, -5403.64, -5258.03, -4744.50, 0.000, 0.000, 0.000, 12:46:56.870
78, -4630.14, -5380.01, -5185.28, -4777.37, 0.000, 0.000, 0.000, 12:46:56.870
79, -4631.69, -5388.34, -5189.32, -4771.15, 0.000, 0.000, 0.000, 12:46:56.885
80, -4697.43, -5388.44, -5262.99, -4724.80, 0.000, 0.000, 0.000, 12:46:56.885
81, -4689.40, -5405.93, -5243.71, -4737.14, 0.000, 0.000, 0.000, 12:46:56.900
82, -4632.91, -5367.02, -5182.73, -4793.94, 0.000, 0.000, 0.000, 12:46:56.900
83, -4627.76, -5365.56, -5165.95, -4777.54, 0.000, 0.000, 0.000, 12:46:56.900
84, -4711.74, -5391.26, -5264.41, -4722.01, 0.000, 0.000, 0.000, 12:46:56.901
85, -4694.75, -5419.29, -5256.05, -4745.34, 0.000, 0.000, 0.000, 12:46:56.915
86, -4639.16, -5390.09, -5197.68, -4770.94, 0.000, 0.000, 0.000, 12:46:56.915
87, -4608.29, -5348.97, -5184.37, -4770.51, 0.000, 0.000, 0.000, 12:46:56.930
88, -4700.40, -5398.61, -5285.16, -4712.07, 0.000, 0.000, 0.000, 12:46:56.931
89, -4684.78, -5396.14, -5230.47, -4737.39, 0.000, 0.000, 0.000, 12:46:56.931
90, -4634.44, -5388.37, -5185.45, -4791.04, 0.000, 0.000, 0.000, 12:46:56.931
91, -4624.08, -5358.70, -5177.64, -4784.35, 0.000, 0.000, 0.000, 12:46:56.945
92, -4704.42, -5398.61, -5277.47, -4722.68, 0.000, 0.000, 0.000, 12:46:56.946
93, -4688.95, -5410.08, -5244.96, -4754.27, 0.000, 0.000, 0.000, 12:46:56.960
94, -4627.50, -5378.87, -5185.92, -4772.01, 0.000, 0.000, 0.000, 12:46:56.960
95, -4622.93, -5369.57, -5180.63, -4771.54, 0.000, 0.000, 0.000, 12:46:56.960
96, -4702.48, -5403.76, -5290.92, -4721.74, 0.000, 0.000, 0.000, 12:46:56.960
97, -4686.28, -5427.84, -5251.78, -4743.80, 0.000, 0.000, 0.000, 12:46:56.974
98, -4619.82, -5382.08, -5174.31, -4768.19, 0.000, 0.000, 0.000, 12:46:56.974
99, -4613.34, -5337.96, -5166.74, -4770.97, 0.000, 0.000, 0.000, 12:46:56.990
100, -4700.93, -5394.34, -5273.15, -4726.13, 0.000, 0.000, 0.000, 12:46:56.990
101, -4673.22, -5412.79, -5246.14, -4744.63, 0.000, 0.000, 0.000, 12:46:56.992
102, -4626.05, -5376.65, -5192.24, -4782.95, 0.000, 0.000, 0.000, 12:46:56.992
103, -4619.45, -5366.03, -5198.11, -4766.23, 0.000, 0.000, 0.000, 12:46:57.005
104, -4696.02, -5405.07, -5271.37, -4714.50, 0.000, 0.000, 0.000, 12:46:57.005
105, -4684.92, -5423.04, -5240.13, -4742.42, 0.000, 0.000, 0.000, 12:46:57.019
106, -4623.77, -5388.21, -5184.66, -4770.15, 0.000, 0.000, 0.000, 12:46:57.019
107, -4617.56, -5378.77, -5184.76, -4766.60, 0.000, 0.000, 0.000, 12:46:57.034
108, -4703.54, -5406.79, -5280.75, -4716.87, 0.000, 0.000, 0.000, 12:46:57.034
109, -4683.62, -5413.41, -5244.21, -4747.72, 0.000, 0.000, 0.000, 12:46:57.035
110, -4623.10, -5361.23, -5166.47, -4768.53, 0.000, 0.000, 0.000, 12:46:57.035
111, -4622.96, -5356.37, -5185.85, -4766.32, 0.000, 0.000, 0.000, 12:46:57.049
112, -4686.60, -5399.78, -5278.74, -4713.88, 0.000, 0.000, 0.000, 12:46:57.049
113, -4691.02, -5415.84, -5248.76, -4748.06, 0.000, 0.000, 0.000, 12:46:57.050
114, -4630.55, -5391.93, -5183.61, -4786.68, 0.000, 0.000, 0.000, 12:46:57.050
115, -4626.27, -5364.29, -5208.73, -4771.80, 0.000, 0.000, 0.000, 12:46:57.064
116, -4703.49, -5404.95, -5283.44, -4716.05, 0.000, 0.000, 0.000, 12:46:57.064
117, -4687.14, -5419.23, -5222.27, -4756.41, 0.000, 0.000, 0.000, 12:46:57.079
118, -4629.10, -5369.30, -5210.74, -4786.26, 0.000, 0.000, 0.000, 12:46:57.079
119, -4624.85, -5364.50, -5169.40, -4775.57, 0.000, 0.000, 0.000, 12:46:57.080
120, -4724.64, -5420.42, -5271.96, -4718.62, 0.000, 0.000, 0.000, 12:46:57.080
121, -4688.78, -5392.20, -5243.15, -4747.81, 0.000, 0.000, 0.000, 12:46:57.109
122, -4625.61, -5360.42, -5170.77, -4775.87, 0.000, 0.000, 0.000, 12:46:57.109
123, -4622.30, -5376.82, -5183.36, -4757.85, 0.000, 0.000, 0.000, 12:46:57.111
124, -4703.71, -5389.05, -5285.71, -4725.52, 0.000, 0.000, 0.000, 12:46:57.111
125, -4685.27, -5401.69, -5245.30, -4741.23, 0.000, 0.000, 0.000, 12:46:57.111
126, -4622.39, -5378.57, -5170.56, -4781.14, 0.000, 0.000, 0.000, 12:46:57.111
127, -4623.86, -5363.59, -5184.25, -4764.85, 0.000, 0.000, 0.000, 12:46:57.124
128, -4698.42, -5396.11, -5259.27, -4720.33, 0.000, 0.000, 0.000, 12:46:57.125
129, -4684.50, -5416.19, -5284.07, -4761.12, 0.000, 0.000, 0.000, 12:46:57.139
130, -4614.52, -5373.27, -5171.32, -4767.75, 0.000, 0.000, 0.000, 12:46:57.140
131, -4628.32, -5354.29, -5183.28, -4767.26, 0.000, 0.000, 0.000, 12:46:57.140
132, -4710.89, -5416.06, -5297.05, -4734.83, 0.000, 0.000, 0.000, 12:46:57.140
133, -4678.06, -5424.64, -5239.59, -4758.54, 0.000, 0.000, 0.000, 12:46:57.161
134, -4617.90, -5382.59, -5163.29, -4788.94, 0.000, 0.000, 0.000, 12:46:57.161
135, -4625.18, -5363.14, -5183.14, -4757.52, 0.000, 0.000, 0.000, 12:46:57.169
136, -4701.81, -5386.70, -5266.13, -4719.72, 0.000, 0.000, 0.000, 12:46:57.169
137, -4683.70, -5404.51, -5238.11, -4736.11, 0.000, 0.000, 0.000, 12:46:57.170
138, -4618.02, -5373.59, -5166.21, -4784.28, 0.000, 0.000, 0.000, 12:46:57.170
139, -4626.99, -5383.38, -5200.07, -4770.49, 0.000, 0.000, 0.000, 12:46:57.185
140, -4703.22, -5391.67, -5271.82, -4716.98, 0.000, 0.000, 0.000, 12:46:57.185
141, -4683.37, -5410.96, -5246.61, -4751.12, 0.000, 0.000, 0.000, 12:46:57.199
142, -4628.95, -5378.00, -5167.40, -4787.75, 0.000, 0.000, 0.000, 12:46:57.199
143, -4635.98, -5365.54, -5173.06, -4762.78, 0.000, 0.000, 0.000, 12:46:57.200
144, -4693.07, -5390.09, -5254.20, -4713.84, 0.000, 0.000, 0.000, 12:46:57.200
145, -4670.56, -5399.79, -5225.18, -4738.16, 0.000, 0.000, 0.000, 12:46:57.214
146, -4628.04, -5373.95, -5180.03, -4783.07, 0.000, 0.000, 0.000, 12:46:57.214
147, -4627.56, -5362.87, -5217.13, -4768.40, 0.000, 0.000, 0.000, 12:46:57.229
148, -4687.80, -5397.18, -5278.18, -4696.41, 0.000, 0.000, 0.000, 12:46:57.229
149, -4698.37, -5394.02, -5230.67, -4747.15, 0.000, 0.000, 0.000, 12:46:57.229
150, -4614.34, -5332.18, -5149.85, -4768.59, 0.000, 0.000, 0.000, 12:46:57.230
151, -4628.95, -5331.82, -5175.47, -4745.02, 0.000, 0.000, 0.000, 12:46:57.245
152, -4711.62, -5407.71, -5292.22, -4716.99, 0.000, 0.000, 0.000, 12:46:57.245
153, -4650.08, -5375.78, -5208.01, -4722.17, 0.000, 0.000, 0.000, 12:46:57.275
154, -4625.88, -5396.44, -5184.06, -4773.99, 0.000, 0.000, 0.000, 12:46:57.275
155, -4609.93, -5362.81, -5188.97, -4761.89, 0.000, 0.000, 0.000, 12:46:57.275
156, -4683.55, -5375.98, -5259.16, -4709.62, 0.000, 0.000, 0.000, 12:46:57.275
157, -4686.85, -5401.15, -5227.62, -4751.56, 0.000, 0.000, 0.000, 12:46:57.276
158, -4620.93, -5370.24, -5152.30, -4778.72, 0.000, 0.000, 0.000, 12:46:57.276
159, -4631.69, -5367.97, -5177.37, -4779.36, 0.000, 0.000, 0.000, 12:46:57.276
160, -4691.95, -5382.03, -5252.98, -4707.85, 0.000, 0.000, 0.000, 12:46:57.276
161, -4673.21, -5396.79, -5226.70, -4755.10, 0.000, 0.000, 0.000, 12:46:57.289
162, -4650.05, -5407.11, -5206.14, -4814.72, 0.000, 0.000, 0.000, 12:46:57.289
163, -4647.16, -5372.44, -5203.16, -4783.69, 0.000, 0.000, 0.000, 12:46:57.305
164, -4713.24, -5401.31, -5279.31, -4733.94, 0.000, 0.000, 0.000, 12:46:57.305
165, -4673.18, -5412.71, -5238.92, -4748.61, 0.000, 0.000, 0.000, 12:46:57.319
166, -4628.93, -5399.98, -5210.37, -4798.42, 0.000, 0.000, 0.000, 12:46:57.319
167, -4645.05, -5353.79, -5165.00, -4772.21, 0.000, 0.000, 0.000, 12:46:57.320
168, -4706.13, -5388.18, -5252.79, -4731.69, 0.000, 0.000, 0.000, 12:46:57.320
169, -4680.90, -5380.48, -5224.33, -4763.43, 0.000, 0.000, 0.000, 12:46:57.335
170, -4617.72, -5359.88, -5178.44, -4773.50, 0.000, 0.000, 0.000, 12:46:57.335
171, -4633.51, -5360.75, -5185.50, -4755.34, 0.000, 0.000, 0.000, 12:46:57.364
172, -4705.59, -5388.14, -5266.06, -4719.07, 0.000, 0.000, 0.000, 12:46:57.365
173, -4672.99, -5402.39, -5226.70, -4735.20, 0.000, 0.000, 0.000, 12:46:57.365
174, -4603.21, -5366.61, -5162.02, -4777.84, 0.000, 0.000, 0.000, 12:46:57.365
175, -4633.55, -5354.22, -5190.26, -4764.21, 0.000, 0.000, 0.000, 12:46:57.366
176, -4705.07, -5406.20, -5302.03, -4729.43, 0.000, 0.000, 0.000, 12:46:57.366
177, -4677.44, -5416.97, -5230.05, -4759.67, 0.000, 0.000, 0.000, 12:46:57.366
178, -4622.94, -5384.48, -5172.41, -4769.62, 0.000, 0.000, 0.000, 12:46:57.367
179, -4621.78, -5342.47, -5165.81, -4754.56, 0.000, 0.000, 0.000, 12:46:57.380
180, -4707.98, -5406.81, -5286.57, -4721.49, 0.000, 0.000, 0.000, 12:46:57.380
181, -4689.99, -5419.59, -5255.16, -4767.16, 0.000, 0.000, 0.000, 12:46:57.410
182, -4620.86, -5395.63, -5172.63, -4771.81, 0.000, 0.000, 0.000, 12:46:57.410
183, -4644.10, -5379.56, -5213.19, -4782.18, 0.000, 0.000, 0.000, 12:46:57.410
184, -4725.11, -5412.66, -5315.51, -4731.27, 0.000, 0.000, 0.000, 12:46:57.410
185, -4681.19, -5413.03, -5238.23, -4760.94, 0.000, 0.000, 0.000, 12:46:57.424
186, -4607.81, -5385.00, -5161.17, -4775.77, 0.000, 0.000, 0.000, 12:46:57.424
187, -4628.07, -5383.41, -5201.25, -4760.27, 0.000, 0.000, 0.000, 12:46:57.440
188, -4693.38, -5391.32, -5272.08, -4714.36, 0.000, 0.000, 0.000, 12:46:57.440
189, -4675.52, -5401.08, -5222.17, -4744.41, 0.000, 0.000, 0.000, 12:46:57.441
190, -4615.58, -5351.31, -5152.64, -4776.84, 0.000, 0.000, 0.000, 12:46:57.441
191, -4627.60, -5357.31, -5192.46, -4759.41, 0.000, 0.000, 0.000, 12:46:57.441
192, -4697.78, -5410.71, -5286.34, -4727.50, 0.000, 0.000, 0.000, 12:46:57.441
193, -4657.74, -5405.71, -5230.23, -4743.63, 0.000, 0.000, 0.000, 12:46:57.455
194, -4601.52, -5355.30, -5168.28, -4787.18, 0.000, 0.000, 0.000, 12:46:57.455
195, -4645.63, -5367.14, -5192.82, -4760.75, 0.000, 0.000, 0.000, 12:46:57.469
196, -4720.86, -5409.24, -5307.55, -4719.71, 0.000, 0.000, 0.000, 12:46:57.470
197, -4674.50, -5402.53, -5220.16, -4735.55, 0.000, 0.000, 0.000, 12:46:57.470
198, -4611.19, -5368.48, -5167.43, -4784.15, 0.000, 0.000, 0.000, 12:46:57.470
199, -4649.12, -5388.05, -5236.98, -4770.44, 0.000, 0.000, 0.000, 12:46:57.484
200, -4706.51, -5394.40, -5260.95, -4714.26, 0.000, 0.000, 0.000, 12:46:57.484
0, -4677.34, -5376.63, -5223.15, -4743.17, 0.000, 0.000, 0.000, 12:46:57.485
1, -4608.79, -5343.77, -5154.47, -4770.69, 0.000, 0.000, 0.000, 12:46:57.499
2, -4645.24, -5378.08, -5209.59, -4761.94, 0.000, 0.000, 0.000, 12:46:57.499
3, -4704.61, -5389.02, -5269.25, -4712.80, 0.000, 0.000, 0.000, 12:46:57.514
4, -4673.26, -5418.73, -5253.75, -4749.72, 0.000, 0.000, 0.000, 12:46:57.514
5, -4622.53, -5369.07, -5187.39, -4794.25, 0.000, 0.000, 0.000, 12:46:57.515
6, -4640.54, -5360.16, -5216.71, -4754.80, 0.000, 0.000, 0.000, 12:46:57.515
7, -4708.87, -5404.75, -5269.08, -4729.48, 0.000, 0.000, 0.000, 12:46:57.529
8, -4651.59, -5364.71, -5189.45, -4733.97, 0.000, 0.000, 0.000, 12:46:57.529
9, -4594.39, -5342.73, -5138.99, -4761.91, 0.000, 0.000, 0.000, 12:46:57.544
10, -4639.64, -5361.75, -5205.69, -4775.01, 0.000, 0.000, 0.000, 12:46:57.545
11, -4705.07, -5414.95, -5297.24, -4713.26, 0.000, 0.000, 0.000, 12:46:57.551
12, -4687.32, -5434.10, -5253.17, -4767.42, 0.000, 0.000, 0.000, 12:46:57.551
13, -4608.48, -5369.97, -5164.39, -4778.60, 0.000, 0.000, 0.000, 12:46:57.560
14, -4634.28, -5361.13, -5200.95, -4745.39, 0.000, 0.000, 0.000, 12:46:57.560
15, -4711.23, -5409.95, -5268.70, -4730.68, 0.000, 0.000, 0.000, 12:46:57.574
16, -4674.52, -5398.93, -5225.44, -4754.54, 0.000, 0.000, 0.000, 12:46:57.575
17, -4631.42, -5383.08, -5186.80, -4786.52, 0.000, 0.000, 0.000, 12:46:57.575
18, -4639.41, -5366.58, -5223.69, -4764.40, 0.000, 0.000, 0.000, 12:46:57.575
19, -4722.55, -5425.99, -5285.05, -4736.12, 0.000, 0.000, 0.000, 12:46:57.590
20, -4671.00, -5397.34, -5204.64, -4761.06, 0.000, 0.000, 0.000, 12:46:57.590
21, -4629.94, -5384.95, -5183.10, -4778.23, 0.000, 0.000, 0.000, 12:46:57.604
22, -4641.00, -5364.47, -5203.61, -4762.00, 0.000, 0.000, 0.000, 12:46:57.605
23, -4733.12, -5447.99, -5315.73, -4741.07, 0.000, 0.000, 0.000, 12:46:57.605
24, -4691.20, -5429.36, -5261.21, -4762.75, 0.000, 0.000, 0.000, 12:46:57.605
25, -4626.37, -5391.85, -5161.21, -4792.98, 0.000, 0.000, 0.000, 12:46:57.619
26, -4629.58, -5350.87, -5178.13, -4754.39, 0.000, 0.000, 0.000, 12:46:57.619
27, -4726.96, -5416.64, -5282.60, -4737.65, 0.000, 0.000, 0.000, 12:46:57.635
28, -4693.34, -5417.73, -5265.94, -4776.62, 0.000, 0.000, 0.000, 12:46:57.635
29, -4605.63, -5358.82, -5154.26, -4780.41, 0.000, 0.000, 0.000, 12:46:57.635
30, -4640.22, -5377.18, -5204.66, -4767.55, 0.000, 0.000, 0.000, 12:46:57.635
31, -4715.00, -5430.46, -5292.10, -4748.99, 0.000, 0.000, 0.000, 12:46:57.649
32, -4660.13, -5397.81, -5225.31, -4758.47, 0.000, 0.000, 0.000, 12:46:57.649
33, -4605.69, -5369.63, -5156.56, -4777.07, 0.000, 0.000, 0.000, 12:46:57.664
34, -4656.78, -5387.29, -5210.49, -4760.25, 0.000, 0.000, 0.000, 12:46:57.664
35, -4727.43, -5435.86, -5280.25, -4739.12, 0.000, 0.000, 0.000, 12:46:57.664
36, -4686.70, -5422.53, -5248.61, -4763.43, 0.000, 0.000, 0.000, 12:46:57.665
37, -4627.11, -5376.91, -5182.46, -4797.84, 0.000, 0.000, 0.000, 12:46:57.680
38, -4638.39, -5351.88, -5194.89, -4752.80, 0.000, 0.000, 0.000, 12:46:57.680
39, -4709.95, -5400.42, -5269.55, -4716.06, 0.000, 0.000, 0.000, 12:46:57.695
40, -4670.36, -5410.63, -5236.79, -4758.85, 0.000, 0.000, 0.000, 12:46:57.695
41, -4633.03, -5392.10, -5169.31, -4802.30, 0.000, 0.000, 0.000, 12:46:57.695
42, -4632.66, -5352.72, -5187.80, -4758.09, 0.000, 0.000, 0.000, 12:46:57.695
43, -4698.69, -5403.30, -5267.56, -4721.02, 0.000, 0.000, 0.000, 12:46:57.709
44, -4666.35, -5401.21, -5251.00, -4754.31, 0.000, 0.000, 0.000, 12:46:57.709
45, -4624.00, -5380.27, -5183.71, -4786.98, 0.000, 0.000, 0.000, 12:46:57.725
46, -4638.95, -5369.44, -5197.81, -4762.32, 0.000, 0.000, 0.000, 12:46:57.725
47, -4707.43, -5407.58, -5256.27, -4722.95, 0.000, 0.000, 0.000, 12:46:57.726
48, -4671.99, -5402.58, -5229.42, -4751.82, 0.000, 0.000, 0.000, 12:46:57.726
49, -4605.42, -5370.28, -5165.14, -4795.42, 0.000, 0.000, 0.000, 12:46:57.739
50, -4645.97, -5371.00, -5226.30, -4759.04, 0.000, 0.000, 0.000, 12:46:57.740
51, -4699.39, -5392.71, -5258.14, -4709.18, 0.000, 0.000, 0.000, 12:46:57.754
52, -4658.29, -5396.96, -5217.33, -4743.79, 0.000, 0.000, 0.000, 12:46:57.754
53, -4611.44, -5367.99, -5156.03, -4779.06, 0.000, 0.000, 0.000, 12:46:57.755
54, -4648.30, -5364.78, -5204.08, -4756.51, 0.000, 0.000, 0.000, 12:46:57.755
55, -4703.89, -5399.27, -5283.95, -4725.80, 0.000, 0.000, 0.000, 12:46:57.769
56, -4656.89, -5381.53, -5213.61, -4755.13, 0.000, 0.000, 0.000, 12:46:57.769
57, -4611.21, -5363.85, -5152.53, -4798.92, 0.000, 0.000, 0.000, 12:46:57.784
58, -4644.18, -5363.11, -5200.86, -4746.91, 0.000, 0.000, 0.000, 12:46:57.784
59, -4717.00, -5403.50, -5278.19, -4725.18, 0.000, 0.000, 0.000, 12:46:57.785
60, -4672.36, -5392.98, -5231.50, -4747.61, 0.000, 0.000, 0.000, 12:46:57.785
61, -4610.26, -5367.35, -5157.56, -4780.33, 0.000, 0.000, 0.000, 12:46:57.800
62, -4637.22, -5361.52, -5192.78, -4754.89, 0.000, 0.000, 0.000, 12:46:57.800
63, -4704.98, -5402.12, -5267.38, -4721.31, 0.000, 0.000, 0.000, 12:46:57.814
64, -4661.90, -5401.48, -5218.83, -4754.79, 0.000, 0.000, 0.000, 12:46:57.815
65, -4608.91, -5368.91, -5154.00, -4771.52, 0.000, 0.000, 0.000, 12:46:57.815
66, -4643.83, -5357.74, -5203.51, -4745.98, 0.000, 0.000, 0.000, 12:46:57.815
67, -4704.91, -5399.56, -5284.25, -4715.14, 0.000, 0.000, 0.000, 12:46:57.829
68, -4669.03, -5391.99, -5229.19, -4747.08, 0.000, 0.000, 0.000, 12:46:57.829
69, -4609.48, -5358.55, -5156.58, -4777.48, 0.000, 0.000, 0.000, 12:46:57.845
70, -4663.46, -5369.72, -5222.58, -4766.93, 0.000, 0.000, 0.000, 12:46:57.845
71, -4719.78, -5406.86, -5279.04, -4721.31, 0.000, 0.000, 0.000, 12:46:57.845
72, -4677.18, -5423.56, -5229.13, -4763.88, 0.000, 0.000, 0.000, 12:46:57.845
73, -4614.54, -5375.67, -5165.84, -4772.91, 0.000, 0.000, 0.000, 12:46:57.860
74, -4645.80, -5362.04, -5215.06, -4754.13, 0.000, 0.000, 0.000, 12:46:57.860
75, -4716.43, -5412.24, -5276.91, -4724.78, 0.000, 0.000, 0.000, 12:46:57.875
76, -4666.30, -5409.64, -5221.50, -4754.56, 0.000, 0.000, 0.000, 12:46:57.875
77, -4613.97, -5375.16, -5159.24, -4778.51, 0.000, 0.000, 0.000, 12:46:57.875
78, -4657.08, -5390.88, -5216.64, -4749.49, 0.000, 0.000, 0.000, 12:46:57.876
79, -4711.83, -5410.60, -5295.92, -4714.87, 0.000, 0.000, 0.000, 12:46:57.890
80, -4654.92, -5378.63, -5218.76, -4751.04, 0.000, 0.000, 0.000, 12:46:57.890
81, -4607.14, -5363.54, -5145.25, -4784.54, 0.000, 0.000, 0.000, 12:46:57.904
82, -4649.75, -5382.04, -5201.94, -4755.17, 0.000, 0.000, 0.000, 12:46:57.904
83, -4701.25, -5408.74, -5282.22, -4719.08, 0.000, 0.000, 0.000, 12:46:57.905
84, -4665.00, -5401.79, -5225.86, -4751.93, 0.000, 0.000, 0.000, 12:46:57.905
85, -4614.80, -5377.58, -5175.21, -4770.59, 0.000, 0.000, 0.000, 12:46:57.920
86, -4658.05, -5366.54, -5203.90, -4743.81, 0.000, 0.000, 0.000, 12:46:57.920
87, -4723.19, -5405.36, -5275.28, -4720.20, 0.000, 0.000, 0.000, 12:46:57.934
88, -4669.29, -5395.33, -5229.72, -4748.72, 0.000, 0.000, 0.000, 12:46:57.934
89, -4612.03, -5375.91, -5155.41, -4781.42, 0.000, 0.000, 0.000, 12:46:57.935
90, -4653.34, -5369.58, -5215.09, -4744.73, 0.000, 0.000, 0.000, 12:46:57.935
91, -4712.78, -5415.90, -5287.91, -4715.91, 0.000, 0.000, 0.000, 12:46:57.950
92, -4660.19, -5405.40, -5231.05, -4768.08, 0.000, 0.000, 0.000, 12:46:57.950
93, -4606.24, -5372.79, -5171.33, -4786.10, 0.000, 0.000, 0.000, 12:46:57.964
94, -4641.44, -5368.95, -5211.31, -4743.57, 0.000, 0.000, 0.000, 12:46:57.965
95, -4698.08, -5418.56, -5294.75, -4735.69, 0.000, 0.000, 0.000, 12:46:57.965
96, -4661.34, -5424.51, -5242.94, -4772.15, 0.000, 0.000, 0.000, 12:46:57.965
97, -4611.54, -5365.48, -5150.52, -4780.51, 0.000, 0.000, 0.000, 12:46:57.986
98, -4661.22, -5354.94, -5204.38, -4735.17, 0.000, 0.000, 0.000, 12:46:57.986
99, -4710.57, -5409.37, -5272.75, -4730.79, 0.000, 0.000, 0.000, 12:46:57.995
100, -4668.92, -5396.54, -5229.68, -4766.81, 0.000, 0.000, 0.000, 12:46:57.995
