%OpenBCI Raw EEG Data
%
%Sample Rate = 200.0 Hz
%First Column = SampleIndex
%Last Column = Timestamp 
%Other Columns = EEG data in microvolts followed by Accel Data (in G) interleaved with Aux Data
0, -4098.71, -4682.13, -4483.33, -3627.92, 0.000, 0.000, 0.000, 12:30:09.165
1, -4085.75, -4700.03, -4485.29, -3582.43, 0.000, 0.000, 0.000, 12:30:09.180
2, -3991.07, -4677.73, -4406.65, -3625.86, 0.000, 0.000, 0.000, 12:30:09.181
3, -3949.07, -4655.46, -4396.56, -3695.07, 0.000, 0.000, 0.000, 12:30:09.195
4, -4037.54, -4694.43, -4534.98, -3585.59, 0.000, 0.000, 0.000, 12:30:09.196
5, -4052.05, -4704.09, -4491.67, -3545.19, 0.000, 0.000, 0.000, 12:30:09.197
6, -3986.28, -4674.91, -4428.17, -3615.10, 0.000, 0.000, 0.000, 12:30:09.197
7, -3959.04, -4627.74, -4350.84, -3670.10, 0.000, 0.000, 0.000, 12:30:09.215
8, -4067.11, -4664.17, -4451.72, -3563.55, 0.000, 0.000, 0.000, 12:30:09.215
9, -4085.06, -4718.38, -4462.07, -3543.10, 0.000, 0.000, 0.000, 12:30:09.223
10, -4031.17, -4640.15, -4440.19, -3630.79, 0.000, 0.000, 0.000, 12:30:09.223
11, -4013.00, -4628.81, -4383.09, -3670.44, 0.000, 0.000, 0.000, 12:30:09.224
12, -4104.18, -4632.29, -4410.87, -3575.22, 0.000, 0.000, 0.000, 12:30:09.224
13, -4100.84, -4604.07, -4433.57, -3523.47, 0.000, 0.000, 0.000, 12:30:09.239
14, -4047.30, -4618.63, -4390.89, -3588.65, 0.000, 0.000, 0.000, 12:30:09.239
15, -4028.93, -4583.90, -4334.72, -3657.64, 0.000, 0.000, 0.000, 12:30:09.253
16, -4126.52, -4623.81, -4425.26, -3569.15, 0.000, 0.000, 0.000, 12:30:09.254
17, -4131.58, -4644.17, -4424.87, -3524.04, 0.000, 0.000, 0.000, 12:30:09.254
18, -4065.56, -4592.28, -4350.42, -3599.02, 0.000, 0.000, 0.000, 12:30:09.254
19, -4059.30, -4568.25, -4325.70, -3672.32, 0.000, 0.000, 0.000, 12:30:09.270
20, -4149.67, -4644.21, -4440.12, -3561.10, 0.000, 0.000, 0.000, 12:30:09.271
21, -4165.67, -4651.41, -4443.87, -3532.30, 0.000, 0.000, 0.000, 12:30:09.289
22, -4079.80, -4558.72, -4331.65, -3594.26, 0.000, 0.000, 0.000, 12:30:09.295
23, -4057.78, -4552.35, -4313.46, -3654.52, 0.000, 0.000, 0.000, 12:30:09.296
24, -4151.69, -4624.32, -4490.77, -3587.37, 0.000, 0.000, 0.000, 12:30:09.298
25, -4152.69, -4651.21, -4424.77, -3530.70, 0.000, 0.000, 0.000, 12:30:09.335
26, -4078.73, -4603.51, -4375.94, -3606.02, 0.000, 0.000, 0.000, 12:30:09.336
27, -4062.46, -4572.83, -4297.10, -3652.65, 0.000, 0.000, 0.000, 12:30:09.341
28, -4138.26, -4573.59, -4389.37, -3563.97, 0.000, 0.000, 0.000, 12:30:09.342
29, -4129.45, -4576.70, -4377.08, -3543.56, 0.000, 0.000, 0.000, 12:30:09.343
30, -4072.19, -4556.54, -4321.55, -3582.78, 0.000, 0.000, 0.000, 12:30:09.343
31, -4056.36, -4584.86, -4305.00, -3644.33, 0.000, 0.000, 0.000, 12:30:09.344
32, -4154.70, -4603.51, -4452.06, -3562.08, 0.000, 0.000, 0.000, 12:30:09.344
33, -4150.31, -4598.25, -4413.29, -3525.45, 0.000, 0.000, 0.000, 12:30:09.354
34, -4075.06, -4588.17, -4393.01, -3575.12, 0.000, 0.000, 0.000, 12:30:09.355
35, -4063.29, -4563.42, -4303.79, -3677.32, 0.000, 0.000, 0.000, 12:30:09.355
36, -4154.16, -4578.90, -4388.34, -3559.80, 0.000, 0.000, 0.000, 12:30:09.356
37, -4149.93, -4633.08, -4397.82, -3521.41, 0.000, 0.000, 0.000, 12:30:09.359
38, -4080.58, -4637.75, -4376.80, -3597.19, 0.000, 0.000, 0.000, 12:30:09.359
39, -4050.25, -4520.12, -4322.23, -3642.00, 0.000, 0.000, 0.000, 12:30:09.390
40, -4145.60, -4567.44, -4413.37, -3558.70, 0.000, 0.000, 0.000, 12:30:09.390
41, -4137.59, -4599.58, -4380.97, -3532.58, 0.000, 0.000, 0.000, 12:30:09.391
42, -4067.00, -4560.02, -4311.62, -3591.23, 0.000, 0.000, 0.000, 12:30:09.391
43, -4035.15, -4545.24, -4313.58, -3649.42, 0.000, 0.000, 0.000, 12:30:09.392
44, -4133.41, -4602.72, -4419.03, -3566.61, 0.000, 0.000, 0.000, 12:30:09.392
45, -4122.86, -4589.24, -4409.61, -3517.28, 0.000, 0.000, 0.000, 12:30:09.403
46, -4043.71, -4582.70, -4323.35, -3584.02, 0.000, 0.000, 0.000, 12:30:09.404
47, -4022.38, -4562.49, -4265.89, -3647.37, 0.000, 0.000, 0.000, 12:30:09.404
48, -4129.82, -4588.44, -4405.78, -3543.79, 0.000, 0.000, 0.000, 12:30:09.404
49, -4121.14, -4600.42, -4418.01, -3520.61, 0.000, 0.000, 0.000, 12:30:09.418
50, -4053.76, -4563.87, -4319.08, -3577.30, 0.000, 0.000, 0.000, 12:30:09.418
51, -4030.06, -4529.93, -4306.11, -3640.84, 0.000, 0.000, 0.000, 12:30:09.433
52, -4123.27, -4576.72, -4405.22, -3547.95, 0.000, 0.000, 0.000, 12:30:09.433
53, -4137.00, -4620.78, -4425.92, -3522.07, 0.000, 0.000, 0.000, 12:30:09.434
54, -4057.64, -4568.53, -4297.63, -3582.71, 0.000, 0.000, 0.000, 12:30:09.434
55, -4026.99, -4534.05, -4288.98, -3645.03, 0.000, 0.000, 0.000, 12:30:09.448
56, -4138.17, -4603.38, -4417.70, -3557.42, 0.000, 0.000, 0.000, 12:30:09.448
57, -4123.39, -4612.39, -4407.46, -3517.33, 0.000, 0.000, 0.000, 12:30:09.464
58, -4044.26, -4601.20, -4378.48, -3592.11, 0.000, 0.000, 0.000, 12:30:09.464
59, -4030.97, -4551.81, -4288.52, -3633.22, 0.000, 0.000, 0.000, 12:30:09.465
60, -4149.55, -4611.47, -4401.09, -3565.11, 0.000, 0.000, 0.000, 12:30:09.465
61, -4139.01, -4609.91, -4403.08, -3536.58, 0.000, 0.000, 0.000, 12:30:09.479
62, -4026.44, -4554.86, -4307.28, -3578.31, 0.000, 0.000, 0.000, 12:30:09.479
63, -4028.00, -4528.69, -4300.62, -3657.20, 0.000, 0.000, 0.000, 12:30:09.494
64, -4135.46, -4574.86, -4398.27, -3568.21, 0.000, 0.000, 0.000, 12:30:09.494
65, -4118.32, -4609.24, -4380.96, -3527.82, 0.000, 0.000, 0.000, 12:30:09.499
66, -4066.05, -4523.65, -4287.32, -3605.24, 0.000, 0.000, 0.000, 12:30:09.499
67, -4036.42, -4479.48, -4247.24, -3640.53, 0.000, 0.000, 0.000, 12:30:09.508
68, -4139.10, -4545.27, -4404.94, -3586.11, 0.000, 0.000, 0.000, 12:30:09.508
69, -4159.41, -4597.51, -4375.56, -3533.39, 0.000, 0.000, 0.000, 12:30:09.523
70, -4108.38, -4538.89, -4270.09, -3605.92, 0.000, 0.000, 0.000, 12:30:09.523
71, -4079.12, -4519.33, -4286.63, -3660.35, 0.000, 0.000, 0.000, 12:30:09.524
72, -4171.52, -4524.61, -4376.40, -3554.34, 0.000, 0.000, 0.000, 12:30:09.524
73, -4187.35, -4541.84, -4343.63, -3536.75, 0.000, 0.000, 0.000, 12:30:09.538
74, -4135.16, -4514.84, -4270.72, -3607.56, 0.000, 0.000, 0.000, 12:30:09.538
75, -4088.08, -4515.14, -4248.24, -3646.66, 0.000, 0.000, 0.000, 12:30:09.553
76, -4212.31, -4585.83, -4394.88, -3571.12, 0.000, 0.000, 0.000, 12:30:09.554
77, -4195.51, -4543.13, -4408.66, -3535.44, 0.000, 0.000, 0.000, 12:30:09.554
78, -4120.42, -4483.96, -4268.88, -3589.58, 0.000, 0.000, 0.000, 12:30:09.554
79, -4110.71, -4499.61, -4270.28, -3665.02, 0.000, 0.000, 0.000, 12:30:09.568
80, -4199.52, -4553.77, -4354.71, -3556.76, 0.000, 0.000, 0.000, 12:30:09.568
81, -4194.30, -4586.88, -4382.96, -3528.72, 0.000, 0.000, 0.000, 12:30:09.583
82, -4132.36, -4596.63, -4339.35, -3607.41, 0.000, 0.000, 0.000, 12:30:09.583
83, -4094.35, -4510.90, -4292.08, -3646.09, 0.000, 0.000, 0.000, 12:30:09.601
84, -4179.17, -4536.11, -4422.76, -3565.19, 0.000, 0.000, 0.000, 12:30:09.601
85, -4181.67, -4570.78, -4371.81, -3533.12, 0.000, 0.000, 0.000, 12:30:09.601
86, -4117.13, -4559.63, -4280.35, -3596.32, 0.000, 0.000, 0.000, 12:30:09.601
87, -4095.52, -4551.51, -4288.47, -3655.64, 0.000, 0.000, 0.000, 12:30:09.613
88, -4178.16, -4565.42, -4421.67, -3572.46, 0.000, 0.000, 0.000, 12:30:09.614
89, -4158.48, -4562.11, -4384.19, -3523.56, 0.000, 0.000, 0.000, 12:30:09.614
90, -4088.54, -4560.39, -4309.63, -3594.66, 0.000, 0.000, 0.000, 12:30:09.614
91, -4075.68, -4542.68, -4288.65, -3655.00, 0.000, 0.000, 0.000, 12:30:09.628
92, -4166.43, -4599.37, -4404.04, -3562.91, 0.000, 0.000, 0.000, 12:30:09.628
93, -4156.38, -4597.86, -4408.29, -3526.55, 0.000, 0.000, 0.000, 12:30:09.643
94, -4088.42, -4572.38, -4360.34, -3602.56, 0.000, 0.000, 0.000, 12:30:09.643
95, -4052.78, -4538.02, -4265.35, -3635.70, 0.000, 0.000, 0.000, 12:30:09.644
96, -4147.69, -4575.17, -4370.86, -3556.18, 0.000, 0.000, 0.000, 12:30:09.644
97, -4142.25, -4604.96, -4390.42, -3527.14, 0.000, 0.000, 0.000, 12:30:09.659
98, -4073.33, -4586.53, -4315.64, -3585.67, 0.000, 0.000, 0.000, 12:30:09.660
99, -4053.89, -4546.68, -4325.07, -3654.19, 0.000, 0.000, 0.000, 12:30:09.673
100, -4146.25, -4578.93, -4410.33, -3562.59, 0.000, 0.000, 0.000, 12:30:09.674
101, -4139.07, -4617.28, -4417.45, -3520.11, 0.000, 0.000, 0.000, 12:30:09.675
102, -4058.73, -4560.94, -4341.06, -3596.53, 0.000, 0.000, 0.000, 12:30:09.675
103, -4032.53, -4534.91, -4276.71, -3638.87, 0.000, 0.000, 0.000, 12:30:09.689
104, -4140.10, -4588.99, -4387.31, -3544.31, 0.000, 0.000, 0.000, 12:30:09.690
105, -4137.64, -4615.65, -4393.10, -3514.12, 0.000, 0.000, 0.000, 12:30:09.703
106, -4064.86, -4592.96, -4332.61, -3576.84, 0.000, 0.000, 0.000, 12:30:09.704
107, -4042.82, -4555.14, -4290.47, -3644.91, 0.000, 0.000, 0.000, 12:30:09.704
108, -4127.70, -4609.40, -4423.88, -3561.47, 0.000, 0.000, 0.000, 12:30:09.705
109, -4122.04, -4585.71, -4385.04, -3513.51, 0.000, 0.000, 0.000, 12:30:09.733
110, -4055.53, -4548.98, -4318.48, -3590.93, 0.000, 0.000, 0.000, 12:30:09.733
111, -4026.18, -4538.35, -4316.85, -3652.60, 0.000, 0.000, 0.000, 12:30:09.737
112, -4133.60, -4602.12, -4383.84, -3544.96, 0.000, 0.000, 0.000, 12:30:09.739
113, -4118.93, -4580.27, -4371.81, -3507.03, 0.000, 0.000, 0.000, 12:30:09.750
114, -4052.80, -4558.89, -4306.55, -3582.04, 0.000, 0.000, 0.000, 12:30:09.750
115, -4046.39, -4563.98, -4337.22, -3654.00, 0.000, 0.000, 0.000, 12:30:09.750
116, -4144.97, -4643.17, -4452.55, -3566.67, 0.000, 0.000, 0.000, 12:30:09.751
117, -4102.97, -4595.05, -4347.91, -3503.83, 0.000, 0.000, 0.000, 12:30:09.766
118, -4040.81, -4537.78, -4279.06, -3572.55, 0.000, 0.000, 0.000, 12:30:09.766
119, -4023.39, -4485.00, -4252.98, -3633.03, 0.000, 0.000, 0.000, 12:30:09.766
120, -4141.46, -4584.80, -4383.08, -3541.50, 0.000, 0.000, 0.000, 12:30:09.766
121, -4136.68, -4602.54, -4397.92, -3530.89, 0.000, 0.000, 0.000, 12:30:09.779
122, -4078.82, -4575.15, -4342.01, -3603.05, 0.000, 0.000, 0.000, 12:30:09.779
123, -4043.11, -4532.65, -4322.94, -3642.36, 0.000, 0.000, 0.000, 12:30:09.794
124, -4131.74, -4589.78, -4382.81, -3556.73, 0.000, 0.000, 0.000, 12:30:09.794
125, -4126.03, -4592.10, -4352.70, -3511.27, 0.000, 0.000, 0.000, 12:30:09.794
126, -4060.53, -4550.26, -4288.91, -3585.77, 0.000, 0.000, 0.000, 12:30:09.794
127, -4034.02, -4532.64, -4300.09, -3644.06, 0.000, 0.000, 0.000, 12:30:09.808
128, -4124.08, -4562.44, -4402.96, -3554.67, 0.000, 0.000, 0.000, 12:30:09.809
129, -4129.59, -4602.40, -4373.71, -3524.05, 0.000, 0.000, 0.000, 12:30:09.823
130, -4073.56, -4591.35, -4333.09, -3586.38, 0.000, 0.000, 0.000, 12:30:09.825
131, -4047.96, -4561.89, -4303.87, -3645.46, 0.000, 0.000, 0.000, 12:30:09.827
132, -4138.33, -4598.59, -4388.26, -3560.76, 0.000, 0.000, 0.000, 12:30:09.827
133, -4122.55, -4575.23, -4353.60, -3523.29, 0.000, 0.000, 0.000, 12:30:09.838
134, -4071.83, -4575.86, -4324.01, -3594.08, 0.000, 0.000, 0.000, 12:30:09.838
135, -4041.90, -4567.38, -4330.72, -3644.87, 0.000, 0.000, 0.000, 12:30:09.868
136, -4128.86, -4612.07, -4392.29, -3555.87, 0.000, 0.000, 0.000, 12:30:09.869
137, -4139.31, -4601.12, -4396.37, -3527.18, 0.000, 0.000, 0.000, 12:30:09.869
138, -4051.77, -4534.11, -4301.79, -3588.86, 0.000, 0.000, 0.000, 12:30:09.869
139, -4030.32, -4527.99, -4280.57, -3637.80, 0.000, 0.000, 0.000, 12:30:09.870
140, -4134.25, -4588.25, -4390.66, -3556.13, 0.000, 0.000, 0.000, 12:30:09.870
141, -4128.24, -4616.01, -4402.17, -3517.13, 0.000, 0.000, 0.000, 12:30:09.870
142, -4073.30, -4602.70, -4356.15, -3581.94, 0.000, 0.000, 0.000, 12:30:09.870
143, -4046.83, -4561.10, -4307.39, -3641.86, 0.000, 0.000, 0.000, 12:30:09.883
144, -4132.50, -4577.43, -4398.43, -3556.69, 0.000, 0.000, 0.000, 12:30:09.884
145, -4127.99, -4610.38, -4406.67, -3513.74, 0.000, 0.000, 0.000, 12:30:09.898
146, -4060.48, -4570.44, -4315.76, -3585.90, 0.000, 0.000, 0.000, 12:30:09.898
147, -4031.93, -4559.16, -4302.96, -3636.17, 0.000, 0.000, 0.000, 12:30:09.913
148, -4141.69, -4612.85, -4419.49, -3557.98, 0.000, 0.000, 0.000, 12:30:09.913
149, -4126.92, -4600.68, -4408.51, -3524.74, 0.000, 0.000, 0.000, 12:30:09.914
150, -4052.52, -4547.51, -4307.99, -3585.83, 0.000, 0.000, 0.000, 12:30:09.914
151, -4034.26, -4542.28, -4300.99, -3639.20, 0.000, 0.000, 0.000, 12:30:09.929
152, -4129.28, -4595.71, -4389.09, -3546.86, 0.000, 0.000, 0.000, 12:30:09.929
153, -4122.13, -4598.17, -4388.08, -3524.71, 0.000, 0.000, 0.000, 12:30:09.944
154, -4062.05, -4606.76, -4340.61, -3595.57, 0.000, 0.000, 0.000, 12:30:09.945
155, -4020.63, -4512.57, -4268.65, -3640.75, 0.000, 0.000, 0.000, 12:30:09.946
156, -4128.52, -4574.42, -4389.68, -3548.27, 0.000, 0.000, 0.000, 12:30:09.947
157, -4124.47, -4607.05, -4379.14, -3517.38, 0.000, 0.000, 0.000, 12:30:09.958
158, -4050.29, -4555.21, -4309.08, -3582.96, 0.000, 0.000, 0.000, 12:30:09.958
159, -4030.07, -4548.34, -4279.78, -3633.89, 0.000, 0.000, 0.000, 12:30:09.973
160, -4128.85, -4624.45, -4400.83, -3546.52, 0.000, 0.000, 0.000, 12:30:09.973
161, -4122.41, -4581.61, -4384.68, -3518.18, 0.000, 0.000, 0.000, 12:30:09.974
162, -4061.28, -4560.66, -4299.59, -3594.19, 0.000, 0.000, 0.000, 12:30:09.975
163, -4031.85, -4539.68, -4276.23, -3632.88, 0.000, 0.000, 0.000, 12:30:09.988
164, -4140.19, -4608.09, -4401.91, -3554.63, 0.000, 0.000, 0.000, 12:30:09.988
165, -4142.36, -4620.85, -4398.15, -3522.43, 0.000, 0.000, 0.000, 12:30:10.004
166, -4046.76, -4551.69, -4302.60, -3573.01, 0.000, 0.000, 0.000, 12:30:10.004
167, -4026.71, -4520.03, -4280.46, -3639.93, 0.000, 0.000, 0.000, 12:30:10.004
168, -4148.43, -4596.43, -4383.31, -3563.02, 0.000, 0.000, 0.000, 12:30:10.004
169, -4147.67, -4625.11, -4385.17, -3530.38, 0.000, 0.000, 0.000, 12:30:10.018
170, -4082.13, -4560.44, -4305.76, -3593.06, 0.000, 0.000, 0.000, 12:30:10.018
171, -4046.26, -4518.98, -4285.24, -3649.56, 0.000, 0.000, 0.000, 12:30:10.033
172, -4150.59, -4582.52, -4378.94, -3544.52, 0.000, 0.000, 0.000, 12:30:10.033
173, -4153.09, -4574.26, -4338.70, -3520.36, 0.000, 0.000, 0.000, 12:30:10.033
174, -4084.27, -4531.84, -4265.17, -3585.49, 0.000, 0.000, 0.000, 12:30:10.034
175, -4057.32, -4520.78, -4272.22, -3637.04, 0.000, 0.000, 0.000, 12:30:10.049
176, -4181.96, -4586.83, -4387.72, -3540.50, 0.000, 0.000, 0.000, 12:30:10.049
177, -4169.15, -4596.66, -4368.14, -3519.78, 0.000, 0.000, 0.000, 12:30:10.063
178, -4098.36, -4541.95, -4264.00, -3574.80, 0.000, 0.000, 0.000, 12:30:10.064
179, -4096.16, -4531.29, -4278.85, -3647.46, 0.000, 0.000, 0.000, 12:30:10.065
180, -4192.40, -4570.48, -4394.80, -3552.97, 0.000, 0.000, 0.000, 12:30:10.065
181, -4184.80, -4609.15, -4376.32, -3521.02, 0.000, 0.000, 0.000, 12:30:10.078
182, -4103.96, -4534.31, -4283.90, -3582.44, 0.000, 0.000, 0.000, 12:30:10.078
183, -4091.88, -4504.85, -4249.38, -3633.82, 0.000, 0.000, 0.000, 12:30:10.093
184, -4184.44, -4567.53, -4366.84, -3545.77, 0.000, 0.000, 0.000, 12:30:10.093
185, -4177.79, -4600.64, -4362.14, -3514.05, 0.000, 0.000, 0.000, 12:30:10.100
186, -4106.02, -4565.16, -4300.51, -3584.23, 0.000, 0.000, 0.000, 12:30:10.100
187, -4066.31, -4514.64, -4283.78, -3634.24, 0.000, 0.000, 0.000, 12:30:10.109
188, -4168.62, -4578.01, -4352.04, -3554.24, 0.000, 0.000, 0.000, 12:30:10.109
189, -4170.66, -4594.71, -4371.00, -3517.46, 0.000, 0.000, 0.000, 12:30:10.123
190, -4101.74, -4557.72, -4303.14, -3594.78, 0.000, 0.000, 0.000, 12:30:10.123
191, -4065.46, -4532.36, -4273.07, -3638.93, 0.000, 0.000, 0.000, 12:30:10.124
192, -4165.57, -4604.12, -4377.47, -3548.00, 0.000, 0.000, 0.000, 12:30:10.124
193, -4152.00, -4589.73, -4377.83, -3513.21, 0.000, 0.000, 0.000, 12:30:10.139
194, -4082.21, -4553.42, -4277.78, -3579.82, 0.000, 0.000, 0.000, 12:30:10.139
195, -4061.89, -4547.27, -4291.23, -3643.01, 0.000, 0.000, 0.000, 12:30:10.153
196, -4159.06, -4582.04, -4379.44, -3540.57, 0.000, 0.000, 0.000, 12:30:10.154
197, -4148.09, -4591.89, -4356.30, -3522.08, 0.000, 0.000, 0.000, 12:30:10.154
198, -4076.10, -4560.64, -4300.73, -3586.23, 0.000, 0.000, 0.000, 12:30:10.154
199, -4059.77, -4552.48, -4291.62, -3643.92, 0.000, 0.000, 0.000, 12:30:10.168
200, -4155.97, -4604.85, -4390.87, -3553.08, 0.000, 0.000, 0.000, 12:30:10.168
0, -4138.25, -4598.67, -4373.74, -3520.78, 0.000, 0.000, 0.000, 12:30:10.169
1, -4080.57, -4592.32, -4316.45, -3590.13, 0.000, 0.000, 0.000, 12:30:10.183
2, -4039.07, -4514.97, -4297.33, -3635.18, 0.000, 0.000, 0.000, 12:30:10.183
3, -4149.07, -4567.28, -4365.31, -3546.98, 0.000, 0.000, 0.000, 12:30:10.202
4, -4148.46, -4605.18, -4374.46, -3516.73, 0.000, 0.000, 0.000, 12:30:10.202
5, -4083.66, -4586.57, -4337.84, -3590.13, 0.000, 0.000, 0.000, 12:30:10.202
6, -4062.70, -4567.74, -4304.29, -3646.48, 0.000, 0.000, 0.000, 12:30:10.202
7, -4151.00, -4603.76, -4394.30, -3556.26, 0.000, 0.000, 0.000, 12:30:10.213
8, -4144.63, -4606.43, -4405.21, -3522.18, 0.000, 0.000, 0.000, 12:30:10.213
9, -4074.16, -4557.36, -4313.21, -3582.44, 0.000, 0.000, 0.000, 12:30:10.228
10, -4046.63, -4547.04, -4293.00, -3627.65, 0.000, 0.000, 0.000, 12:30:10.228
11, -4148.98, -4591.77, -4398.01, -3550.10, 0.000, 0.000, 0.000, 12:30:10.229
12, -4139.04, -4612.90, -4406.86, -3515.53, 0.000, 0.000, 0.000, 12:30:10.229
13, -4071.99, -4582.39, -4310.82, -3583.94, 0.000, 0.000, 0.000, 12:30:10.243
14, -4042.39, -4553.24, -4293.87, -3637.27, 0.000, 0.000, 0.000, 12:30:10.244
15, -4148.05, -4614.22, -4401.88, -3552.62, 0.000, 0.000, 0.000, 12:30:10.260
16, -4143.33, -4602.33, -4380.47, -3528.45, 0.000, 0.000, 0.000, 12:30:10.260
17, -4071.84, -4556.54, -4299.59, -3600.83, 0.000, 0.000, 0.000, 12:30:10.260
18, -4055.42, -4550.27, -4313.63, -3643.51, 0.000, 0.000, 0.000, 12:30:10.260
19, -4148.81, -4606.42, -4401.35, -3554.12, 0.000, 0.000, 0.000, 12:30:10.276
20, -4132.64, -4590.17, -4374.53, -3516.87, 0.000, 0.000, 0.000, 12:30:10.276
21, -4074.08, -4576.65, -4338.21, -3590.71, 0.000, 0.000, 0.000, 12:30:10.288
22, -4048.48, -4569.74, -4322.21, -3655.63, 0.000, 0.000, 0.000, 12:30:10.288
23, -4137.22, -4593.41, -4377.56, -3548.62, 0.000, 0.000, 0.000, 12:30:10.289
24, -4133.87, -4591.30, -4388.70, -3526.51, 0.000, 0.000, 0.000, 12:30:10.289
25, -4064.79, -4571.94, -4311.30, -3587.05, 0.000, 0.000, 0.000, 12:30:10.303
26, -4047.22, -4564.60, -4294.08, -3651.18, 0.000, 0.000, 0.000, 12:30:10.303
27, -4144.52, -4607.16, -4393.14, -3559.76, 0.000, 0.000, 0.000, 12:30:10.318
28, -4131.35, -4611.41, -4402.34, -3530.58, 0.000, 0.000, 0.000, 12:30:10.319
29, -4060.26, -4587.34, -4343.42, -3592.90, 0.000, 0.000, 0.000, 12:30:10.319
30, -4051.51, -4564.60, -4301.35, -3643.08, 0.000, 0.000, 0.000, 12:30:10.319
31, -4142.66, -4599.80, -4384.20, -3552.33, 0.000, 0.000, 0.000, 12:30:10.333
32, -4128.32, -4590.34, -4352.50, -3516.77, 0.000, 0.000, 0.000, 12:30:10.333
33, -4067.45, -4555.51, -4309.38, -3583.36, 0.000, 0.000, 0.000, 12:30:10.348
34, -4045.26, -4534.20, -4292.56, -3666.03, 0.000, 0.000, 0.000, 12:30:10.348
35, -4142.62, -4602.62, -4413.31, -3553.55, 0.000, 0.000, 0.000, 12:30:10.348
36, -4125.04, -4591.26, -4371.86, -3516.15, 0.000, 0.000, 0.000, 12:30:10.349
37, -4056.05, -4551.47, -4293.17, -3589.75, 0.000, 0.000, 0.000, 12:30:10.364
38, -4034.79, -4550.34, -4292.36, -3630.78, 0.000, 0.000, 0.000, 12:30:10.364
39, -4139.95, -4606.58, -4420.02, -3548.29, 0.000, 0.000, 0.000, 12:30:10.381
40, -4128.05, -4590.30, -4411.56, -3527.79, 0.000, 0.000, 0.000, 12:30:10.381
41, -4064.39, -4573.04, -4290.77, -3588.09, 0.000, 0.000, 0.000, 12:30:10.381
42, -4039.32, -4551.85, -4287.35, -3622.28, 0.000, 0.000, 0.000, 12:30:10.382
43, -4149.18, -4621.47, -4401.77, -3547.11, 0.000, 0.000, 0.000, 12:30:10.393
44, -4139.87, -4611.19, -4379.67, -3519.99, 0.000, 0.000, 0.000, 12:30:10.394
45, -4055.08, -4557.69, -4310.38, -3591.39, 0.000, 0.000, 0.000, 12:30:10.409
46, -4038.14, -4534.55, -4303.63, -3655.03, 0.000, 0.000, 0.000, 12:30:10.410
47, -4130.33, -4569.48, -4377.92, -3546.42, 0.000, 0.000, 0.000, 12:30:10.410
48, -4140.02, -4603.37, -4383.01, -3529.76, 0.000, 0.000, 0.000, 12:30:10.410
49, -4080.28, -4585.79, -4328.31, -3588.88, 0.000, 0.000, 0.000, 12:30:10.425
50, -4056.47, -4567.02, -4309.07, -3642.75, 0.000, 0.000, 0.000, 12:30:10.425
51, -4145.04, -4594.25, -4412.72, -3560.32, 0.000, 0.000, 0.000, 12:30:10.448
52, -4135.20, -4611.69, -4453.13, -3522.71, 0.000, 0.000, 0.000, 12:30:10.448
53, -4063.11, -4578.81, -4311.63, -3601.87, 0.000, 0.000, 0.000, 12:30:10.448
54, -4045.02, -4541.64, -4260.42, -3639.76, 0.000, 0.000, 0.000, 12:30:10.448
55, -4136.25, -4585.75, -4397.11, -3543.35, 0.000, 0.000, 0.000, 12:30:10.454
56, -4126.55, -4607.37, -4371.47, -3516.96, 0.000, 0.000, 0.000, 12:30:10.454
57, -4062.64, -4573.36, -4332.47, -3582.40, 0.000, 0.000, 0.000, 12:30:10.468
58, -4052.82, -4544.52, -4304.77, -3642.77, 0.000, 0.000, 0.000, 12:30:10.469
59, -4147.78, -4619.23, -4410.41, -3570.49, 0.000, 0.000, 0.000, 12:30:10.470
60, -4125.58, -4609.60, -4371.31, -3529.35, 0.000, 0.000, 0.000, 12:30:10.470
61, -4073.23, -4583.32, -4324.47, -3616.70, 0.000, 0.000, 0.000, 12:30:10.483
62, -4042.79, -4563.72, -4326.48, -3646.27, 0.000, 0.000, 0.000, 12:30:10.484
63, -4095.40, -4580.13, -4387.12, -3535.79, 0.000, 0.000, 0.000, 12:30:10.498
64, -4081.18, -4640.31, -4416.72, -3518.90, 0.000, 0.000, 0.000, 12:30:10.498
65, -3999.56, -4597.33, -4360.14, -3579.92, 0.000, 0.000, 0.000, 12:30:10.499
66, -3967.57, -4579.92, -4323.72, -3632.07, 0.000, 0.000, 0.000, 12:30:10.499
67, -4027.36, -4597.30, -4405.27, -3529.65, 0.000, 0.000, 0.000, 12:30:10.513
68, -4029.08, -4642.16, -4397.18, -3494.25, 0.000, 0.000, 0.000, 12:30:10.513
69, -3948.44, -4582.40, -4334.53, -3565.50, 0.000, 0.000, 0.000, 12:30:10.529
70, -3932.52, -4577.34, -4314.55, -3626.83, 0.000, 0.000, 0.000, 12:30:10.529
71, -4014.99, -4636.01, -4413.69, -3528.24, 0.000, 0.000, 0.000, 12:30:10.529
72, -4012.38, -4641.65, -4415.07, -3506.66, 0.000, 0.000, 0.000, 12:30:10.529
73, -3956.50, -4595.44, -4338.32, -3578.61, 0.000, 0.000, 0.000, 12:30:10.544
74, -3949.55, -4580.10, -4325.39, -3618.90, 0.000, 0.000, 0.000, 12:30:10.544
75, -4052.07, -4630.07, -4415.59, -3546.72, 0.000, 0.000, 0.000, 12:30:10.559
76, -4069.45, -4659.15, -4441.66, -3520.67, 0.000, 0.000, 0.000, 12:30:10.559
77, -4006.52, -4586.71, -4325.37, -3581.06, 0.000, 0.000, 0.000, 12:30:10.559
78, -3993.89, -4566.43, -4320.13, -3637.65, 0.000, 0.000, 0.000, 12:30:10.559
79, -4082.56, -4603.33, -4415.00, -3553.13, 0.000, 0.000, 0.000, 12:30:10.573
80, -4086.33, -4619.17, -4382.67, -3520.03, 0.000, 0.000, 0.000, 12:30:10.573
81, -4033.30, -4606.48, -4351.80, -3583.06, 0.000, 0.000, 0.000, 12:30:10.588
82, -4021.95, -4577.24, -4338.22, -3634.68, 0.000, 0.000, 0.000, 12:30:10.588
83, -4109.04, -4603.15, -4386.72, -3550.10, 0.000, 0.000, 0.000, 12:30:10.589
84, -4110.37, -4632.81, -4401.18, -3520.84, 0.000, 0.000, 0.000, 12:30:10.589
85, -4049.13, -4594.30, -4361.03, -3583.04, 0.000, 0.000, 0.000, 12:30:10.603
86, -4036.45, -4577.69, -4301.72, -3641.98, 0.000, 0.000, 0.000, 12:30:10.604
87, -4116.10, -4605.18, -4412.06, -3555.99, 0.000, 0.000, 0.000, 12:30:10.618
88, -4113.21, -4606.37, -4403.31, -3534.77, 0.000, 0.000, 0.000, 12:30:10.618
89, -4053.97, -4574.07, -4325.53, -3581.91, 0.000, 0.000, 0.000, 12:30:10.618
90, -4036.74, -4555.62, -4304.56, -3631.75, 0.000, 0.000, 0.000, 12:30:10.618
91, -4117.32, -4598.38, -4385.52, -3551.07, 0.000, 0.000, 0.000, 12:30:10.633
92, -4113.89, -4604.35, -4392.80, -3540.08, 0.000, 0.000, 0.000, 12:30:10.634
93, -4057.00, -4575.05, -4321.41, -3587.48, 0.000, 0.000, 0.000, 12:30:10.648
94, -4044.69, -4602.72, -4345.81, -3641.03, 0.000, 0.000, 0.000, 12:30:10.648
95, -4127.12, -4592.06, -4389.57, -3556.25, 0.000, 0.000, 0.000, 12:30:10.649
96, -4121.25, -4580.75, -4379.70, -3528.84, 0.000, 0.000, 0.000, 12:30:10.649
97, -4065.01, -4570.37, -4325.42, -3597.47, 0.000, 0.000, 0.000, 12:30:10.664
98, -4042.22, -4550.10, -4292.63, -3629.40, 0.000, 0.000, 0.000, 12:30:10.666
99, -4112.01, -4605.69, -4393.77, -3551.35, 0.000, 0.000, 0.000, 12:30:10.683
100, -4122.26, -4607.63, -4390.35, -3535.43, 0.000, 0.000, 0.000, 12:30:10.683
101, -4065.82, -4561.69, -4317.42, -3596.97, 0.000, 0.000, 0.000, 12:30:10.683
102, -4049.13, -4556.82, -4323.92, -3636.16, 0.000, 0.000, 0.000, 12:30:10.683
103, -4122.90, -4578.08, -4398.02, -3561.44, 0.000, 0.000, 0.000, 12:30:10.693
104, -4137.37, -4606.35, -4415.05, -3534.26, 0.000, 0.000, 0.000, 12:30:10.693
105, -4068.33, -4579.42, -4343.51, -3596.60, 0.000, 0.000, 0.000, 12:30:10.709
106, -4057.86, -4583.13, -4314.84, -3646.64, 0.000, 0.000, 0.000, 12:30:10.709
107, -4161.32, -4631.71, -4414.58, -3579.39, 0.000, 0.000, 0.000, 12:30:10.723
108, -4109.57, -4575.57, -4377.04, -3513.97, 0.000, 0.000, 0.000, 12:30:10.723
109, -4042.26, -4558.47, -4311.36, -3564.90, 0.000, 0.000, 0.000, 12:30:10.725
110, -4041.41, -4565.56, -4339.57, -3630.91, 0.000, 0.000, 0.000, 12:30:10.725
111, -4135.70, -4623.95, -4430.29, -3559.71, 0.000, 0.000, 0.000, 12:30:10.739
112, -4116.15, -4631.43, -4433.64, -3527.49, 0.000, 0.000, 0.000, 12:30:10.739
113, -4057.04, -4588.94, -4340.04, -3589.95, 0.000, 0.000, 0.000, 12:30:10.753
114, -4035.07, -4552.56, -4313.98, -3623.39, 0.000, 0.000, 0.000, 12:30:10.753
115, -4106.12, -4586.57, -4401.27, -3547.70, 0.000, 0.000, 0.000, 12:30:10.755
116, -4103.44, -4616.24, -4417.17, -3522.63, 0.000, 0.000, 0.000, 12:30:10.755
117, -4057.82, -4621.94, -4329.25, -3596.81, 0.000, 0.000, 0.000, 12:30:10.769
118, -4051.46, -4563.58, -4298.96, -3639.93, 0.000, 0.000, 0.000, 12:30:10.769
119, -4130.23, -4611.96, -4410.00, -3568.19, 0.000, 0.000, 0.000, 12:30:10.769
120, -4116.81, -4608.01, -4406.20, -3535.62, 0.000, 0.000, 0.000, 12:30:10.770
121, -4062.62, -4589.27, -4354.58, -3592.32, 0.000, 0.000, 0.000, 12:30:10.783
122, -4040.61, -4559.95, -4299.81, -3637.42, 0.000, 0.000, 0.000, 12:30:10.783
123, -4118.85, -4605.98, -4416.76, -3560.34, 0.000, 0.000, 0.000, 12:30:10.798
124, -4112.19, -4596.65, -4388.93, -3532.34, 0.000, 0.000, 0.000, 12:30:10.798
125, -4062.49, -4569.64, -4311.74, -3589.26, 0.000, 0.000, 0.000, 12:30:10.807
126, -4056.61, -4571.92, -4331.87, -3627.48, 0.000, 0.000, 0.000, 12:30:10.807
127, -4131.55, -4606.19, -4412.38, -3564.64, 0.000, 0.000, 0.000, 12:30:10.828
128, -4123.26, -4604.47, -4414.30, -3536.27, 0.000, 0.000, 0.000, 12:30:10.829
129, -4059.87, -4563.65, -4315.68, -3601.42, 0.000, 0.000, 0.000, 12:30:10.829
130, -4048.32, -4559.61, -4302.35, -3640.71, 0.000, 0.000, 0.000, 12:30:10.829
131, -4134.64, -4602.39, -4391.67, -3548.09, 0.000, 0.000, 0.000, 12:30:10.829
132, -4125.17, -4596.69, -4387.46, -3522.95, 0.000, 0.000, 0.000, 12:30:10.830
133, -4060.64, -4568.01, -4317.98, -3591.58, 0.000, 0.000, 0.000, 12:30:10.843
134, -4051.96, -4580.34, -4330.10, -3636.57, 0.000, 0.000, 0.000, 12:30:10.843
135, -4135.02, -4599.06, -4412.38, -3561.80, 0.000, 0.000, 0.000, 12:30:10.859
136, -4121.37, -4592.07, -4390.68, -3529.09, 0.000, 0.000, 0.000, 12:30:10.859
137, -4064.10, -4581.18, -4328.33, -3592.84, 0.000, 0.000, 0.000, 12:30:10.860
138, -4048.80, -4546.51, -4325.57, -3628.71, 0.000, 0.000, 0.000, 12:30:10.860
139, -4131.78, -4603.43, -4407.11, -3557.89, 0.000, 0.000, 0.000, 12:30:10.874
140, -4131.21, -4619.96, -4380.90, -3521.45, 0.000, 0.000, 0.000, 12:30:10.874
141, -4056.30, -4564.64, -4321.63, -3576.38, 0.000, 0.000, 0.000, 12:30:10.888
142, -4044.40, -4540.85, -4328.07, -3633.10, 0.000, 0.000, 0.000, 12:30:10.889
143, -4126.68, -4594.54, -4408.38, -3564.64, 0.000, 0.000, 0.000, 12:30:10.892
144, -4118.82, -4595.29, -4366.68, -3524.94, 0.000, 0.000, 0.000, 12:30:10.892
145, -4059.20, -4586.84, -4307.37, -3578.46, 0.000, 0.000, 0.000, 12:30:10.903
146, -4057.52, -4583.17, -4316.74, -3648.52, 0.000, 0.000, 0.000, 12:30:10.904
147, -4127.59, -4606.76, -4390.95, -3561.69, 0.000, 0.000, 0.000, 12:30:10.918
148, -4118.21, -4592.54, -4381.94, -3527.55, 0.000, 0.000, 0.000, 12:30:10.919
149, -4056.97, -4546.21, -4323.60, -3583.89, 0.000, 0.000, 0.000, 12:30:10.919
150, -4045.18, -4534.94, -4295.21, -3632.02, 0.000, 0.000, 0.000, 12:30:10.919
151, -4131.10, -4597.04, -4399.10, -3568.23, 0.000, 0.000, 0.000, 12:30:10.933
152, -4129.75, -4618.47, -4417.32, -3531.54, 0.000, 0.000, 0.000, 12:30:10.933
153, -4063.94, -4570.53, -4323.69, -3585.42, 0.000, 0.000, 0.000, 12:30:10.948
154, -4053.27, -4567.19, -4300.22, -3639.42, 0.000, 0.000, 0.000, 12:30:10.948
155, -4128.50, -4598.62, -4382.81, -3560.47, 0.000, 0.000, 0.000, 12:30:10.949
156, -4111.49, -4589.23, -4375.78, -3519.13, 0.000, 0.000, 0.000, 12:30:10.949
157, -4062.54, -4562.56, -4318.74, -3587.76, 0.000, 0.000, 0.000, 12:30:10.963
158, -4043.65, -4560.57, -4318.87, -3631.56, 0.000, 0.000, 0.000, 12:30:10.963
159, -4127.95, -4617.14, -4407.36, -3555.35, 0.000, 0.000, 0.000, 12:30:10.978
160, -4120.10, -4597.04, -4377.96, -3540.97, 0.000, 0.000, 0.000, 12:30:10.978
161, -4055.83, -4557.13, -4295.46, -3582.59, 0.000, 0.000, 0.000, 12:30:10.978
162, -4050.29, -4556.72, -4309.02, -3635.87, 0.000, 0.000, 0.000, 12:30:10.979
163, -4124.67, -4616.42, -4401.02, -3548.47, 0.000, 0.000, 0.000, 12:30:10.993
164, -4122.76, -4608.71, -4398.99, -3537.39, 0.000, 0.000, 0.000, 12:30:10.993
165, -4060.90, -4554.53, -4322.69, -3597.13, 0.000, 0.000, 0.000, 12:30:11.008
166, -4050.29, -4545.69, -4309.43, -3634.75, 0.000, 0.000, 0.000, 12:30:11.008
167, -4121.80, -4564.63, -4378.64, -3551.76, 0.000, 0.000, 0.000, 12:30:11.008
168, -4129.89, -4593.04, -4382.48, -3531.62, 0.000, 0.000, 0.000, 12:30:11.008
169, -4077.94, -4587.87, -4331.93, -3594.77, 0.000, 0.000, 0.000, 12:30:11.023
170, -4071.88, -4583.32, -4331.35, -3643.23, 0.000, 0.000, 0.000, 12:30:11.023
171, -4138.80, -4593.85, -4422.43, -3553.25, 0.000, 0.000, 0.000, 12:30:11.038
172, -4132.05, -4584.15, -4374.85, -3543.59, 0.000, 0.000, 0.000, 12:30:11.039
173, -4086.28, -4556.43, -4311.33, -3582.19, 0.000, 0.000, 0.000, 12:30:11.039
174, -4084.77, -4552.39, -4311.12, -3632.07, 0.000, 0.000, 0.000, 12:30:11.040
175, -4161.55, -4573.24, -4370.87, -3567.21, 0.000, 0.000, 0.000, 12:30:11.054
176, -4164.23, -4591.18, -4365.67, -3555.55, 0.000, 0.000, 0.000, 12:30:11.054
177, -4087.89, -4556.91, -4319.20, -3585.69, 0.000, 0.000, 0.000, 12:30:11.068
178, -4085.76, -4557.92, -4315.31, -3639.98, 0.000, 0.000, 0.000, 12:30:11.068
179, -4164.90, -4588.18, -4431.06, -3566.38, 0.000, 0.000, 0.000, 12:30:11.068
180, -4153.77, -4595.87, -4412.79, -3545.83, 0.000, 0.000, 0.000, 12:30:11.070
181, -4099.95, -4580.30, -4316.51, -3600.70, 0.000, 0.000, 0.000, 12:30:11.083
182, -4077.12, -4547.88, -4295.62, -3645.29, 0.000, 0.000, 0.000, 12:30:11.083
183, -4154.62, -4592.98, -4391.24, -3570.38, 0.000, 0.000, 0.000, 12:30:11.098
184, -4145.87, -4591.01, -4391.99, -3534.42, 0.000, 0.000, 0.000, 12:30:11.098
185, -4081.87, -4566.36, -4321.69, -3597.31, 0.000, 0.000, 0.000, 12:30:11.099
186, -4075.94, -4558.86, -4322.52, -3637.37, 0.000, 0.000, 0.000, 12:30:11.099
187, -4146.37, -4595.08, -4394.02, -3558.35, 0.000, 0.000, 0.000, 12:30:11.113
188, -4138.72, -4600.26, -4401.81, -3538.84, 0.000, 0.000, 0.000, 12:30:11.113
189, -4078.44, -4578.29, -4338.08, -3603.86, 0.000, 0.000, 0.000, 12:30:11.128
190, -4063.52, -4557.78, -4301.08, -3630.49, 0.000, 0.000, 0.000, 12:30:11.129
191, -4148.29, -4589.88, -4422.51, -3558.88, 0.000, 0.000, 0.000, 12:30:11.129
192, -4135.96, -4630.10, -4428.80, -3524.46, 0.000, 0.000, 0.000, 12:30:11.129
193, -4074.76, -4576.77, -4297.36, -3597.32, 0.000, 0.000, 0.000, 12:30:11.143
194, -4052.81, -4542.65, -4285.67, -3639.34, 0.000, 0.000, 0.000, 12:30:11.143
195, -4143.51, -4589.40, -4403.52, -3556.19, 0.000, 0.000, 0.000, 12:30:11.159
196, -4133.20, -4583.62, -4382.29, -3512.38, 0.000, 0.000, 0.000, 12:30:11.159
197, -4074.91, -4573.30, -4320.27, -3587.84, 0.000, 0.000, 0.000, 12:30:11.166
198, -4053.27, -4547.34, -4310.37, -3633.80, 0.000, 0.000, 0.000, 12:30:11.166
199, -4122.27, -4578.14, -4381.74, -3549.13, 0.000, 0.000, 0.000, 12:30:11.173
200, -4122.23, -4590.76, -4388.69, -3537.25, 0.000, 0.000, 0.000, 12:30:11.174
0, -4061.06, -4576.65, -4312.01, -3590.70, 0.000, 0.000, 0.000, 12:30:11.175
1, -4055.85, -4567.88, -4312.12, -3639.20, 0.000, 0.000, 0.000, 12:30:11.188
2, -4126.63, -4594.82, -4398.68, -3553.43, 0.000, 0.000, 0.000, 12:30:11.188
3, -4118.58, -4601.05, -4387.55, -3536.78, 0.000, 0.000, 0.000, 12:30:11.203
4, -4063.91, -4591.15, -4337.57, -3582.27, 0.000, 0.000, 0.000, 12:30:11.203
5, -4060.09, -4591.33, -4362.89, -3628.26, 0.000, 0.000, 0.000, 12:30:11.203
6, -4124.82, -4590.47, -4409.90, -3552.43, 0.000, 0.000, 0.000, 12:30:11.204
7, -4107.69, -4582.39, -4367.31, -3529.13, 0.000, 0.000, 0.000, 12:30:11.219
8, -4050.24, -4565.79, -4328.57, -3590.33, 0.000, 0.000, 0.000, 12:30:11.219
9, -4055.58, -4556.84, -4300.00, -3637.27, 0.000, 0.000, 0.000, 12:30:11.233
10, -4128.22, -4594.57, -4384.80, -3571.96, 0.000, 0.000, 0.000, 12:30:11.233
11, -4113.38, -4598.54, -4374.03, -3520.15, 0.000, 0.000, 0.000, 12:30:11.234
12, -4060.06, -4571.57, -4330.79, -3595.35, 0.000, 0.000, 0.000, 12:30:11.234
13, -4046.29, -4553.55, -4325.70, -3634.20, 0.000, 0.000, 0.000, 12:30:11.248
14, -4130.88, -4604.47, -4385.97, -3553.71, 0.000, 0.000, 0.000, 12:30:11.248
15, -4119.70, -4619.03, -4409.84, -3533.27, 0.000, 0.000, 0.000, 12:30:11.263
16, -4077.62, -4589.17, -4349.84, -3592.97, 0.000, 0.000, 0.000, 12:30:11.264
17, -4060.53, -4564.75, -4319.53, -3641.38, 0.000, 0.000, 0.000, 12:30:11.264
18, -4131.27, -4555.68, -4373.99, -3553.06, 0.000, 0.000, 0.000, 12:30:11.264
19, -4130.61, -4589.17, -4390.05, -3537.04, 0.000, 0.000, 0.000, 12:30:11.278
20, -4061.72, -4557.63, -4307.80, -3591.45, 0.000, 0.000, 0.000, 12:30:11.278
21, -4057.23, -4553.10, -4302.10, -3649.01, 0.000, 0.000, 0.000, 12:30:11.293
22, -4136.27, -4607.03, -4400.92, -3559.41, 0.000, 0.000, 0.000, 12:30:11.293
23, -4122.92, -4617.94, -4404.27, -3541.12, 0.000, 0.000, 0.000, 12:30:11.293
24, -4061.98, -4593.59, -4328.07, -3592.94, 0.000, 0.000, 0.000, 12:30:11.294
25, -4048.24, -4543.61, -4300.79, -3631.15, 0.000, 0.000, 0.000, 12:30:11.309
26, -4124.66, -4576.15, -4377.99, -3551.17, 0.000, 0.000, 0.000, 12:30:11.309
27, -4117.34, -4570.00, -4374.86, -3539.76, 0.000, 0.000, 0.000, 12:30:11.323
28, -4061.45, -4570.19, -4343.54, -3586.15, 0.000, 0.000, 0.000, 12:30:11.324
29, -4046.11, -4559.57, -4298.29, -3634.15, 0.000, 0.000, 0.000, 12:30:11.325
30, -4122.66, -4607.92, -4371.17, -3553.85, 0.000, 0.000, 0.000, 12:30:11.325
31, -4106.83, -4593.18, -4379.96, -3526.90, 0.000, 0.000, 0.000, 12:30:11.339
32, -4051.51, -4559.34, -4312.11, -3585.50, 0.000, 0.000, 0.000, 12:30:11.339
33, -4041.52, -4559.26, -4319.36, -3623.34, 0.000, 0.000, 0.000, 12:30:11.353
34, -4127.24, -4602.44, -4408.32, -3564.80, 0.000, 0.000, 0.000, 12:30:11.353
35, -4114.05, -4597.21, -4376.52, -3543.94, 0.000, 0.000, 0.000, 12:30:11.354
36, -4053.90, -4558.71, -4320.64, -3591.80, 0.000, 0.000, 0.000, 12:30:11.354
37, -4057.91, -4551.67, -4314.55, -3632.02, 0.000, 0.000, 0.000, 12:30:11.369
38, -4121.87, -4616.61, -4403.86, -3555.68, 0.000, 0.000, 0.000, 12:30:11.369
39, -4114.62, -4601.50, -4382.47, -3523.04, 0.000, 0.000, 0.000, 12:30:11.383
40, -4056.53, -4569.66, -4314.23, -3588.07, 0.000, 0.000, 0.000, 12:30:11.383
41, -4039.65, -4571.35, -4344.69, -3631.55, 0.000, 0.000, 0.000, 12:30:11.383
42, -4128.82, -4607.74, -4445.85, -3548.29, 0.000, 0.000, 0.000, 12:30:11.384
43, -4112.18, -4587.29, -4352.55, -3537.10, 0.000, 0.000, 0.000, 12:30:11.399
44, -4052.42, -4543.31, -4283.83, -3574.23, 0.000, 0.000, 0.000, 12:30:11.399
45, -4048.40, -4535.42, -4299.59, -3635.54, 0.000, 0.000, 0.000, 12:30:11.413
46, -4132.45, -4594.79, -4400.76, -3553.21, 0.000, 0.000, 0.000, 12:30:11.413
47, -4130.44, -4622.82, -4395.16, -3532.95, 0.000, 0.000, 0.000, 12:30:11.414
48, -4091.94, -4640.07, -4356.92, -3607.55, 0.000, 0.000, 0.000, 12:30:11.414
49, -4048.09, -4566.22, -4321.66, -3632.45, 0.000, 0.000, 0.000, 12:30:11.428
50, -4109.48, -4513.85, -4351.02, -3549.99, 0.000, 0.000, 0.000, 12:30:11.428
51, -4104.54, -4540.52, -4334.35, -3538.76, 0.000, 0.000, 0.000, 12:30:11.443
52, -4045.90, -4530.76, -4261.24, -3607.38, 0.000, 0.000, 0.000, 12:30:11.443
53, -4027.87, -4558.32, -4271.10, -3642.05, 0.000, 0.000, 0.000, 12:30:11.444
54, -4123.20, -4588.56, -4366.99, -3582.15, 0.000, 0.000, 0.000, 12:30:11.444
55, -4097.76, -4547.91, -4328.33, -3545.33, 0.000, 0.000, 0.000, 12:30:11.458
56, -4041.18, -4512.65, -4291.94, -3620.65, 0.000, 0.000, 0.000, 12:30:11.458
57, -4032.00, -4549.55, -4261.23, -3657.94, 0.000, 0.000, 0.000, 12:30:11.473
58, -4124.28, -4586.81, -4350.92, -3580.22, 0.000, 0.000, 0.000, 12:30:11.474
59, -4110.18, -4549.84, -4328.46, -3544.62, 0.000, 0.000, 0.000, 12:30:11.475
60, -4039.42, -4515.35, -4274.98, -3595.80, 0.000, 0.000, 0.000, 12:30:11.477
61, -4041.09, -4537.60, -4264.91, -3636.95, 0.000, 0.000, 0.000, 12:30:11.496
62, -4130.04, -4598.04, -4389.53, -3562.83, 0.000, 0.000, 0.000, 12:30:11.497
63, -4120.54, -4600.41, -4370.76, -3543.16, 0.000, 0.000, 0.000, 12:30:11.504
64, -4059.91, -4570.52, -4303.52, -3605.97, 0.000, 0.000, 0.000, 12:30:11.504
65, -4051.02, -4565.02, -4301.92, -3652.28, 0.000, 0.000, 0.000, 12:30:11.504
66, -4122.21, -4605.84, -4413.24, -3567.22, 0.000, 0.000, 0.000, 12:30:11.504
67, -4119.33, -4599.80, -4363.61, -3536.08, 0.000, 0.000, 0.000, 12:30:11.532
68, -4053.71, -4549.58, -4277.80, -3601.99, 0.000, 0.000, 0.000, 12:30:11.532
69, -4055.37, -4560.56, -4286.29, -3640.53, 0.000, 0.000, 0.000, 12:30:11.535
70, -4132.95, -4593.89, -4389.58, -3564.10, 0.000, 0.000, 0.000, 12:30:11.535
71, -4119.55, -4583.59, -4381.44, -3529.09, 0.000, 0.000, 0.000, 12:30:11.535
72, -4055.31, -4563.39, -4304.28, -3596.23, 0.000, 0.000, 0.000, 12:30:11.536
73, -4050.64, -4545.92, -4317.67, -3648.38, 0.000, 0.000, 0.000, 12:30:11.548
74, -4134.81, -4607.74, -4405.13, -3575.65, 0.000, 0.000, 0.000, 12:30:11.548
75, -4122.10, -4593.07, -4391.36, -3530.46, 0.000, 0.000, 0.000, 12:30:11.563
76, -4059.13, -4579.70, -4314.66, -3599.10, 0.000, 0.000, 0.000, 12:30:11.563
77, -4055.50, -4572.00, -4303.64, -3647.38, 0.000, 0.000, 0.000, 12:30:11.564
78, -4138.25, -4596.27, -4397.67, -3567.65, 0.000, 0.000, 0.000, 12:30:11.564
79, -4122.98, -4586.59, -4362.19, -3537.00, 0.000, 0.000, 0.000, 12:30:11.578
80, -4068.58, -4563.31, -4306.91, -3604.77, 0.000, 0.000, 0.000, 12:30:11.578
81, -4059.17, -4568.57, -4321.74, -3651.37, 0.000, 0.000, 0.000, 12:30:11.593
82, -4127.95, -4601.56, -4395.92, -3556.45, 0.000, 0.000, 0.000, 12:30:11.594
83, -4123.73, -4598.37, -4393.35, -3537.72, 0.000, 0.000, 0.000, 12:30:11.594
84, -4058.43, -4554.17, -4318.00, -3590.38, 0.000, 0.000, 0.000, 12:30:11.594
85, -4060.59, -4551.69, -4316.15, -3639.19, 0.000, 0.000, 0.000, 12:30:11.608
86, -4143.14, -4604.62, -4409.22, -3563.53, 0.000, 0.000, 0.000, 12:30:11.609
87, -4137.43, -4634.72, -4389.52, -3543.21, 0.000, 0.000, 0.000, 12:30:11.623
88, -4068.22, -4581.07, -4316.42, -3608.15, 0.000, 0.000, 0.000, 12:30:11.624
89, -4057.58, -4547.05, -4305.39, -3639.41, 0.000, 0.000, 0.000, 12:30:11.625
90, -4130.97, -4590.39, -4400.59, -3557.08, 0.000, 0.000, 0.000, 12:30:11.625
91, -4120.57, -4593.81, -4393.71, -3532.43, 0.000, 0.000, 0.000, 12:30:11.639
92, -4059.21, -4574.18, -4319.60, -3588.10, 0.000, 0.000, 0.000, 12:30:11.639
93, -4048.95, -4562.63, -4317.56, -3627.72, 0.000, 0.000, 0.000, 12:30:11.654
94, -4128.17, -4594.73, -4392.42, -3565.11, 0.000, 0.000, 0.000, 12:30:11.654
95, -4122.05, -4603.20, -4391.15, -3537.69, 0.000, 0.000, 0.000, 12:30:11.655
96, -4066.12, -4598.32, -4323.03, -3603.77, 0.000, 0.000, 0.000, 12:30:11.655
97, -4060.44, -4569.65, -4318.50, -3652.18, 0.000, 0.000, 0.000, 12:30:11.668
98, -4126.78, -4607.98, -4402.81, -3557.32, 0.000, 0.000, 0.000, 12:30:11.669
99, -4123.85, -4607.47, -4382.25, -3535.79, 0.000, 0.000, 0.000, 12:30:11.683
100, -4064.34, -4562.76, -4328.92, -3600.24, 0.000, 0.000, 0.000, 12:30:11.684
101, -4048.61, -4532.93, -4305.61, -3641.27, 0.000, 0.000, 0.000, 12:30:11.684
102, -4134.91, -4605.77, -4385.95, -3553.77, 0.000, 0.000, 0.000, 12:30:11.684
103, -4126.99, -4629.95, -4396.45, -3543.79, 0.000, 0.000, 0.000, 12:30:11.700
104, -4052.11, -4556.82, -4306.51, -3599.90, 0.000, 0.000, 0.000, 12:30:11.700
105, -4057.37, -4564.54, -4325.04, -3641.42, 0.000, 0.000, 0.000, 12:30:11.714
106, -4156.05, -4633.74, -4409.36, -3575.14, 0.000, 0.000, 0.000, 12:30:11.715
107, -4109.08, -4585.59, -4390.30, -3526.50, 0.000, 0.000, 0.000, 12:30:11.715
108, -4044.47, -4597.46, -4343.01, -3589.51, 0.000, 0.000, 0.000, 12:30:11.716
109, -4046.96, -4589.10, -4321.98, -3625.52, 0.000, 0.000, 0.000, 12:30:11.729
110, -4109.40, -4563.87, -4415.26, -3538.93, 0.000, 0.000, 0.000, 12:30:11.729
111, -4100.56, -4571.45, -4384.78, -3499.42, 0.000, 0.000, 0.000, 12:30:11.747
112, -4054.29, -4577.13, -4339.29, -3567.34, 0.000, 0.000, 0.000, 12:30:11.747
113, -4052.77, -4588.67, -4346.81, -3630.20, 0.000, 0.000, 0.000, 12:30:11.748
114, -4137.66, -4641.55, -4442.92, -3537.86, 0.000, 0.000, 0.000, 12:30:11.748
115, -4114.81, -4624.12, -4416.26, -3515.33, 0.000, 0.000, 0.000, 12:30:11.758
116, -4057.47, -4586.58, -4335.27, -3593.50, 0.000, 0.000, 0.000, 12:30:11.759
117, -4045.08, -4583.27, -4361.14, -3629.16, 0.000, 0.000, 0.000, 12:30:11.774
118, -4131.63, -4609.63, -4424.44, -3546.51, 0.000, 0.000, 0.000, 12:30:11.774
119, -4117.23, -4609.14, -4398.10, -3538.60, 0.000, 0.000, 0.000, 12:30:11.774
120, -4057.50, -4579.45, -4328.51, -3576.19, 0.000, 0.000, 0.000, 12:30:11.774
121, -4043.63, -4565.11, -4325.96, -3632.73, 0.000, 0.000, 0.000, 12:30:11.788
122, -4136.47, -4628.95, -4428.86, -3555.93, 0.000, 0.000, 0.000, 12:30:11.788
123, -4115.32, -4597.08, -4393.02, -3530.15, 0.000, 0.000, 0.000, 12:30:11.803
124, -4065.71, -4565.28, -4368.46, -3585.96, 0.000, 0.000, 0.000, 12:30:11.803
125, -4055.97, -4553.20, -4313.32, -3635.73, 0.000, 0.000, 0.000, 12:30:11.804
126, -4132.87, -4600.77, -4405.41, -3556.30, 0.000, 0.000, 0.000, 12:30:11.804
127, -4137.47, -4640.31, -4397.33, -3545.32, 0.000, 0.000, 0.000, 12:30:11.818
128, -4073.70, -4588.28, -4339.87, -3596.85, 0.000, 0.000, 0.000, 12:30:11.818
129, -4061.11, -4575.14, -4332.91, -3652.83, 0.000, 0.000, 0.000, 12:30:11.833
130, -4136.43, -4603.60, -4420.95, -3562.82, 0.000, 0.000, 0.000, 12:30:11.833
131, -4125.72, -4590.40, -4383.29, -3544.13, 0.000, 0.000, 0.000, 12:30:11.836
132, -4073.83, -4572.04, -4313.94, -3594.78, 0.000, 0.000, 0.000, 12:30:11.836
133, -4058.92, -4572.88, -4311.04, -3641.54, 0.000, 0.000, 0.000, 12:30:11.849
134, -4141.16, -4596.49, -4395.92, -3564.03, 0.000, 0.000, 0.000, 12:30:11.849
135, -4131.17, -4600.57, -4416.96, -3538.92, 0.000, 0.000, 0.000, 12:30:11.863
136, -4078.90, -4612.85, -4345.69, -3607.60, 0.000, 0.000, 0.000, 12:30:11.863
137, -4053.87, -4553.37, -4333.06, -3647.13, 0.000, 0.000, 0.000, 12:30:11.863
138, -4144.91, -4611.43, -4410.76, -3552.10, 0.000, 0.000, 0.000, 12:30:11.863
139, -4134.26, -4632.90, -4392.51, -3533.46, 0.000, 0.000, 0.000, 12:30:11.879
140, -4071.27, -4559.28, -4315.98, -3596.79, 0.000, 0.000, 0.000, 12:30:11.879
141, -4076.11, -4566.80, -4331.19, -3657.61, 0.000, 0.000, 0.000, 12:30:11.893
142, -4141.83, -4596.20, -4414.38, -3548.20, 0.000, 0.000, 0.000, 12:30:11.893
143, -4135.27, -4615.54, -4381.81, -3534.72, 0.000, 0.000, 0.000, 12:30:11.894
144, -4068.36, -4568.43, -4313.64, -3594.13, 0.000, 0.000, 0.000, 12:30:11.894
145, -4055.39, -4562.49, -4312.78, -3643.30, 0.000, 0.000, 0.000, 12:30:11.908
146, -4135.17, -4605.43, -4411.75, -3547.01, 0.000, 0.000, 0.000, 12:30:11.908
147, -4119.72, -4600.39, -4407.50, -3536.55, 0.000, 0.000, 0.000, 12:30:11.924
148, -4068.93, -4564.48, -4319.64, -3599.03, 0.000, 0.000, 0.000, 12:30:11.924
149, -4065.01, -4577.38, -4321.88, -3647.75, 0.000, 0.000, 0.000, 12:30:11.925
150, -4144.90, -4625.29, -4402.78, -3562.03, 0.000, 0.000, 0.000, 12:30:11.926
151, -4118.68, -4567.81, -4374.63, -3527.73, 0.000, 0.000, 0.000, 12:30:11.939
152, -4056.29, -4547.70, -4325.56, -3591.70, 0.000, 0.000, 0.000, 12:30:11.939
153, -4051.50, -4565.26, -4310.74, -3628.01, 0.000, 0.000, 0.000, 12:30:11.955
154, -4138.94, -4604.43, -4425.08, -3558.79, 0.000, 0.000, 0.000, 12:30:11.955
155, -4117.75, -4593.42, -4397.51, -3531.99, 0.000, 0.000, 0.000, 12:30:11.955
156, -4065.63, -4564.01, -4293.16, -3596.44, 0.000, 0.000, 0.000, 12:30:11.956
157, -4061.71, -4565.88, -4316.98, -3649.53, 0.000, 0.000, 0.000, 12:30:11.973
158, -4137.22, -4578.65, -4383.39, -3562.99, 0.000, 0.000, 0.000, 12:30:11.974
159, -4123.16, -4593.57, -4374.67, -3527.16, 0.000, 0.000, 0.000, 12:30:11.984
160, -4061.76, -4573.62, -4326.51, -3592.88, 0.000, 0.000, 0.000, 12:30:11.984
161, -4054.25, -4561.97, -4330.94, -3630.59, 0.000, 0.000, 0.000, 12:30:11.991
162, -4139.84, -4606.43, -4407.29, -3558.45, 0.000, 0.000, 0.000, 12:30:11.992
163, -4119.06, -4592.44, -4388.59, -3524.45, 0.000, 0.000, 0.000, 12:30:11.998
164, -4059.56, -4565.74, -4339.55, -3587.37, 0.000, 0.000, 0.000, 12:30:11.999
165, -4055.28, -4569.35, -4346.18, -3637.45, 0.000, 0.000, 0.000, 12:30:12.013
166, -4140.36, -4601.91, -4389.51, -3571.02, 0.000, 0.000, 0.000, 12:30:12.013
167, -4121.70, -4603.53, -4388.56, -3539.93, 0.000, 0.000, 0.000, 12:30:12.014
168, -4063.22, -4566.72, -4301.98, -3591.62, 0.000, 0.000, 0.000, 12:30:12.014
169, -4059.21, -4548.05, -4305.54, -3637.77, 0.000, 0.000, 0.000, 12:30:12.028
170, -4131.50, -4598.33, -4408.35, -3558.60, 0.000, 0.000, 0.000, 12:30:12.028
171, -4118.21, -4582.32, -4389.60, -3524.06, 0.000, 0.000, 0.000, 12:30:12.043
172, -4054.60, -4577.62, -4298.14, -3590.12, 0.000, 0.000, 0.000, 12:30:12.043
173, -4052.93, -4569.15, -4307.03, -3633.43, 0.000, 0.000, 0.000, 12:30:12.044
174, -4133.12, -4599.50, -4407.30, -3565.69, 0.000, 0.000, 0.000, 12:30:12.044
175, -4125.71, -4591.16, -4399.58, -3533.08, 0.000, 0.000, 0.000, 12:30:12.058
176, -4061.10, -4554.54, -4321.48, -3590.82, 0.000, 0.000, 0.000, 12:30:12.058
177, -4058.09, -4562.57, -4318.89, -3638.97, 0.000, 0.000, 0.000, 12:30:12.074
178, -4144.73, -4618.68, -4417.84, -3551.15, 0.000, 0.000, 0.000, 12:30:12.074
179, -4133.45, -4616.75, -4398.26, -3540.92, 0.000, 0.000, 0.000, 12:30:12.075
180, -4061.17, -4578.71, -4344.06, -3594.25, 0.000, 0.000, 0.000, 12:30:12.075
181, -4064.63, -4587.06, -4330.66, -3646.09, 0.000, 0.000, 0.000, 12:30:12.089
182, -4139.59, -4589.14, -4400.03, -3575.33, 0.000, 0.000, 0.000, 12:30:12.089
183, -4124.23, -4580.90, -4366.04, -3551.98, 0.000, 0.000, 0.000, 12:30:12.104
184, -4068.69, -4555.38, -4307.84, -3599.56, 0.000, 0.000, 0.000, 12:30:12.104
185, -4065.23, -4549.50, -4315.22, -3649.03, 0.000, 0.000, 0.000, 12:30:12.104
186, -4145.58, -4602.72, -4396.43, -3549.85, 0.000, 0.000, 0.000, 12:30:12.105
187, -4131.88, -4601.17, -4387.92, -3534.31, 0.000, 0.000, 0.000, 12:30:12.119
188, -4059.13, -4584.20, -4320.09, -3595.61, 0.000, 0.000, 0.000, 12:30:12.119
189, -4053.50, -4571.33, -4324.31, -3641.08, 0.000, 0.000, 0.000, 12:30:12.133
190, -4139.47, -4613.70, -4430.37, -3559.14, 0.000, 0.000, 0.000, 12:30:12.134
191, -4123.94, -4603.46, -4383.65, -3539.47, 0.000, 0.000, 0.000, 12:30:12.134
192, -4072.24, -4565.18, -4304.76, -3600.38, 0.000, 0.000, 0.000, 12:30:12.134
193, -4063.04, -4567.18, -4323.87, -3650.50, 0.000, 0.000, 0.000, 12:30:12.148
194, -4149.93, -4607.56, -4410.53, -3554.85, 0.000, 0.000, 0.000, 12:30:12.148
195, -4122.52, -4592.41, -4381.65, -3529.12, 0.000, 0.000, 0.000, 12:30:12.163
196, -4055.27, -4552.95, -4312.62, -3595.76, 0.000, 0.000, 0.000, 12:30:12.163
197, -4053.71, -4542.67, -4321.12, -3630.32, 0.000, 0.000, 0.000, 12:30:12.163
198, -4135.25, -4588.41, -4397.13, -3557.68, 0.000, 0.000, 0.000, 12:30:12.163
199, -4122.90, -4616.99, -4403.43, -3551.24, 0.000, 0.000, 0.000, 12:30:12.178
200, -4062.96, -4579.67, -4330.19, -3596.15, 0.000, 0.000, 0.000, 12:30:12.178
0, -4056.11, -4557.66, -4288.60, -3639.39, 0.000, 0.000, 0.000, 12:30:12.179
1, -4163.03, -4615.85, -4403.17, -3568.55, 0.000, 0.000, 0.000, 12:30:12.193
2, -4146.52, -4628.90, -4401.08, -3558.24, 0.000, 0.000, 0.000, 12:30:12.193
3, -4029.76, -4532.78, -4289.20, -3581.43, 0.000, 0.000, 0.000, 12:30:12.208
4, -4044.11, -4540.46, -4292.60, -3644.51, 0.000, 0.000, 0.000, 12:30:12.208
5, -4122.86, -4600.94, -4376.61, -3567.19, 0.000, 0.000, 0.000, 12:30:12.208
6, -4103.34, -4579.49, -4351.49, -3558.43, 0.000, 0.000, 0.000, 12:30:12.208
7, -4032.32, -4523.89, -4269.16, -3626.28, 0.000, 0.000, 0.000, 12:30:12.224
8, -4020.72, -4518.59, -4254.47, -3666.44, 0.000, 0.000, 0.000, 12:30:12.224
9, -4101.12, -4558.91, -4312.61, -3589.08, 0.000, 0.000, 0.000, 12:30:12.239
10, -4084.64, -4557.36, -4299.88, -3569.76, 0.000, 0.000, 0.000, 12:30:12.239
11, -4020.51, -4524.57, -4228.30, -3637.09, 0.000, 0.000, 0.000, 12:30:12.239
12, -4004.51, -4513.39, -4214.10, -3669.59, 0.000, 0.000, 0.000, 12:30:12.239
13, -4092.28, -4560.33, -4321.79, -3596.31, 0.000, 0.000, 0.000, 12:30:12.254
14, -4061.53, -4557.57, -4306.07, -3570.55, 0.000, 0.000, 0.000, 12:30:12.254
15, -3993.94, -4517.42, -4202.03, -3618.55, 0.000, 0.000, 0.000, 12:30:12.268
16, -3994.38, -4523.66, -4201.22, -3660.61, 0.000, 0.000, 0.000, 12:30:12.268
17, -4093.16, -4560.72, -4306.75, -3593.49, 0.000, 0.000, 0.000, 12:30:12.269
18, -4082.04, -4572.21, -4308.22, -3562.89, 0.000, 0.000, 0.000, 12:30:12.269
19, -4021.01, -4523.80, -4222.99, -3615.84, 0.000, 0.000, 0.000, 12:30:12.284
20, -4022.81, -4534.87, -4239.48, -3651.73, 0.000, 0.000, 0.000, 12:30:12.284
21, -4116.59, -4597.07, -4354.51, -3572.02, 0.000, 0.000, 0.000, 12:30:12.298
22, -4102.21, -4572.93, -4335.92, -3549.38, 0.000, 0.000, 0.000, 12:30:12.298
23, -4033.45, -4555.75, -4278.85, -3606.61, 0.000, 0.000, 0.000, 12:30:12.299
24, -4039.21, -4550.36, -4262.06, -3644.32, 0.000, 0.000, 0.000, 12:30:12.299
25, -4128.22, -4574.47, -4355.51, -3566.59, 0.000, 0.000, 0.000, 12:30:12.328
26, -4110.76, -4580.30, -4339.79, -3542.41, 0.000, 0.000, 0.000, 12:30:12.328
27, -4048.17, -4556.51, -4281.01, -3603.78, 0.000, 0.000, 0.000, 12:30:12.329
28, -4045.96, -4558.78, -4307.34, -3642.96, 0.000, 0.000, 0.000, 12:30:12.329
29, -4124.43, -4604.97, -4393.29, -3553.73, 0.000, 0.000, 0.000, 12:30:12.330
30, -4110.08, -4592.25, -4334.05, -3532.50, 0.000, 0.000, 0.000, 12:30:12.330
31, -4054.30, -4557.43, -4302.90, -3597.95, 0.000, 0.000, 0.000, 12:30:12.343
32, -4049.75, -4549.49, -4278.41, -3634.80, 0.000, 0.000, 0.000, 12:30:12.343
33, -4146.33, -4594.21, -4373.86, -3564.49, 0.000, 0.000, 0.000, 12:30:12.359
34, -4126.04, -4604.94, -4362.23, -3543.67, 0.000, 0.000, 0.000, 12:30:12.359
35, -4070.55, -4580.21, -4318.26, -3609.77, 0.000, 0.000, 0.000, 12:30:12.365
36, -4068.67, -4591.20, -4328.57, -3651.10, 0.000, 0.000, 0.000, 12:30:12.365
37, -4142.59, -4587.97, -4360.38, -3574.51, 0.000, 0.000, 0.000, 12:30:12.374
38, -4120.00, -4573.11, -4356.57, -3547.11, 0.000, 0.000, 0.000, 12:30:12.374
39, -4051.70, -4560.06, -4296.54, -3592.59, 0.000, 0.000, 0.000, 12:30:12.389
40, -4052.29, -4558.21, -4305.25, -3628.93, 0.000, 0.000, 0.000, 12:30:12.389
41, -4126.03, -4586.98, -4401.91, -3558.21, 0.000, 0.000, 0.000, 12:30:12.390
42, -4114.52, -4604.04, -4376.20, -3542.33, 0.000, 0.000, 0.000, 12:30:12.390
43, -4062.20, -4572.89, -4322.60, -3597.41, 0.000, 0.000, 0.000, 12:30:12.419
44, -4057.17, -4550.44, -4309.76, -3638.65, 0.000, 0.000, 0.000, 12:30:12.419
45, -4136.76, -4607.41, -4391.57, -3570.29, 0.000, 0.000, 0.000, 12:30:12.419
46, -4121.52, -4605.65, -4357.66, -3539.96, 0.000, 0.000, 0.000, 12:30:12.419
47, -4051.28, -4558.77, -4288.21, -3590.42, 0.000, 0.000, 0.000, 12:30:12.419
48, -4049.55, -4553.10, -4302.03, -3635.01, 0.000, 0.000, 0.000, 12:30:12.420
49, -4136.95, -4594.19, -4395.94, -3555.49, 0.000, 0.000, 0.000, 12:30:12.434
50, -4133.82, -4613.96, -4399.03, -3541.02, 0.000, 0.000, 0.000, 12:30:12.434
51, -4054.74, -4562.57, -4317.39, -3610.95, 0.000, 0.000, 0.000, 12:30:12.448
52, -4048.26, -4551.99, -4294.08, -3639.03, 0.000, 0.000, 0.000, 12:30:12.448
53, -4143.93, -4612.35, -4417.38, -3553.85, 0.000, 0.000, 0.000, 12:30:12.449
54, -4126.65, -4617.58, -4386.00, -3541.69, 0.000, 0.000, 0.000, 12:30:12.449
55, -4060.79, -4567.07, -4319.46, -3592.81, 0.000, 0.000, 0.000, 12:30:12.463
56, -4046.27, -4536.63, -4300.95, -3633.31, 0.000, 0.000, 0.000, 12:30:12.463
57, -4128.75, -4588.28, -4386.43, -3565.27, 0.000, 0.000, 0.000, 12:30:12.478
58, -4125.56, -4605.43, -4369.00, -3545.16, 0.000, 0.000, 0.000, 12:30:12.478
59, -4065.24, -4580.05, -4316.83, -3610.47, 0.000, 0.000, 0.000, 12:30:12.478
60, -4068.14, -4577.37, -4340.81, -3655.83, 0.000, 0.000, 0.000, 12:30:12.478
61, -4148.79, -4633.09, -4418.25, -3572.63, 0.000, 0.000, 0.000, 12:30:12.494
62, -4126.82, -4600.68, -4388.14, -3547.02, 0.000, 0.000, 0.000, 12:30:12.494
63, -4059.18, -4582.88, -4319.85, -3604.46, 0.000, 0.000, 0.000, 12:30:12.509
64, -4070.34, -4572.72, -4309.51, -3642.86, 0.000, 0.000, 0.000, 12:30:12.510
65, -4153.72, -4605.13, -4412.17, -3562.74, 0.000, 0.000, 0.000, 12:30:12.511
66, -4131.19, -4607.54, -4395.30, -3540.00, 0.000, 0.000, 0.000, 12:30:12.511
67, -4058.97, -4576.21, -4332.13, -3596.20, 0.000, 0.000, 0.000, 12:30:12.524
68, -4077.02, -4596.58, -4358.08, -3647.38, 0.000, 0.000, 0.000, 12:30:12.524
69, -4175.48, -4640.28, -4426.48, -3573.25, 0.000, 0.000, 0.000, 12:30:12.539
70, -4137.76, -4616.32, -4394.53, -3526.84, 0.000, 0.000, 0.000, 12:30:12.539
71, -4056.34, -4564.22, -4324.91, -3582.31, 0.000, 0.000, 0.000, 12:30:12.539
72, -4076.78, -4590.81, -4356.00, -3628.65, 0.000, 0.000, 0.000, 12:30:12.539
73, -4158.64, -4636.88, -4473.54, -3534.02, 0.000, 0.000, 0.000, 12:30:12.556
74, -4133.94, -4602.69, -4448.73, -3501.93, 0.000, 0.000, 0.000, 12:30:12.556
75, -4082.72, -4575.39, -4371.20, -3563.77, 0.000, 0.000, 0.000, 12:30:12.569
76, -4076.20, -4585.70, -4372.79, -3594.18, 0.000, 0.000, 0.000, 12:30:12.570
77, -4164.50, -4628.51, -4478.57, -3513.15, 0.000, 0.000, 0.000, 12:30:12.570
78, -4154.02, -4620.52, -4468.63, -3494.75, 0.000, 0.000, 0.000, 12:30:12.570
79, -4093.04, -4581.69, -4395.53, -3555.69, 0.000, 0.000, 0.000, 12:30:12.583
80, -4097.44, -4571.60, -4400.32, -3591.79, 0.000, 0.000, 0.000, 12:30:12.583
81, -4187.05, -4634.95, -4507.94, -3517.68, 0.000, 0.000, 0.000, 12:30:12.598
82, -4177.77, -4642.06, -4501.07, -3501.73, 0.000, 0.000, 0.000, 12:30:12.598
83, -4105.87, -4604.55, -4414.45, -3556.99, 0.000, 0.000, 0.000, 12:30:12.598
84, -4093.53, -4587.42, -4400.87, -3596.89, 0.000, 0.000, 0.000, 12:30:12.598
85, -4168.84, -4638.05, -4500.20, -3525.86, 0.000, 0.000, 0.000, 12:30:12.613
86, -4140.95, -4650.35, -4455.78, -3504.29, 0.000, 0.000, 0.000, 12:30:12.613
87, -4075.88, -4585.82, -4367.31, -3575.15, 0.000, 0.000, 0.000, 12:30:12.628
88, -4067.38, -4572.44, -4380.42, -3617.69, 0.000, 0.000, 0.000, 12:30:12.628
89, -4156.81, -4639.53, -4482.32, -3539.30, 0.000, 0.000, 0.000, 12:30:12.629
90, -4145.46, -4647.59, -4478.49, -3525.16, 0.000, 0.000, 0.000, 12:30:12.629
91, -4070.30, -4569.13, -4349.61, -3583.50, 0.000, 0.000, 0.000, 12:30:12.643
92, -4052.58, -4539.20, -4326.60, -3616.97, 0.000, 0.000, 0.000, 12:30:12.643
93, -4141.61, -4620.28, -4446.75, -3546.80, 0.000, 0.000, 0.000, 12:30:12.659
94, -4125.34, -4611.24, -4411.30, -3526.17, 0.000, 0.000, 0.000, 12:30:12.659
95, -4056.01, -4578.35, -4325.86, -3587.85, 0.000, 0.000, 0.000, 12:30:12.659
96, -4070.27, -4592.65, -4353.86, -3629.89, 0.000, 0.000, 0.000, 12:30:12.659
97, -4156.19, -4642.96, -4458.52, -3554.78, 0.000, 0.000, 0.000, 12:30:12.674
98, -4132.84, -4614.05, -4422.53, -3550.28, 0.000, 0.000, 0.000, 12:30:12.674
99, -4061.15, -4581.43, -4342.27, -3597.93, 0.000, 0.000, 0.000, 12:30:12.689
100, -4064.28, -4555.82, -4326.76, -3634.17, 0.000, 0.000, 0.000, 12:30:12.689
101, -4133.38, -4609.81, -4405.20, -3550.74, 0.000, 0.000, 0.000, 12:30:12.689
102, -4123.33, -4616.84, -4396.15, -3534.78, 0.000, 0.000, 0.000, 12:30:12.689
103, -4056.35, -4568.33, -4322.54, -3588.60, 0.000, 0.000, 0.000, 12:30:12.704
104, -4062.10, -4566.42, -4333.15, -3641.82, 0.000, 0.000, 0.000, 12:30:12.704
105, -4150.51, -4627.54, -4429.95, -3563.68, 0.000, 0.000, 0.000, 12:30:12.718
106, -4125.56, -4613.83, -4390.30, -3542.38, 0.000, 0.000, 0.000, 12:30:12.718
107, -4064.19, -4570.40, -4328.82, -3602.14, 0.000, 0.000, 0.000, 12:30:12.723
108, -4054.30, -4563.26, -4338.33, -3631.25, 0.000, 0.000, 0.000, 12:30:12.723
109, -4138.86, -4621.00, -4424.84, -3565.26, 0.000, 0.000, 0.000, 12:30:12.735
110, -4129.44, -4601.12, -4415.04, -3529.48, 0.000, 0.000, 0.000, 12:30:12.735
111, -4061.35, -4587.95, -4312.71, -3593.57, 0.000, 0.000, 0.000, 12:30:12.748
112, -4061.57, -4586.85, -4319.77, -3631.53, 0.000, 0.000, 0.000, 12:30:12.748
113, -4138.40, -4592.80, -4399.00, -3561.39, 0.000, 0.000, 0.000, 12:30:12.749
114, -4120.15, -4602.43, -4391.36, -3532.76, 0.000, 0.000, 0.000, 12:30:12.749
115, -4054.83, -4587.98, -4331.20, -3607.29, 0.000, 0.000, 0.000, 12:30:12.764
116, -4045.87, -4546.38, -4318.47, -3644.04, 0.000, 0.000, 0.000, 12:30:12.764
117, -4145.78, -4609.35, -4417.30, -3554.55, 0.000, 0.000, 0.000, 12:30:12.779
118, -4112.70, -4619.39, -4393.86, -3534.28, 0.000, 0.000, 0.000, 12:30:12.779
119, -4049.52, -4557.28, -4309.38, -3597.84, 0.000, 0.000, 0.000, 12:30:12.779
120, -4041.29, -4539.91, -4302.57, -3638.36, 0.000, 0.000, 0.000, 12:30:12.779
121, -4135.85, -4602.42, -4416.63, -3564.28, 0.000, 0.000, 0.000, 12:30:12.793
122, -4122.68, -4632.15, -4402.13, -3543.92, 0.000, 0.000, 0.000, 12:30:12.793
123, -4058.98, -4576.18, -4320.24, -3603.72, 0.000, 0.000, 0.000, 12:30:12.808
124, -4051.55, -4562.51, -4319.02, -3640.59, 0.000, 0.000, 0.000, 12:30:12.808
125, -4138.62, -4603.68, -4403.10, -3577.16, 0.000, 0.000, 0.000, 12:30:12.808
126, -4113.98, -4613.81, -4393.60, -3536.81, 0.000, 0.000, 0.000, 12:30:12.808
127, -4046.78, -4562.65, -4341.90, -3593.67, 0.000, 0.000, 0.000, 12:30:12.824
128, -4056.15, -4547.64, -4314.30, -3631.55, 0.000, 0.000, 0.000, 12:30:12.824
129, -4140.20, -4602.85, -4402.74, -3564.35, 0.000, 0.000, 0.000, 12:30:12.839
130, -4118.57, -4588.38, -4375.47, -3531.37, 0.000, 0.000, 0.000, 12:30:12.839
131, -4059.44, -4566.46, -4302.26, -3590.49, 0.000, 0.000, 0.000, 12:30:12.840
132, -4061.90, -4590.97, -4338.18, -3641.72, 0.000, 0.000, 0.000, 12:30:12.840
133, -4153.13, -4640.62, -4441.80, -3568.18, 0.000, 0.000, 0.000, 12:30:12.860
134, -4126.82, -4606.56, -4393.38, -3536.63, 0.000, 0.000, 0.000, 12:30:12.860
135, -4056.24, -4570.36, -4316.33, -3594.53, 0.000, 0.000, 0.000, 12:30:12.868
136, -4064.30, -4570.30, -4322.99, -3642.11, 0.000, 0.000, 0.000, 12:30:12.868
137, -4139.00, -4606.74, -4398.12, -3557.41, 0.000, 0.000, 0.000, 12:30:12.868
138, -4123.73, -4598.11, -4402.35, -3529.64, 0.000, 0.000, 0.000, 12:30:12.869
139, -4051.89, -4559.21, -4323.09, -3597.41, 0.000, 0.000, 0.000, 12:30:12.885
140, -4059.61, -4558.51, -4329.79, -3636.18, 0.000, 0.000, 0.000, 12:30:12.885
141, -4152.24, -4630.52, -4421.97, -3559.83, 0.000, 0.000, 0.000, 12:30:12.899
142, -4115.71, -4588.13, -4385.95, -3534.13, 0.000, 0.000, 0.000, 12:30:12.899
143, -4048.98, -4578.14, -4312.90, -3599.64, 0.000, 0.000, 0.000, 12:30:12.899
144, -4054.70, -4557.64, -4325.12, -3630.17, 0.000, 0.000, 0.000, 12:30:12.899
145, -4140.05, -4608.14, -4416.01, -3556.60, 0.000, 0.000, 0.000, 12:30:12.913
146, -4121.44, -4625.78, -4394.75, -3534.96, 0.000, 0.000, 0.000, 12:30:12.913
147, -4048.08, -4561.25, -4287.50, -3596.43, 0.000, 0.000, 0.000, 12:30:12.928
148, -4046.20, -4540.08, -4311.73, -3628.08, 0.000, 0.000, 0.000, 12:30:12.928
149, -4129.52, -4586.28, -4386.05, -3550.91, 0.000, 0.000, 0.000, 12:30:12.929
150, -4116.62, -4604.44, -4371.96, -3531.66, 0.000, 0.000, 0.000, 12:30:12.929
151, -4056.71, -4573.70, -4318.69, -3597.55, 0.000, 0.000, 0.000, 12:30:12.943
152, -4047.30, -4554.99, -4337.83, -3638.78, 0.000, 0.000, 0.000, 12:30:12.944
153, -4131.25, -4611.07, -4398.46, -3561.99, 0.000, 0.000, 0.000, 12:30:12.958
154, -4103.27, -4591.25, -4390.06, -3537.55, 0.000, 0.000, 0.000, 12:30:12.959
155, -4052.32, -4594.78, -4327.86, -3607.83, 0.000, 0.000, 0.000, 12:30:12.959
156, -4058.90, -4571.82, -4318.37, -3634.29, 0.000, 0.000, 0.000, 12:30:12.959
157, -4128.98, -4612.54, -4395.79, -3554.79, 0.000, 0.000, 0.000, 12:30:12.974
158, -4119.28, -4592.84, -4377.27, -3542.77, 0.000, 0.000, 0.000, 12:30:12.974
159, -4054.93, -4559.31, -4301.61, -3608.07, 0.000, 0.000, 0.000, 12:30:12.988
160, -4048.53, -4556.75, -4317.82, -3647.21, 0.000, 0.000, 0.000, 12:30:12.988
161, -4133.47, -4605.12, -4404.97, -3551.38, 0.000, 0.000, 0.000, 12:30:12.988
162, -4113.95, -4599.21, -4375.85, -3542.27, 0.000, 0.000, 0.000, 12:30:12.988
163, -4053.51, -4567.66, -4324.42, -3591.23, 0.000, 0.000, 0.000, 12:30:13.004
164, -4042.41, -4554.00, -4329.02, -3630.27, 0.000, 0.000, 0.000, 12:30:13.004
165, -4123.56, -4607.21, -4407.16, -3564.22, 0.000, 0.000, 0.000, 12:30:13.019
166, -4112.05, -4621.74, -4370.01, -3529.72, 0.000, 0.000, 0.000, 12:30:13.019
167, -4053.64, -4574.73, -4303.33, -3589.60, 0.000, 0.000, 0.000, 12:30:13.020
168, -4058.60, -4537.66, -4318.09, -3640.20, 0.000, 0.000, 0.000, 12:30:13.020
169, -4136.47, -4601.69, -4408.89, -3562.93, 0.000, 0.000, 0.000, 12:30:13.033
170, -4124.85, -4612.06, -4396.84, -3544.51, 0.000, 0.000, 0.000, 12:30:13.033
171, -4050.52, -4570.51, -4332.54, -3591.49, 0.000, 0.000, 0.000, 12:30:13.048
172, -4042.74, -4549.42, -4308.43, -3628.44, 0.000, 0.000, 0.000, 12:30:13.049
173, -4124.70, -4601.07, -4384.66, -3550.20, 0.000, 0.000, 0.000, 12:30:13.049
174, -4105.74, -4590.60, -4363.31, -3530.97, 0.000, 0.000, 0.000, 12:30:13.049
175, -4054.83, -4578.00, -4320.09, -3591.35, 0.000, 0.000, 0.000, 12:30:13.063
176, -4058.65, -4559.96, -4330.51, -3637.24, 0.000, 0.000, 0.000, 12:30:13.063
177, -4140.25, -4591.56, -4406.08, -3561.72, 0.000, 0.000, 0.000, 12:30:13.078
178, -4127.22, -4609.37, -4390.83, -3553.58, 0.000, 0.000, 0.000, 12:30:13.078
179, -4076.37, -4629.67, -4375.72, -3622.15, 0.000, 0.000, 0.000, 12:30:13.078
180, -4040.52, -4572.77, -4315.12, -3647.98, 0.000, 0.000, 0.000, 12:30:13.078
181, -4100.26, -4572.93, -4374.95, -3539.63, 0.000, 0.000, 0.000, 12:30:13.094
182, -4083.44, -4623.29, -4379.56, -3527.93, 0.000, 0.000, 0.000, 12:30:13.094
183, -4010.83, -4574.57, -4320.05, -3596.09, 0.000, 0.000, 0.000, 12:30:13.108
184, -3984.69, -4572.24, -4320.79, -3629.26, 0.000, 0.000, 0.000, 12:30:13.108
185, -4067.68, -4632.90, -4425.40, -3546.23, 0.000, 0.000, 0.000, 12:30:13.109
186, -4030.59, -4628.77, -4389.62, -3526.59, 0.000, 0.000, 0.000, 12:30:13.109
187, -3977.16, -4578.77, -4342.55, -3581.22, 0.000, 0.000, 0.000, 12:30:13.124
188, -3965.57, -4562.91, -4342.76, -3620.26, 0.000, 0.000, 0.000, 12:30:13.124
189, -4060.41, -4641.61, -4420.15, -3549.89, 0.000, 0.000, 0.000, 12:30:13.139
190, -4058.47, -4660.57, -4406.66, -3535.75, 0.000, 0.000, 0.000, 12:30:13.140
191, -4014.70, -4596.02, -4328.60, -3595.79, 0.000, 0.000, 0.000, 12:30:13.140
192, -4022.21, -4588.49, -4345.03, -3637.57, 0.000, 0.000, 0.000, 12:30:13.140
193, -4095.53, -4607.00, -4416.08, -3560.83, 0.000, 0.000, 0.000, 12:30:13.154
194, -4079.27, -4604.20, -4380.89, -3546.46, 0.000, 0.000, 0.000, 12:30:13.154
195, -4033.43, -4580.73, -4330.00, -3610.25, 0.000, 0.000, 0.000, 12:30:13.169
196, -4039.96, -4575.28, -4364.59, -3631.32, 0.000, 0.000, 0.000, 12:30:13.169
197, -4121.46, -4639.30, -4427.38, -3553.36, 0.000, 0.000, 0.000, 12:30:13.169
198, -4110.52, -4643.25, -4398.48, -3542.52, 0.000, 0.000, 0.000, 12:30:13.170
199, -4037.85, -4568.25, -4326.16, -3598.40, 0.000, 0.000, 0.000, 12:30:13.183
200, -4044.77, -4572.19, -4345.37, -3644.63, 0.000, 0.000, 0.000, 12:30:13.183
0, -4124.35, -4603.01, -4404.49, -3569.51, 0.000, 0.000, 0.000, 12:30:13.183
1, -4105.68, -4608.22, -4383.77, -3543.56, 0.000, 0.000, 0.000, 12:30:13.198
2, -4049.24, -4587.69, -4341.20, -3607.64, 0.000, 0.000, 0.000, 12:30:13.198
3, -4053.90, -4579.31, -4324.81, -3636.77, 0.000, 0.000, 0.000, 12:30:13.213
4, -4137.31, -4628.54, -4400.09, -3562.17, 0.000, 0.000, 0.000, 12:30:13.214
5, -4117.02, -4619.15, -4383.39, -3544.69, 0.000, 0.000, 0.000, 12:30:13.216
6, -4042.90, -4584.85, -4314.09, -3595.43, 0.000, 0.000, 0.000, 12:30:13.216
7, -4054.43, -4558.92, -4328.31, -3632.05, 0.000, 0.000, 0.000, 12:30:13.229
8, -4131.01, -4617.18, -4435.58, -3566.79, 0.000, 0.000, 0.000, 12:30:13.229
9, -4107.43, -4616.56, -4388.08, -3544.54, 0.000, 0.000, 0.000, 12:30:13.243
10, -4045.92, -4563.83, -4316.91, -3593.99, 0.000, 0.000, 0.000, 12:30:13.243
11, -4056.56, -4560.33, -4313.39, -3639.14, 0.000, 0.000, 0.000, 12:30:13.244
12, -4133.71, -4621.35, -4413.90, -3559.03, 0.000, 0.000, 0.000, 12:30:13.244
13, -4119.03, -4597.60, -4392.02, -3551.98, 0.000, 0.000, 0.000, 12:30:13.258
14, -4061.45, -4572.81, -4316.00, -3600.00, 0.000, 0.000, 0.000, 12:30:13.258
15, -4073.07, -4600.57, -4343.97, -3656.45, 0.000, 0.000, 0.000, 12:30:13.275
16, -4143.76, -4628.95, -4444.21, -3568.34, 0.000, 0.000, 0.000, 12:30:13.275
17, -4123.77, -4609.40, -4393.60, -3550.73, 0.000, 0.000, 0.000, 12:30:13.275
18, -4065.19, -4570.96, -4302.50, -3614.62, 0.000, 0.000, 0.000, 12:30:13.275
19, -4067.38, -4570.46, -4324.24, -3646.69, 0.000, 0.000, 0.000, 12:30:13.289
20, -4154.46, -4639.74, -4423.71, -3566.28, 0.000, 0.000, 0.000, 12:30:13.289
21, -4127.28, -4594.11, -4373.25, -3550.82, 0.000, 0.000, 0.000, 12:30:13.304
22, -4053.66, -4546.08, -4302.67, -3604.73, 0.000, 0.000, 0.000, 12:30:13.304
23, -4062.12, -4554.91, -4320.13, -3634.36, 0.000, 0.000, 0.000, 12:30:13.305
24, -4144.27, -4609.54, -4414.25, -3567.35, 0.000, 0.000, 0.000, 12:30:13.305
25, -4111.01, -4596.02, -4390.64, -3544.91, 0.000, 0.000, 0.000, 12:30:13.318
26, -4054.17, -4562.00, -4317.49, -3601.55, 0.000, 0.000, 0.000, 12:30:13.319
27, -4059.42, -4575.75, -4337.43, -3633.45, 0.000, 0.000, 0.000, 12:30:13.334
28, -4141.37, -4633.66, -4431.31, -3576.25, 0.000, 0.000, 0.000, 12:30:13.334
29, -4115.87, -4609.82, -4385.30, -3548.13, 0.000, 0.000, 0.000, 12:30:13.334
30, -4050.47, -4553.19, -4310.95, -3599.16, 0.000, 0.000, 0.000, 12:30:13.334
31, -4045.95, -4554.41, -4311.43, -3630.16, 0.000, 0.000, 0.000, 12:30:13.348
32, -4139.75, -4618.94, -4405.76, -3569.32, 0.000, 0.000, 0.000, 12:30:13.348
33, -4116.40, -4608.59, -4386.84, -3545.91, 0.000, 0.000, 0.000, 12:30:13.363
34, -4056.32, -4563.43, -4319.37, -3605.37, 0.000, 0.000, 0.000, 12:30:13.363
35, -4066.07, -4578.80, -4339.06, -3647.08, 0.000, 0.000, 0.000, 12:30:13.364
36, -4136.26, -4632.38, -4421.85, -3569.94, 0.000, 0.000, 0.000, 12:30:13.364
37, -4134.83, -4612.04, -4388.66, -3552.68, 0.000, 0.000, 0.000, 12:30:13.379
38, -4076.24, -4591.83, -4336.71, -3614.22, 0.000, 0.000, 0.000, 12:30:13.379
39, -4042.60, -4556.59, -4314.77, -3624.56, 0.000, 0.000, 0.000, 12:30:13.393
40, -4129.23, -4602.05, -4402.73, -3561.99, 0.000, 0.000, 0.000, 12:30:13.393
41, -4125.63, -4619.48, -4403.68, -3553.44, 0.000, 0.000, 0.000, 12:30:13.394
42, -4066.34, -4576.31, -4314.50, -3606.23, 0.000, 0.000, 0.000, 12:30:13.394
43, -4068.79, -4542.97, -4319.26, -3650.25, 0.000, 0.000, 0.000, 12:30:13.409
44, -4140.55, -4588.87, -4408.22, -3570.44, 0.000, 0.000, 0.000, 12:30:13.410
45, -4125.75, -4603.47, -4385.07, -3539.52, 0.000, 0.000, 0.000, 12:30:13.423
46, -4056.87, -4573.94, -4297.92, -3587.74, 0.000, 0.000, 0.000, 12:30:13.424
47, -4065.28, -4552.57, -4309.94, -3628.57, 0.000, 0.000, 0.000, 12:30:13.425
48, -4155.83, -4608.90, -4394.56, -3562.05, 0.000, 0.000, 0.000, 12:30:13.425
49, -4133.72, -4586.89, -4382.24, -3549.94, 0.000, 0.000, 0.000, 12:30:13.438
50, -4066.95, -4567.50, -4319.73, -3597.61, 0.000, 0.000, 0.000, 12:30:13.439
51, -4066.21, -4561.02, -4316.38, -3638.60, 0.000, 0.000, 0.000, 12:30:13.454
52, -4141.31, -4604.38, -4409.16, -3557.61, 0.000, 0.000, 0.000, 12:30:13.454
53, -4123.76, -4597.71, -4383.17, -3543.67, 0.000, 0.000, 0.000, 12:30:13.454
54, -4068.91, -4569.86, -4326.60, -3604.80, 0.000, 0.000, 0.000, 12:30:13.454
55, -4075.87, -4564.80, -4299.72, -3644.47, 0.000, 0.000, 0.000, 12:30:13.468
56, -4153.78, -4605.67, -4395.48, -3569.20, 0.000, 0.000, 0.000, 12:30:13.469
57, -4136.41, -4615.48, -4390.15, -3546.29, 0.000, 0.000, 0.000, 12:30:13.483
58, -4068.87, -4574.39, -4312.37, -3602.20, 0.000, 0.000, 0.000, 12:30:13.483
59, -4073.63, -4583.41, -4324.99, -3643.20, 0.000, 0.000, 0.000, 12:30:13.483
60, -4147.01, -4603.94, -4406.25, -3558.92, 0.000, 0.000, 0.000, 12:30:13.484
61, -4124.66, -4587.04, -4381.99, -3554.41, 0.000, 0.000, 0.000, 12:30:13.498
62, -4058.75, -4569.96, -4328.64, -3596.10, 0.000, 0.000, 0.000, 12:30:13.499
63, -4052.84, -4561.80, -4310.15, -3619.79, 0.000, 0.000, 0.000, 12:30:13.513
64, -4141.75, -4610.52, -4421.21, -3561.42, 0.000, 0.000, 0.000, 12:30:13.513
65, -4123.21, -4628.24, -4374.59, -3542.73, 0.000, 0.000, 0.000, 12:30:13.514
66, -4064.75, -4571.29, -4312.00, -3599.53, 0.000, 0.000, 0.000, 12:30:13.514
67, -4054.18, -4545.78, -4305.45, -3626.53, 0.000, 0.000, 0.000, 12:30:13.528
68, -4142.80, -4589.01, -4404.00, -3558.28, 0.000, 0.000, 0.000, 12:30:13.528
69, -4119.30, -4600.17, -4388.10, -3544.82, 0.000, 0.000, 0.000, 12:30:13.543
70, -4055.50, -4569.90, -4298.28, -3602.14, 0.000, 0.000, 0.000, 12:30:13.544
71, -4061.01, -4561.08, -4321.23, -3638.34, 0.000, 0.000, 0.000, 12:30:13.544
72, -4139.58, -4616.07, -4410.42, -3556.07, 0.000, 0.000, 0.000, 12:30:13.544
73, -4124.86, -4600.93, -4378.76, -3539.16, 0.000, 0.000, 0.000, 12:30:13.559
74, -4055.58, -4565.32, -4322.38, -3596.63, 0.000, 0.000, 0.000, 12:30:13.559
75, -4057.30, -4583.43, -4316.71, -3631.80, 0.000, 0.000, 0.000, 12:30:13.574
76, -4140.01, -4622.20, -4408.56, -3559.35, 0.000, 0.000, 0.000, 12:30:13.574
77, -4116.72, -4583.70, -4366.06, -3548.93, 0.000, 0.000, 0.000, 12:30:13.574
78, -4062.46, -4563.19, -4321.19, -3594.50, 0.000, 0.000, 0.000, 12:30:13.575
79, -4071.40, -4564.11, -4322.75, -3642.96, 0.000, 0.000, 0.000, 12:30:13.594
80, -4169.64, -4637.84, -4414.16, -3569.58, 0.000, 0.000, 0.000, 12:30:13.594
81, -4128.56, -4599.06, -4378.02, -3532.92, 0.000, 0.000, 0.000, 12:30:13.606
82, -4052.36, -4544.56, -4307.03, -3574.16, 0.000, 0.000, 0.000, 12:30:13.606
83, -4086.69, -4547.96, -4328.09, -3623.45, 0.000, 0.000, 0.000, 12:30:13.606
84, -4183.18, -4589.24, -4395.18, -3555.36, 0.000, 0.000, 0.000, 12:30:13.606
85, -4165.51, -4591.14, -4376.66, -3532.43, 0.000, 0.000, 0.000, 12:30:13.619
86, -4120.83, -4538.47, -4320.24, -3594.09, 0.000, 0.000, 0.000, 12:30:13.619
87, -4129.56, -4524.29, -4344.63, -3622.12, 0.000, 0.000, 0.000, 12:30:13.633
88, -4219.46, -4579.66, -4402.82, -3550.28, 0.000, 0.000, 0.000, 12:30:13.633
89, -4213.11, -4566.81, -4369.56, -3539.43, 0.000, 0.000, 0.000, 12:30:13.634
90, -4156.68, -4526.39, -4319.67, -3592.04, 0.000, 0.000, 0.000, 12:30:13.634
91, -4162.01, -4523.82, -4320.90, -3638.20, 0.000, 0.000, 0.000, 12:30:13.648
92, -4256.07, -4571.41, -4409.62, -3561.85, 0.000, 0.000, 0.000, 12:30:13.648
93, -4220.22, -4555.20, -4362.85, -3538.80, 0.000, 0.000, 0.000, 12:30:13.663
94, -4156.32, -4550.86, -4311.17, -3594.31, 0.000, 0.000, 0.000, 12:30:13.663
95, -4165.34, -4523.15, -4321.03, -3625.95, 0.000, 0.000, 0.000, 12:30:13.664
96, -4227.26, -4543.32, -4382.44, -3553.14, 0.000, 0.000, 0.000, 12:30:13.664
97, -4199.06, -4544.70, -4364.76, -3536.84, 0.000, 0.000, 0.000, 12:30:13.678
98, -4138.90, -4533.40, -4314.63, -3612.67, 0.000, 0.000, 0.000, 12:30:13.678
99, -4137.71, -4524.86, -4315.53, -3640.10, 0.000, 0.000, 0.000, 12:30:13.693
100, -4201.01, -4567.26, -4393.74, -3563.41, 0.000, 0.000, 0.000, 12:30:13.693
101, -4175.10, -4570.68, -4352.83, -3533.15, 0.000, 0.000, 0.000, 12:30:13.693
102, -4110.35, -4547.29, -4293.88, -3600.51, 0.000, 0.000, 0.000, 12:30:13.694
103, -4113.73, -4537.29, -4301.55, -3637.88, 0.000, 0.000, 0.000, 12:30:13.708
104, -4181.39, -4573.94, -4386.85, -3554.98, 0.000, 0.000, 0.000, 12:30:13.709
105, -4154.27, -4583.44, -4356.81, -3538.87, 0.000, 0.000, 0.000, 12:30:13.724
106, -4091.49, -4540.00, -4307.24, -3600.58, 0.000, 0.000, 0.000, 12:30:13.724
107, -4096.30, -4538.21, -4315.98, -3631.92, 0.000, 0.000, 0.000, 12:30:13.724
108, -4170.52, -4592.00, -4392.23, -3556.72, 0.000, 0.000, 0.000, 12:30:13.725
109, -4142.60, -4586.04, -4378.62, -3544.42, 0.000, 0.000, 0.000, 12:30:13.738
110, -4082.06, -4575.06, -4308.90, -3602.55, 0.000, 0.000, 0.000, 12:30:13.739
111, -4097.09, -4577.23, -4327.72, -3639.67, 0.000, 0.000, 0.000, 12:30:13.754
112, -4169.31, -4607.78, -4407.02, -3563.81, 0.000, 0.000, 0.000, 12:30:13.754
113, -4143.06, -4583.66, -4385.01, -3547.18, 0.000, 0.000, 0.000, 12:30:13.754
114, -4085.03, -4569.31, -4317.34, -3602.96, 0.000, 0.000, 0.000, 12:30:13.754
115, -4082.05, -4557.05, -4317.08, -3642.55, 0.000, 0.000, 0.000, 12:30:13.768
116, -4165.66, -4608.82, -4399.39, -3560.74, 0.000, 0.000, 0.000, 12:30:13.769
117, -4135.91, -4584.44, -4390.30, -3542.33, 0.000, 0.000, 0.000, 12:30:13.783
118, -4068.06, -4565.47, -4307.36, -3606.71, 0.000, 0.000, 0.000, 12:30:13.783
119, -4084.65, -4569.57, -4320.93, -3631.59, 0.000, 0.000, 0.000, 12:30:13.784
120, -4159.22, -4617.22, -4400.66, -3563.59, 0.000, 0.000, 0.000, 12:30:13.784
121, -4131.69, -4615.98, -4379.68, -3551.28, 0.000, 0.000, 0.000, 12:30:13.798
122, -4062.05, -4554.74, -4305.60, -3607.31, 0.000, 0.000, 0.000, 12:30:13.798
123, -4075.30, -4563.28, -4331.45, -3644.17, 0.000, 0.000, 0.000, 12:30:13.813
124, -4149.15, -4614.70, -4434.60, -3566.99, 0.000, 0.000, 0.000, 12:30:13.814
125, -4133.04, -4600.29, -4388.72, -3545.09, 0.000, 0.000, 0.000, 12:30:13.814
126, -4077.21, -4571.80, -4326.08, -3613.90, 0.000, 0.000, 0.000, 12:30:13.814
127, -4089.61, -4579.56, -4332.30, -3636.95, 0.000, 0.000, 0.000, 12:30:13.828
128, -4160.52, -4605.68, -4400.62, -3566.38, 0.000, 0.000, 0.000, 12:30:13.828
129, -4136.24, -4608.97, -4403.48, -3549.87, 0.000, 0.000, 0.000, 12:30:13.843
130, -4085.25, -4599.62, -4346.45, -3614.17, 0.000, 0.000, 0.000, 12:30:13.843
131, -4080.96, -4584.91, -4336.55, -3646.61, 0.000, 0.000, 0.000, 12:30:13.843
132, -4146.22, -4608.13, -4394.38, -3563.76, 0.000, 0.000, 0.000, 12:30:13.843
133, -4135.90, -4592.15, -4370.35, -3551.70, 0.000, 0.000, 0.000, 12:30:13.859
134, -4071.57, -4567.11, -4314.30, -3597.55, 0.000, 0.000, 0.000, 12:30:13.859
135, -4075.80, -4550.08, -4338.26, -3646.41, 0.000, 0.000, 0.000, 12:30:13.874
136, -4147.21, -4625.06, -4418.96, -3555.40, 0.000, 0.000, 0.000, 12:30:13.874
137, -4123.09, -4595.01, -4368.03, -3537.22, 0.000, 0.000, 0.000, 12:30:13.875
138, -4062.01, -4563.18, -4314.35, -3611.02, 0.000, 0.000, 0.000, 12:30:13.875
139, -4061.25, -4552.85, -4309.02, -3636.87, 0.000, 0.000, 0.000, 12:30:13.888
140, -4137.56, -4597.65, -4399.21, -3573.90, 0.000, 0.000, 0.000, 12:30:13.888
141, -4111.63, -4604.44, -4393.37, -3540.35, 0.000, 0.000, 0.000, 12:30:13.903
142, -4057.05, -4564.63, -4301.52, -3591.35, 0.000, 0.000, 0.000, 12:30:13.904
143, -4045.63, -4550.35, -4310.01, -3628.39, 0.000, 0.000, 0.000, 12:30:13.904
144, -4143.61, -4634.89, -4432.60, -3576.32, 0.000, 0.000, 0.000, 12:30:13.904
145, -4120.27, -4623.77, -4387.15, -3557.91, 0.000, 0.000, 0.000, 12:30:13.919
146, -3999.29, -4549.67, -4295.53, -3581.54, 0.000, 0.000, 0.000, 12:30:13.919
147, -3968.22, -4567.87, -4304.04, -3621.54, 0.000, 0.000, 0.000, 12:30:13.933
148, -4004.46, -4637.70, -4404.63, -3540.71, 0.000, 0.000, 0.000, 12:30:13.933
149, -3950.82, -4668.57, -4407.51, -3532.80, 0.000, 0.000, 0.000, 12:30:13.934
150, -3842.66, -4635.39, -4329.07, -3586.90, 0.000, 0.000, 0.000, 12:30:13.934
151, -3817.07, -4593.48, -4325.91, -3617.94, 0.000, 0.000, 0.000, 12:30:13.948
152, -3855.45, -4649.22, -4396.44, -3521.30, 0.000, 0.000, 0.000, 12:30:13.948
153, -3815.78, -4675.57, -4378.70, -3507.67, 0.000, 0.000, 0.000, 12:30:13.963
154, -3732.54, -4672.59, -4320.75, -3572.89, 0.000, 0.000, 0.000, 12:30:13.963
155, -3720.03, -4668.30, -4335.68, -3608.47, 0.000, 0.000, 0.000, 12:30:13.964
156, -3776.10, -4714.09, -4409.71, -3517.87, 0.000, 0.000, 0.000, 12:30:13.964
157, -3747.41, -4725.47, -4383.35, -3517.82, 0.000, 0.000, 0.000, 12:30:13.993
158, -3690.59, -4708.08, -4344.08, -3581.49, 0.000, 0.000, 0.000, 12:30:13.993
159, -3697.07, -4697.73, -4355.04, -3613.39, 0.000, 0.000, 0.000, 12:30:13.993
160, -3770.37, -4731.81, -4416.22, -3534.35, 0.000, 0.000, 0.000, 12:30:13.994
161, -3772.50, -4741.03, -4388.51, -3524.65, 0.000, 0.000, 0.000, 12:30:14.001
162, -3732.89, -4720.85, -4335.92, -3583.60, 0.000, 0.000, 0.000, 12:30:14.001
163, -3723.95, -4706.49, -4349.10, -3605.25, 0.000, 0.000, 0.000, 12:30:14.008
164, -3824.51, -4734.49, -4410.39, -3538.58, 0.000, 0.000, 0.000, 12:30:14.009
165, -3805.94, -4717.84, -4369.39, -3522.95, 0.000, 0.000, 0.000, 12:30:14.024
166, -3774.57, -4698.56, -4322.18, -3578.02, 0.000, 0.000, 0.000, 12:30:14.024
167, -3818.47, -4697.19, -4333.72, -3627.20, 0.000, 0.000, 0.000, 12:30:14.025
168, -3912.71, -4723.65, -4410.37, -3548.54, 0.000, 0.000, 0.000, 12:30:14.025
169, -3893.58, -4720.08, -4379.29, -3541.48, 0.000, 0.000, 0.000, 12:30:14.038
170, -3831.20, -4688.59, -4321.15, -3594.71, 0.000, 0.000, 0.000, 12:30:14.038
171, -3856.10, -4676.03, -4338.12, -3618.35, 0.000, 0.000, 0.000, 12:30:14.053
172, -3973.53, -4707.31, -4397.05, -3547.40, 0.000, 0.000, 0.000, 12:30:14.053
173, -3967.92, -4715.55, -4375.05, -3545.05, 0.000, 0.000, 0.000, 12:30:14.055
174, -3916.64, -4696.26, -4346.21, -3598.56, 0.000, 0.000, 0.000, 12:30:14.055
175, -3937.83, -4631.55, -4313.53, -3633.72, 0.000, 0.000, 0.000, 12:30:14.069
176, -4028.21, -4680.69, -4402.40, -3544.29, 0.000, 0.000, 0.000, 12:30:14.069
177, -4030.66, -4702.27, -4385.14, -3538.03, 0.000, 0.000, 0.000, 12:30:14.083
178, -3994.99, -4659.03, -4326.01, -3602.89, 0.000, 0.000, 0.000, 12:30:14.083
179, -4004.65, -4647.52, -4343.82, -3626.87, 0.000, 0.000, 0.000, 12:30:14.084
180, -4086.47, -4689.29, -4430.39, -3547.77, 0.000, 0.000, 0.000, 12:30:14.084
181, -4072.62, -4667.84, -4378.79, -3540.20, 0.000, 0.000, 0.000, 12:30:14.099
182, -4022.28, -4652.44, -4316.03, -3601.16, 0.000, 0.000, 0.000, 12:30:14.099
183, -4049.18, -4661.19, -4343.61, -3629.01, 0.000, 0.000, 0.000, 12:30:14.113
184, -4120.10, -4669.52, -4413.98, -3545.46, 0.000, 0.000, 0.000, 12:30:14.113
185, -4101.13, -4648.72, -4381.02, -3539.05, 0.000, 0.000, 0.000, 12:30:14.114
186, -4049.27, -4585.27, -4307.21, -3590.94, 0.000, 0.000, 0.000, 12:30:14.114
187, -4062.49, -4616.79, -4334.16, -3625.43, 0.000, 0.000, 0.000, 12:30:14.128
188, -4159.55, -4655.90, -4408.92, -3541.70, 0.000, 0.000, 0.000, 12:30:14.128
189, -4152.68, -4650.76, -4398.06, -3541.16, 0.000, 0.000, 0.000, 12:30:14.143
190, -4092.35, -4602.43, -4351.41, -3613.72, 0.000, 0.000, 0.000, 12:30:14.144
191, -4104.50, -4588.70, -4325.31, -3631.77, 0.000, 0.000, 0.000, 12:30:14.144
192, -4183.31, -4622.49, -4393.41, -3545.05, 0.000, 0.000, 0.000, 12:30:14.144
193, -4176.08, -4598.51, -4382.88, -3540.66, 0.000, 0.000, 0.000, 12:30:14.158
194, -4116.34, -4589.57, -4299.37, -3615.30, 0.000, 0.000, 0.000, 12:30:14.158
195, -4128.03, -4583.73, -4347.04, -3639.83, 0.000, 0.000, 0.000, 12:30:14.174
196, -4207.04, -4601.80, -4423.46, -3544.31, 0.000, 0.000, 0.000, 12:30:14.174
197, -4169.60, -4574.57, -4373.92, -3529.82, 0.000, 0.000, 0.000, 12:30:14.174
198, -4123.67, -4546.32, -4293.86, -3600.61, 0.000, 0.000, 0.000, 12:30:14.174
199, -4135.89, -4555.04, -4334.05, -3631.23, 0.000, 0.000, 0.000, 12:30:14.189
200, -4217.81, -4601.07, -4408.64, -3547.69, 0.000, 0.000, 0.000, 12:30:14.189
0, -4179.73, -4569.64, -4358.12, -3529.26, 0.000, 0.000, 0.000, 12:30:14.189
1, -4128.24, -4556.50, -4307.37, -3614.86, 0.000, 0.000, 0.000, 12:30:14.204
2, -4123.51, -4547.13, -4320.72, -3625.94, 0.000, 0.000, 0.000, 12:30:14.204
3, -4214.58, -4605.06, -4416.70, -3548.42, 0.000, 0.000, 0.000, 12:30:14.218
4, -4163.13, -4570.13, -4377.54, -3526.75, 0.000, 0.000, 0.000, 12:30:14.218
5, -4104.57, -4535.45, -4319.14, -3617.75, 0.000, 0.000, 0.000, 12:30:14.219
6, -4108.40, -4529.81, -4277.22, -3632.08, 0.000, 0.000, 0.000, 12:30:14.219
7, -4190.55, -4591.46, -4389.13, -3540.70, 0.000, 0.000, 0.000, 12:30:14.234
8, -4169.53, -4613.25, -4367.63, -3534.69, 0.000, 0.000, 0.000, 12:30:14.234
9, -4094.81, -4546.24, -4322.56, -3595.83, 0.000, 0.000, 0.000, 12:30:14.248
10, -4097.89, -4511.81, -4307.04, -3623.71, 0.000, 0.000, 0.000, 12:30:14.248
11, -4175.70, -4564.41, -4374.07, -3537.14, 0.000, 0.000, 0.000, 12:30:14.249
12, -4146.72, -4579.96, -4366.22, -3533.50, 0.000, 0.000, 0.000, 12:30:14.249
13, -4073.05, -4545.40, -4300.33, -3597.16, 0.000, 0.000, 0.000, 12:30:14.263
14, -4084.64, -4546.13, -4309.20, -3632.15, 0.000, 0.000, 0.000, 12:30:14.263
15, -4153.42, -4578.22, -4396.85, -3535.08, 0.000, 0.000, 0.000, 12:30:14.278
16, -4139.77, -4602.78, -4390.75, -3530.69, 0.000, 0.000, 0.000, 12:30:14.278
17, -4066.19, -4561.39, -4311.74, -3599.14, 0.000, 0.000, 0.000, 12:30:14.279
18, -4067.28, -4546.65, -4305.95, -3626.74, 0.000, 0.000, 0.000, 12:30:14.279
19, -4134.37, -4601.12, -4376.00, -3535.84, 0.000, 0.000, 0.000, 12:30:14.293
20, -4084.57, -4596.74, -4361.61, -3519.33, 0.000, 0.000, 0.000, 12:30:14.293
21, -4002.35, -4554.42, -4304.10, -3599.82, 0.000, 0.000, 0.000, 12:30:14.308
22, -3985.67, -4551.33, -4281.78, -3615.54, 0.000, 0.000, 0.000, 12:30:14.308
23, -4019.36, -4592.84, -4367.05, -3510.36, 0.000, 0.000, 0.000, 12:30:14.309
24, -3976.39, -4614.42, -4345.99, -3513.68, 0.000, 0.000, 0.000, 12:30:14.309
25, -3853.99, -4605.48, -4306.80, -3571.49, 0.000, 0.000, 0.000, 12:30:14.324
26, -3839.24, -4632.11, -4308.57, -3588.53, 0.000, 0.000, 0.000, 12:30:14.325
27, -3877.23, -4664.75, -4380.26, -3494.40, 0.000, 0.000, 0.000, 12:30:14.338
28, -3831.98, -4664.86, -4370.08, -3501.06, 0.000, 0.000, 0.000, 12:30:14.339
29, -3720.27, -4620.48, -4282.74, -3564.44, 0.000, 0.000, 0.000, 12:30:14.339
30, -3701.72, -4604.96, -4273.90, -3590.31, 0.000, 0.000, 0.000, 12:30:14.339
31, -3817.41, -4664.08, -4360.44, -3513.34, 0.000, 0.000, 0.000, 12:30:14.353
32, -3802.40, -4648.98, -4327.02, -3504.79, 0.000, 0.000, 0.000, 12:30:14.354
33, -3767.10, -4619.26, -4265.16, -3588.20, 0.000, 0.000, 0.000, 12:30:14.368
34, -3810.79, -4634.83, -4280.32, -3622.18, 0.000, 0.000, 0.000, 12:30:14.369
35, -3937.48, -4650.66, -4369.02, -3547.75, 0.000, 0.000, 0.000, 12:30:14.369
36, -3947.90, -4622.30, -4336.48, -3532.29, 0.000, 0.000, 0.000, 12:30:14.369
37, -3928.33, -4584.23, -4280.37, -3608.68, 0.000, 0.000, 0.000, 12:30:14.383
38, -3959.87, -4556.58, -4279.96, -3628.96, 0.000, 0.000, 0.000, 12:30:14.383
39, -4080.35, -4599.08, -4357.87, -3548.39, 0.000, 0.000, 0.000, 12:30:14.398
40, -4090.72, -4602.43, -4345.77, -3549.42, 0.000, 0.000, 0.000, 12:30:14.399
41, -4056.33, -4577.43, -4296.34, -3624.01, 0.000, 0.000, 0.000, 12:30:14.399
42, -4094.87, -4575.69, -4319.43, -3645.64, 0.000, 0.000, 0.000, 12:30:14.399
43, -4200.13, -4604.76, -4401.04, -3557.11, 0.000, 0.000, 0.000, 12:30:14.413
44, -4184.94, -4541.28, -4325.37, -3548.53, 0.000, 0.000, 0.000, 12:30:14.413
45, -4126.69, -4502.57, -4271.80, -3621.62, 0.000, 0.000, 0.000, 12:30:14.428
46, -4153.90, -4512.68, -4294.87, -3647.41, 0.000, 0.000, 0.000, 12:30:14.428
47, -4250.39, -4569.53, -4392.73, -3559.81, 0.000, 0.000, 0.000, 12:30:14.429
48, -4242.55, -4597.48, -4389.93, -3550.50, 0.000, 0.000, 0.000, 12:30:14.429
49, -4171.10, -4518.78, -4312.88, -3613.62, 0.000, 0.000, 0.000, 12:30:14.450
50, -4181.79, -4518.54, -4324.98, -3651.24, 0.000, 0.000, 0.000, 12:30:14.450
51, -4256.92, -4559.64, -4365.41, -3561.35, 0.000, 0.000, 0.000, 12:30:14.458
52, -4241.55, -4584.16, -4358.95, -3559.67, 0.000, 0.000, 0.000, 12:30:14.458
53, -4173.03, -4550.89, -4334.83, -3610.16, 0.000, 0.000, 0.000, 12:30:14.459
54, -4167.92, -4534.72, -4317.97, -3638.43, 0.000, 0.000, 0.000, 12:30:14.459
55, -4253.52, -4537.99, -4387.90, -3558.81, 0.000, 0.000, 0.000, 12:30:14.474
56, -4225.08, -4545.15, -4355.56, -3536.51, 0.000, 0.000, 0.000, 12:30:14.474
57, -4153.84, -4529.23, -4311.59, -3622.90, 0.000, 0.000, 0.000, 12:30:14.488
58, -4162.85, -4520.30, -4307.69, -3646.96, 0.000, 0.000, 0.000, 12:30:14.488
59, -4247.67, -4577.65, -4398.74, -3560.47, 0.000, 0.000, 0.000, 12:30:14.488
60, -4205.50, -4580.60, -4377.51, -3552.08, 0.000, 0.000, 0.000, 12:30:14.489
61, -4124.13, -4558.39, -4322.69, -3617.74, 0.000, 0.000, 0.000, 12:30:14.504
62, -4138.00, -4532.27, -4350.63, -3651.01, 0.000, 0.000, 0.000, 12:30:14.504
63, -4206.82, -4563.81, -4381.54, -3551.44, 0.000, 0.000, 0.000, 12:30:14.519
64, -4182.60, -4570.44, -4347.82, -3541.32, 0.000, 0.000, 0.000, 12:30:14.519
65, -4111.41, -4563.40, -4285.44, -3612.36, 0.000, 0.000, 0.000, 12:30:14.519
66, -4113.62, -4556.89, -4315.47, -3653.06, 0.000, 0.000, 0.000, 12:30:14.519
67, -4174.24, -4596.68, -4398.79, -3552.65, 0.000, 0.000, 0.000, 12:30:14.533
68, -4098.70, -4587.57, -4365.65, -3529.26, 0.000, 0.000, 0.000, 12:30:14.533
69, -4012.55, -4575.14, -4325.69, -3602.41, 0.000, 0.000, 0.000, 12:30:14.548
70, -3987.13, -4571.48, -4300.83, -3617.28, 0.000, 0.000, 0.000, 12:30:14.548
71, -4030.76, -4634.70, -4375.32, -3525.78, 0.000, 0.000, 0.000, 12:30:14.548
72, -3965.33, -4649.93, -4371.77, -3517.44, 0.000, 0.000, 0.000, 12:30:14.548
73, -3865.57, -4636.07, -4324.74, -3578.83, 0.000, 0.000, 0.000, 12:30:14.563
74, -3831.76, -4615.30, -4315.46, -3593.43, 0.000, 0.000, 0.000, 12:30:14.563
75, -3857.15, -4654.84, -4346.62, -3502.34, 0.000, 0.000, 0.000, 12:30:14.578
76, -3823.63, -4673.59, -4340.42, -3510.45, 0.000, 0.000, 0.000, 12:30:14.578
77, -3766.95, -4656.10, -4296.83, -3575.56, 0.000, 0.000, 0.000, 12:30:14.579
78, -3801.19, -4646.69, -4307.38, -3600.04, 0.000, 0.000, 0.000, 12:30:14.579
79, -3907.55, -4662.78, -4398.99, -3507.07, 0.000, 0.000, 0.000, 12:30:14.593
80, -3915.75, -4659.67, -4384.32, -3518.45, 0.000, 0.000, 0.000, 12:30:14.593
81, -3891.19, -4625.36, -4311.82, -3602.20, 0.000, 0.000, 0.000, 12:30:14.608
82, -3949.94, -4609.22, -4328.31, -3621.14, 0.000, 0.000, 0.000, 12:30:14.609
83, -4049.24, -4620.90, -4385.24, -3535.55, 0.000, 0.000, 0.000, 12:30:14.609
84, -4058.83, -4615.00, -4368.60, -3520.25, 0.000, 0.000, 0.000, 12:30:14.609
85, -4026.36, -4578.72, -4326.86, -3599.65, 0.000, 0.000, 0.000, 12:30:14.624
86, -4057.98, -4566.84, -4328.77, -3634.59, 0.000, 0.000, 0.000, 12:30:14.624
87, -4156.32, -4591.19, -4409.16, -3538.78, 0.000, 0.000, 0.000, 12:30:14.638
88, -4152.51, -4586.13, -4372.81, -3534.41, 0.000, 0.000, 0.000, 12:30:14.638
89, -4111.60, -4570.33, -4322.35, -3620.99, 0.000, 0.000, 0.000, 12:30:14.639
90, -4137.17, -4553.18, -4323.72, -3635.47, 0.000, 0.000, 0.000, 12:30:14.639
91, -4230.64, -4583.69, -4407.58, -3535.31, 0.000, 0.000, 0.000, 12:30:14.653
92, -4210.40, -4576.45, -4385.59, -3551.50, 0.000, 0.000, 0.000, 12:30:14.654
93, -4133.83, -4541.51, -4308.18, -3610.80, 0.000, 0.000, 0.000, 12:30:14.669
94, -4162.25, -4502.14, -4329.61, -3635.76, 0.000, 0.000, 0.000, 12:30:14.669
95, -4248.05, -4554.13, -4387.75, -3559.03, 0.000, 0.000, 0.000, 12:30:14.669
96, -4238.57, -4585.86, -4371.68, -3547.29, 0.000, 0.000, 0.000, 12:30:14.670
97, -4159.63, -4527.69, -4307.01, -3601.65, 0.000, 0.000, 0.000, 12:30:14.683
98, -4182.12, -4539.41, -4333.89, -3645.65, 0.000, 0.000, 0.000, 12:30:14.683
99, -4252.48, -4575.38, -4409.45, -3547.21, 0.000, 0.000, 0.000, 12:30:14.698
100, -4221.03, -4557.65, -4385.65, -3549.22, 0.000, 0.000, 0.000, 12:30:14.698
101, -4146.70, -4519.47, -4316.08, -3627.02, 0.000, 0.000, 0.000, 12:30:14.698
102, -4168.24, -4531.12, -4325.96, -3636.42, 0.000, 0.000, 0.000, 12:30:14.699
103, -4243.37, -4570.30, -4415.51, -3555.64, 0.000, 0.000, 0.000, 12:30:14.721
104, -4206.32, -4572.95, -4356.90, -3547.95, 0.000, 0.000, 0.000, 12:30:14.721
105, -4134.91, -4551.62, -4305.06, -3614.56, 0.000, 0.000, 0.000, 12:30:14.728
106, -4141.43, -4537.87, -4341.70, -3640.20, 0.000, 0.000, 0.000, 12:30:14.728
107, -4221.09, -4571.97, -4395.52, -3553.91, 0.000, 0.000, 0.000, 12:30:14.729
108, -4182.78, -4574.61, -4387.61, -3550.63, 0.000, 0.000, 0.000, 12:30:14.729
109, -4111.92, -4534.01, -4305.56, -3609.38, 0.000, 0.000, 0.000, 12:30:14.743
110, -4127.51, -4538.32, -4312.12, -3634.22, 0.000, 0.000, 0.000, 12:30:14.743
111, -4209.54, -4599.50, -4420.11, -3551.93, 0.000, 0.000, 0.000, 12:30:14.758
112, -4174.11, -4589.16, -4385.31, -3558.59, 0.000, 0.000, 0.000, 12:30:14.758
113, -4097.26, -4558.73, -4326.46, -3624.27, 0.000, 0.000, 0.000, 12:30:14.759
114, -4105.91, -4535.79, -4316.64, -3648.02, 0.000, 0.000, 0.000, 12:30:14.759
115, -4175.76, -4578.54, -4382.43, -3547.01, 0.000, 0.000, 0.000, 12:30:14.775
116, -4146.08, -4588.48, -4361.68, -3538.62, 0.000, 0.000, 0.000, 12:30:14.775
117, -4082.00, -4551.67, -4318.76, -3615.80, 0.000, 0.000, 0.000, 12:30:14.789
118, -4080.61, -4547.00, -4318.79, -3633.80, 0.000, 0.000, 0.000, 12:30:14.789
119, -4157.17, -4613.33, -4405.39, -3537.62, 0.000, 0.000, 0.000, 12:30:14.790
120, -4118.66, -4595.99, -4372.67, -3535.33, 0.000, 0.000, 0.000, 12:30:14.790
121, -4034.33, -4596.22, -4313.86, -3615.89, 0.000, 0.000, 0.000, 12:30:14.819
122, -4040.60, -4575.67, -4322.52, -3633.04, 0.000, 0.000, 0.000, 12:30:14.819
123, -4090.63, -4603.49, -4384.11, -3524.47, 0.000, 0.000, 0.000, 12:30:14.819
124, -4029.31, -4602.88, -4363.72, -3527.00, 0.000, 0.000, 0.000, 12:30:14.819
125, -3936.00, -4584.40, -4295.58, -3610.50, 0.000, 0.000, 0.000, 12:30:14.820
126, -3936.00, -4605.05, -4316.83, -3626.37, 0.000, 0.000, 0.000, 12:30:14.820
127, -3990.12, -4661.28, -4408.60, -3534.85, 0.000, 0.000, 0.000, 12:30:14.837
128, -3928.38, -4632.72, -4358.51, -3518.17, 0.000, 0.000, 0.000, 12:30:14.837
129, -3852.24, -4630.33, -4303.89, -3587.90, 0.000, 0.000, 0.000, 12:30:14.849
130, -3844.87, -4651.77, -4320.97, -3611.97, 0.000, 0.000, 0.000, 12:30:14.849
131, -3906.30, -4649.56, -4377.76, -3525.83, 0.000, 0.000, 0.000, 12:30:14.849
132, -3880.31, -4651.00, -4354.66, -3523.58, 0.000, 0.000, 0.000, 12:30:14.849
133, -3814.32, -4611.27, -4283.44, -3594.54, 0.000, 0.000, 0.000, 12:30:14.864
134, -3828.00, -4608.37, -4308.74, -3616.34, 0.000, 0.000, 0.000, 12:30:14.864
135, -3935.58, -4670.32, -4405.13, -3553.32, 0.000, 0.000, 0.000, 12:30:14.878
136, -3930.05, -4654.89, -4347.39, -3528.23, 0.000, 0.000, 0.000, 12:30:14.878
137, -3896.27, -4595.57, -4282.06, -3597.54, 0.000, 0.000, 0.000, 12:30:14.879
138, -3942.96, -4591.63, -4303.09, -3639.05, 0.000, 0.000, 0.000, 12:30:14.879
139, -4050.87, -4632.46, -4409.64, -3550.49, 0.000, 0.000, 0.000, 12:30:14.893
140, -4051.82, -4618.53, -4376.46, -3535.76, 0.000, 0.000, 0.000, 12:30:14.893
141, -4012.72, -4579.29, -4309.72, -3614.14, 0.000, 0.000, 0.000, 12:30:14.908
142, -4044.47, -4567.36, -4334.49, -3628.91, 0.000, 0.000, 0.000, 12:30:14.909
143, -4148.67, -4614.83, -4419.97, -3562.10, 0.000, 0.000, 0.000, 12:30:14.909
144, -4131.77, -4588.36, -4370.65, -3556.15, 0.000, 0.000, 0.000, 12:30:14.909
145, -4091.84, -4561.88, -4313.54, -3618.78, 0.000, 0.000, 0.000, 12:30:14.924
146, -4119.68, -4548.27, -4329.39, -3646.12, 0.000, 0.000, 0.000, 12:30:14.924
147, -4215.99, -4593.39, -4423.56, -3558.10, 0.000, 0.000, 0.000, 12:30:14.938
148, -4200.48, -4601.95, -4403.33, -3545.43, 0.000, 0.000, 0.000, 12:30:14.938
149, -4146.46, -4567.00, -4325.62, -3610.74, 0.000, 0.000, 0.000, 12:30:14.939
150, -4162.83, -4530.57, -4316.09, -3633.96, 0.000, 0.000, 0.000, 12:30:14.939
151, -4243.34, -4573.60, -4420.26, -3550.41, 0.000, 0.000, 0.000, 12:30:14.953
152, -4231.23, -4597.35, -4396.71, -3558.56, 0.000, 0.000, 0.000, 12:30:14.953
153, -4171.14, -4577.09, -4319.00, -3625.78, 0.000, 0.000, 0.000, 12:30:14.969
154, -4178.14, -4550.99, -4351.15, -3646.17, 0.000, 0.000, 0.000, 12:30:14.969
155, -4257.36, -4604.37, -4445.28, -3571.75, 0.000, 0.000, 0.000, 12:30:14.969
156, -4212.58, -4577.20, -4390.00, -3557.94, 0.000, 0.000, 0.000, 12:30:14.969
157, -4151.76, -4553.01, -4331.27, -3626.89, 0.000, 0.000, 0.000, 12:30:14.983
158, -4168.13, -4552.64, -4335.99, -3656.14, 0.000, 0.000, 0.000, 12:30:14.984
159, -4249.67, -4587.84, -4420.27, -3555.22, 0.000, 0.000, 0.000, 12:30:14.998
160, -4203.63, -4583.61, -4393.05, -3549.20, 0.000, 0.000, 0.000, 12:30:14.998
161, -4131.27, -4553.46, -4325.21, -3630.65, 0.000, 0.000, 0.000, 12:30:14.999
162, -4153.48, -4562.19, -4322.52, -3658.03, 0.000, 0.000, 0.000, 12:30:14.999
163, -4225.22, -4590.12, -4403.18, -3559.24, 0.000, 0.000, 0.000, 12:30:15.013
164, -4178.35, -4601.11, -4383.13, -3556.43, 0.000, 0.000, 0.000, 12:30:15.013
165, -4099.98, -4545.23, -4324.29, -3632.17, 0.000, 0.000, 0.000, 12:30:15.028
166, -4115.85, -4565.96, -4332.03, -3649.53, 0.000, 0.000, 0.000, 12:30:15.028
167, -4185.57, -4583.46, -4398.37, -3556.14, 0.000, 0.000, 0.000, 12:30:15.035
168, -4161.33, -4587.72, -4375.17, -3549.81, 0.000, 0.000, 0.000, 12:30:15.035
169, -4080.25, -4563.58, -4307.29, -3610.04, 0.000, 0.000, 0.000, 12:30:15.045
170, -4096.47, -4565.62, -4322.81, -3651.16, 0.000, 0.000, 0.000, 12:30:15.045
171, -4155.72, -4607.62, -4414.89, -3552.11, 0.000, 0.000, 0.000, 12:30:15.059
172, -4128.66, -4605.53, -4370.98, -3554.89, 0.000, 0.000, 0.000, 12:30:15.060
173, -4063.99, -4593.01, -4343.73, -3634.51, 0.000, 0.000, 0.000, 12:30:15.060
174, -4062.13, -4573.85, -4335.48, -3634.49, 0.000, 0.000, 0.000, 12:30:15.060
175, -4116.88, -4605.54, -4399.83, -3547.51, 0.000, 0.000, 0.000, 12:30:15.074
176, -4070.87, -4605.49, -4372.24, -3542.51, 0.000, 0.000, 0.000, 12:30:15.074
177, -3968.75, -4594.62, -4295.82, -3607.99, 0.000, 0.000, 0.000, 12:30:15.088
178, -3964.28, -4588.31, -4338.71, -3637.81, 0.000, 0.000, 0.000, 12:30:15.088
179, -4015.43, -4671.31, -4400.00, -3526.19, 0.000, 0.000, 0.000, 12:30:15.089
180, -3965.87, -4646.05, -4358.29, -3529.62, 0.000, 0.000, 0.000, 12:30:15.089
181, -3877.03, -4608.07, -4301.05, -3595.88, 0.000, 0.000, 0.000, 12:30:15.103
182, -3873.91, -4605.99, -4334.33, -3614.09, 0.000, 0.000, 0.000, 12:30:15.103
183, -3936.40, -4644.48, -4389.38, -3533.08, 0.000, 0.000, 0.000, 12:30:15.118
184, -3914.42, -4654.75, -4374.05, -3520.54, 0.000, 0.000, 0.000, 12:30:15.119
185, -3871.44, -4633.75, -4299.26, -3600.81, 0.000, 0.000, 0.000, 12:30:15.119
186, -3909.34, -4612.68, -4335.75, -3625.04, 0.000, 0.000, 0.000, 12:30:15.119
187, -4017.39, -4655.70, -4405.94, -3524.04, 0.000, 0.000, 0.000, 12:30:15.133
188, -4019.24, -4614.25, -4372.57, -3526.57, 0.000, 0.000, 0.000, 12:30:15.133
189, -3981.97, -4581.39, -4304.67, -3605.96, 0.000, 0.000, 0.000, 12:30:15.150
190, -4028.58, -4574.97, -4323.94, -3630.40, 0.000, 0.000, 0.000, 12:30:15.150
191, -4154.63, -4627.44, -4421.81, -3545.18, 0.000, 0.000, 0.000, 12:30:15.150
192, -4150.97, -4603.74, -4386.39, -3551.78, 0.000, 0.000, 0.000, 12:30:15.150
193, -4089.79, -4574.96, -4349.13, -3623.71, 0.000, 0.000, 0.000, 12:30:15.163
194, -4116.98, -4569.58, -4353.21, -3633.59, 0.000, 0.000, 0.000, 12:30:15.163
195, -4206.86, -4605.83, -4429.40, -3554.37, 0.000, 0.000, 0.000, 12:30:15.178
196, -4195.23, -4598.03, -4383.19, -3566.09, 0.000, 0.000, 0.000, 12:30:15.179
197, -4125.78, -4535.59, -4311.59, -3621.36, 0.000, 0.000, 0.000, 12:30:15.179
198, -4147.35, -4540.58, -4330.19, -3641.85, 0.000, 0.000, 0.000, 12:30:15.179
199, -4227.87, -4587.48, -4403.60, -3565.29, 0.000, 0.000, 0.000, 12:30:15.193
200, -4209.88, -4597.98, -4399.38, -3563.55, 0.000, 0.000, 0.000, 12:30:15.193
0, -4136.23, -4549.83, -4332.94, -3634.45, 0.000, 0.000, 0.000, 12:30:15.194
1, -4144.73, -4548.17, -4350.70, -3657.22, 0.000, 0.000, 0.000, 12:30:15.208
2, -4224.34, -4582.04, -4425.24, -3560.40, 0.000, 0.000, 0.000, 12:30:15.208
3, -4186.52, -4588.74, -4363.58, -3547.45, 0.000, 0.000, 0.000, 12:30:15.224
4, -4114.77, -4559.87, -4301.57, -3616.66, 0.000, 0.000, 0.000, 12:30:15.224
5, -4130.76, -4557.83, -4341.48, -3639.20, 0.000, 0.000, 0.000, 12:30:15.225
6, -4215.48, -4598.17, -4407.85, -3582.02, 0.000, 0.000, 0.000, 12:30:15.225
7, -4164.38, -4566.14, -4361.88, -3555.94, 0.000, 0.000, 0.000, 12:30:15.238
8, -4096.43, -4544.71, -4304.19, -3606.80, 0.000, 0.000, 0.000, 12:30:15.238
9, -4106.57, -4548.59, -4341.08, -3636.40, 0.000, 0.000, 0.000, 12:30:15.254
10, -4192.78, -4600.22, -4416.15, -3551.27, 0.000, 0.000, 0.000, 12:30:15.254
11, -4157.58, -4602.76, -4395.08, -3551.49, 0.000, 0.000, 0.000, 12:30:15.254
12, -4089.46, -4582.01, -4328.39, -3621.96, 0.000, 0.000, 0.000, 12:30:15.254
13, -4089.30, -4553.20, -4308.92, -3642.30, 0.000, 0.000, 0.000, 12:30:15.268
14, -4154.33, -4600.33, -4386.87, -3549.78, 0.000, 0.000, 0.000, 12:30:15.269
15, -4119.55, -4591.31, -4360.30, -3540.15, 0.000, 0.000, 0.000, 12:30:15.284
16, -4030.62, -4574.56, -4311.57, -3609.87, 0.000, 0.000, 0.000, 12:30:15.284
17, -4030.14, -4570.53, -4353.20, -3628.37, 0.000, 0.000, 0.000, 12:30:15.285
18, -4076.61, -4624.61, -4415.54, -3531.83, 0.000, 0.000, 0.000, 12:30:15.285
19, -4012.71, -4647.22, -4362.11, -3534.68, 0.000, 0.000, 0.000, 12:30:15.298
20, -3899.65, -4591.48, -4306.16, -3583.07, 0.000, 0.000, 0.000, 12:30:15.298
21, -3890.85, -4604.70, -4309.56, -3610.06, 0.000, 0.000, 0.000, 12:30:15.313
22, -3946.42, -4663.31, -4395.41, -3521.13, 0.000, 0.000, 0.000, 12:30:15.313
23, -3858.60, -4661.45, -4361.73, -3511.10, 0.000, 0.000, 0.000, 12:30:15.314
24, -3757.84, -4624.14, -4283.02, -3583.66, 0.000, 0.000, 0.000, 12:30:15.314
25, -3793.10, -4635.73, -4296.71, -3622.15, 0.000, 0.000, 0.000, 12:30:15.328
26, -3878.03, -4660.91, -4345.99, -3530.51, 0.000, 0.000, 0.000, 12:30:15.328
27, -3871.84, -4641.96, -4334.11, -3543.83, 0.000, 0.000, 0.000, 12:30:15.343
28, -3836.87, -4592.55, -4261.17, -3633.00, 0.000, 0.000, 0.000, 12:30:15.343
29, -3890.17, -4554.14, -4272.44, -3636.48, 0.000, 0.000, 0.000, 12:30:15.351
30, -4004.62, -4587.75, -4348.27, -3568.58, 0.000, 0.000, 0.000, 12:30:15.351
31, -4003.39, -4580.43, -4300.25, -3573.31, 0.000, 0.000, 0.000, 12:30:15.358
32, -3979.32, -4545.57, -4248.25, -3649.44, 0.000, 0.000, 0.000, 12:30:15.358
33, -4020.04, -4515.47, -4245.02, -3649.95, 0.000, 0.000, 0.000, 12:30:15.375
34, -4143.74, -4572.84, -4342.22, -3587.54, 0.000, 0.000, 0.000, 12:30:15.375
35, -4150.65, -4562.80, -4311.92, -3578.95, 0.000, 0.000, 0.000, 12:30:15.375
36, -4096.00, -4524.88, -4269.26, -3655.49, 0.000, 0.000, 0.000, 12:30:15.375
37, -4132.37, -4521.34, -4296.23, -3664.47, 0.000, 0.000, 0.000, 12:30:15.388
38, -4222.99, -4554.84, -4336.54, -3582.07, 0.000, 0.000, 0.000, 12:30:15.388
39, -4198.88, -4551.59, -4334.89, -3580.49, 0.000, 0.000, 0.000, 12:30:15.403
40, -4149.48, -4528.16, -4278.16, -3643.55, 0.000, 0.000, 0.000, 12:30:15.404
41, -4176.44, -4522.65, -4295.75, -3670.38, 0.000, 0.000, 0.000, 12:30:15.404
42, -4249.33, -4575.65, -4376.15, -3559.60, 0.000, 0.000, 0.000, 12:30:15.404
43, -4218.53, -4564.44, -4369.69, -3567.93, 0.000, 0.000, 0.000, 12:30:15.418
44, -4155.87, -4527.98, -4302.81, -3643.29, 0.000, 0.000, 0.000, 12:30:15.418
45, -4176.30, -4504.60, -4290.37, -3651.23, 0.000, 0.000, 0.000, 12:30:15.434
46, -4251.83, -4555.28, -4370.85, -3565.41, 0.000, 0.000, 0.000, 12:30:15.434
47, -4223.99, -4557.25, -4351.13, -3566.36, 0.000, 0.000, 0.000, 12:30:15.434
48, -4142.44, -4525.07, -4298.99, -3617.95, 0.000, 0.000, 0.000, 12:30:15.434
49, -4159.61, -4528.73, -4323.46, -3651.28, 0.000, 0.000, 0.000, 12:30:15.448
50, -4238.54, -4580.29, -4412.99, -3566.12, 0.000, 0.000, 0.000, 12:30:15.448
51, -4213.75, -4566.58, -4374.99, -3572.98, 0.000, 0.000, 0.000, 12:30:15.463
52, -4131.95, -4529.27, -4302.20, -3638.96, 0.000, 0.000, 0.000, 12:30:15.463
53, -4151.21, -4549.73, -4327.85, -3657.40, 0.000, 0.000, 0.000, 12:30:15.463
54, -4231.11, -4600.18, -4406.56, -3561.27, 0.000, 0.000, 0.000, 12:30:15.463
55, -4179.04, -4589.50, -4398.33, -3558.25, 0.000, 0.000, 0.000, 12:30:15.478
56, -4105.98, -4548.46, -4300.83, -3636.65, 0.000, 0.000, 0.000, 12:30:15.479
57, -4116.20, -4534.10, -4316.58, -3654.23, 0.000, 0.000, 0.000, 12:30:15.493
58, -4201.96, -4584.23, -4397.66, -3556.45, 0.000, 0.000, 0.000, 12:30:15.493
59, -4153.61, -4583.19, -4386.73, -3553.84, 0.000, 0.000, 0.000, 12:30:15.494
60, -4078.68, -4544.71, -4294.69, -3619.77, 0.000, 0.000, 0.000, 12:30:15.494
61, -4096.28, -4564.14, -4310.76, -3643.49, 0.000, 0.000, 0.000, 12:30:15.508
62, -4163.16, -4627.24, -4409.16, -3553.15, 0.000, 0.000, 0.000, 12:30:15.508
63, -4116.14, -4622.08, -4375.28, -3549.27, 0.000, 0.000, 0.000, 12:30:15.524
64, -4022.44, -4578.53, -4306.87, -3620.54, 0.000, 0.000, 0.000, 12:30:15.524
65, -4005.05, -4594.00, -4315.67, -3634.84, 0.000, 0.000, 0.000, 12:30:15.524
66, -4041.88, -4608.97, -4381.62, -3534.44, 0.000, 0.000, 0.000, 12:30:15.524
67, -3979.24, -4617.27, -4336.53, -3530.60, 0.000, 0.000, 0.000, 12:30:15.538
68, -3879.58, -4605.00, -4303.43, -3601.76, 0.000, 0.000, 0.000, 12:30:15.538
69, -3851.20, -4611.62, -4323.48, -3606.18, 0.000, 0.000, 0.000, 12:30:15.554
70, -3895.12, -4664.13, -4384.16, -3530.19, 0.000, 0.000, 0.000, 12:30:15.554
71, -3832.33, -4685.10, -4348.08, -3527.02, 0.000, 0.000, 0.000, 12:30:15.554
72, -3746.76, -4641.84, -4286.80, -3574.90, 0.000, 0.000, 0.000, 12:30:15.554
73, -3776.38, -4638.27, -4310.92, -3590.27, 0.000, 0.000, 0.000, 12:30:15.569
74, -3891.03, -4710.01, -4437.21, -3510.50, 0.000, 0.000, 0.000, 12:30:15.569
75, -3881.75, -4686.92, -4394.53, -3501.21, 0.000, 0.000, 0.000, 12:30:15.583
76, -3846.49, -4624.00, -4338.10, -3582.63, 0.000, 0.000, 0.000, 12:30:15.583
77, -3916.33, -4647.43, -4369.27, -3603.25, 0.000, 0.000, 0.000, 12:30:15.584
78, -4029.89, -4669.87, -4441.07, -3511.69, 0.000, 0.000, 0.000, 12:30:15.584
79, -4024.47, -4620.41, -4399.71, -3515.61, 0.000, 0.000, 0.000, 12:30:15.613
80, -4004.49, -4589.77, -4359.57, -3587.66, 0.000, 0.000, 0.000, 12:30:15.613
81, -4062.54, -4612.08, -4409.34, -3623.02, 0.000, 0.000, 0.000, 12:30:15.613
82, -4180.76, -4655.94, -4482.19, -3527.61, 0.000, 0.000, 0.000, 12:30:15.613
83, -4152.74, -4606.45, -4424.36, -3520.19, 0.000, 0.000, 0.000, 12:30:15.614
84, -4095.74, -4551.07, -4345.07, -3589.07, 0.000, 0.000, 0.000, 12:30:15.614
85, -4153.55, -4576.91, -4387.01, -3619.58, 0.000, 0.000, 0.000, 12:30:15.628
86, -4258.59, -4629.34, -4466.88, -3547.04, 0.000, 0.000, 0.000, 12:30:15.629
87, -4226.12, -4617.33, -4436.45, -3539.61, 0.000, 0.000, 0.000, 12:30:15.643
88, -4159.70, -4568.25, -4386.42, -3622.99, 0.000, 0.000, 0.000, 12:30:15.643
89, -4176.52, -4559.73, -4373.36, -3625.82, 0.000, 0.000, 0.000, 12:30:15.643
90, -4280.38, -4620.04, -4461.54, -3561.69, 0.000, 0.000, 0.000, 12:30:15.643
91, -4239.02, -4592.79, -4411.18, -3554.90, 0.000, 0.000, 0.000, 12:30:15.658
92, -4170.65, -4550.79, -4339.05, -3612.55, 0.000, 0.000, 0.000, 12:30:15.659
93, -4184.03, -4549.13, -4347.11, -3625.79, 0.000, 0.000, 0.000, 12:30:15.674
94, -4266.93, -4592.71, -4432.16, -3556.21, 0.000, 0.000, 0.000, 12:30:15.674
95, -4218.18, -4585.94, -4389.69, -3551.34, 0.000, 0.000, 0.000, 12:30:15.674
96, -4148.36, -4549.90, -4320.85, -3625.93, 0.000, 0.000, 0.000, 12:30:15.674
97, -4174.99, -4554.03, -4373.15, -3647.31, 0.000, 0.000, 0.000, 12:30:15.688
98, -4247.91, -4593.79, -4437.13, -3548.19, 0.000, 0.000, 0.000, 12:30:15.688
99, -4202.42, -4595.43, -4398.42, -3543.92, 0.000, 0.000, 0.000, 12:30:15.704
100, -4144.55, -4578.81, -4343.89, -3634.14, 0.000, 0.000, 0.000, 12:30:15.704
101, -4153.20, -4555.15, -4346.70, -3654.86, 0.000, 0.000, 0.000, 12:30:15.705
102, -4222.30, -4599.50, -4420.11, -3571.68, 0.000, 0.000, 0.000, 12:30:15.705
103, -4176.95, -4584.65, -4381.90, -3559.33, 0.000, 0.000, 0.000, 12:30:15.719
104, -4103.26, -4547.77, -4322.80, -3629.75, 0.000, 0.000, 0.000, 12:30:15.719
105, -4132.20, -4562.75, -4364.16, -3644.52, 0.000, 0.000, 0.000, 12:30:15.733
106, -4202.31, -4619.73, -4435.06, -3566.32, 0.000, 0.000, 0.000, 12:30:15.733
107, -4159.24, -4598.56, -4382.22, -3563.23, 0.000, 0.000, 0.000, 12:30:15.734
108, -4073.59, -4570.00, -4312.68, -3622.83, 0.000, 0.000, 0.000, 12:30:15.734
109, -4092.04, -4587.75, -4343.76, -3643.55, 0.000, 0.000, 0.000, 12:30:15.749
110, -4148.00, -4617.88, -4402.70, -3549.36, 0.000, 0.000, 0.000, 12:30:15.749
111, -4087.01, -4622.76, -4383.32, -3558.21, 0.000, 0.000, 0.000, 12:30:15.763
112, -3984.05, -4584.53, -4307.13, -3603.27, 0.000, 0.000, 0.000, 12:30:15.763
113, -3975.22, -4588.77, -4330.82, -3623.73, 0.000, 0.000, 0.000, 12:30:15.764
114, -4011.78, -4653.74, -4406.78, -3541.19, 0.000, 0.000, 0.000, 12:30:15.764
115, -3945.07, -4658.19, -4368.01, -3529.86, 0.000, 0.000, 0.000, 12:30:15.778
116, -3843.31, -4631.81, -4293.75, -3596.75, 0.000, 0.000, 0.000, 12:30:15.778
117, -3844.01, -4632.66, -4336.57, -3619.36, 0.000, 0.000, 0.000, 12:30:15.793
118, -3893.42, -4662.83, -4385.65, -3515.23, 0.000, 0.000, 0.000, 12:30:15.793
119, -3856.46, -4668.09, -4355.58, -3521.11, 0.000, 0.000, 0.000, 12:30:15.794
120, -3815.50, -4638.97, -4302.41, -3595.49, 0.000, 0.000, 0.000, 12:30:15.794
121, -3867.64, -4626.73, -4344.33, -3595.06, 0.000, 0.000, 0.000, 12:30:15.808
122, -3980.96, -4655.43, -4418.35, -3528.40, 0.000, 0.000, 0.000, 12:30:15.808
123, -3976.96, -4671.11, -4375.05, -3542.16, 0.000, 0.000, 0.000, 12:30:15.823
124, -3950.46, -4622.64, -4309.25, -3623.01, 0.000, 0.000, 0.000, 12:30:15.824
125, -4001.18, -4570.86, -4320.06, -3623.54, 0.000, 0.000, 0.000, 12:30:15.824
126, -4105.22, -4593.30, -4416.39, -3531.89, 0.000, 0.000, 0.000, 12:30:15.824
127, -4125.70, -4611.13, -4413.71, -3552.16, 0.000, 0.000, 0.000, 12:30:15.838
128, -4072.25, -4573.49, -4297.80, -3620.49, 0.000, 0.000, 0.000, 12:30:15.838
129, -4113.06, -4552.03, -4326.40, -3633.22, 0.000, 0.000, 0.000, 12:30:15.854
130, -4213.83, -4607.22, -4405.00, -3559.52, 0.000, 0.000, 0.000, 12:30:15.854
131, -4192.89, -4614.60, -4394.53, -3576.48, 0.000, 0.000, 0.000, 12:30:15.854
132, -4128.98, -4551.62, -4318.90, -3632.81, 0.000, 0.000, 0.000, 12:30:15.854
133, -4171.78, -4525.57, -4327.68, -3648.37, 0.000, 0.000, 0.000, 12:30:15.869
134, -4257.12, -4576.73, -4406.17, -3558.99, 0.000, 0.000, 0.000, 12:30:15.869
135, -4219.23, -4572.69, -4390.35, -3558.72, 0.000, 0.000, 0.000, 12:30:15.883
136, -4152.49, -4532.84, -4312.00, -3626.43, 0.000, 0.000, 0.000, 12:30:15.883
137, -4190.20, -4565.50, -4343.34, -3650.79, 0.000, 0.000, 0.000, 12:30:15.884
138, -4252.98, -4590.93, -4416.92, -3566.06, 0.000, 0.000, 0.000, 12:30:15.884
139, -4215.93, -4563.20, -4378.45, -3563.46, 0.000, 0.000, 0.000, 12:30:15.898
140, -4148.34, -4537.87, -4318.41, -3622.31, 0.000, 0.000, 0.000, 12:30:15.898
141, -4158.66, -4530.56, -4326.43, -3634.16, 0.000, 0.000, 0.000, 12:30:15.913
142, -4228.86, -4596.44, -4402.70, -3559.24, 0.000, 0.000, 0.000, 12:30:15.913
143, -4191.39, -4599.48, -4357.19, -3553.77, 0.000, 0.000, 0.000, 12:30:15.913
144, -4122.64, -4550.13, -4332.95, -3651.12, 0.000, 0.000, 0.000, 12:30:15.913
145, -4140.75, -4540.12, -4339.93, -3637.92, 0.000, 0.000, 0.000, 12:30:15.928
146, -4218.87, -4562.74, -4397.89, -3555.58, 0.000, 0.000, 0.000, 12:30:15.929
147, -4186.32, -4583.17, -4370.10, -3553.92, 0.000, 0.000, 0.000, 12:30:15.944
148, -4112.66, -4543.55, -4292.06, -3638.50, 0.000, 0.000, 0.000, 12:30:15.944
149, -4124.67, -4541.84, -4323.10, -3643.28, 0.000, 0.000, 0.000, 12:30:15.945
150, -4192.57, -4586.01, -4397.76, -3551.17, 0.000, 0.000, 0.000, 12:30:15.945
151, -4148.90, -4595.51, -4378.67, -3549.94, 0.000, 0.000, 0.000, 12:30:15.959
152, -4086.14, -4552.78, -4341.02, -3624.32, 0.000, 0.000, 0.000, 12:30:15.959
153, -4100.32, -4546.07, -4357.81, -3631.94, 0.000, 0.000, 0.000, 12:30:15.973
154, -4178.22, -4601.09, -4392.62, -3555.20, 0.000, 0.000, 0.000, 12:30:15.974
155, -4140.37, -4626.14, -4351.60, -3566.43, 0.000, 0.000, 0.000, 12:30:15.974
156, -4064.85, -4568.53, -4297.96, -3627.32, 0.000, 0.000, 0.000, 12:30:15.974
157, -4086.00, -4548.54, -4326.74, -3624.30, 0.000, 0.000, 0.000, 12:30:15.989
158, -4149.17, -4583.59, -4411.98, -3530.31, 0.000, 0.000, 0.000, 12:30:15.989
159, -4097.59, -4572.64, -4354.75, -3555.34, 0.000, 0.000, 0.000, 12:30:16.004
160, -4019.50, -4579.02, -4297.58, -3608.90, 0.000, 0.000, 0.000, 12:30:16.004
161, -4049.56, -4590.01, -4341.57, -3637.07, 0.000, 0.000, 0.000, 12:30:16.004
162, -4089.73, -4646.57, -4426.35, -3545.97, 0.000, 0.000, 0.000, 12:30:16.004
163, -4017.12, -4629.85, -4364.88, -3543.80, 0.000, 0.000, 0.000, 12:30:16.018
164, -3928.17, -4607.14, -4289.95, -3595.09, 0.000, 0.000, 0.000, 12:30:16.019
165, -3932.38, -4600.13, -4319.81, -3617.39, 0.000, 0.000, 0.000, 12:30:16.049
166, -3980.97, -4648.33, -4395.16, -3535.36, 0.000, 0.000, 0.000, 12:30:16.049
167, -3927.90, -4654.79, -4367.38, -3532.74, 0.000, 0.000, 0.000, 12:30:16.049
168, -3843.85, -4631.82, -4308.54, -3596.12, 0.000, 0.000, 0.000, 12:30:16.049
169, -3864.84, -4641.23, -4338.99, -3618.47, 0.000, 0.000, 0.000, 12:30:16.050
170, -3927.49, -4660.86, -4402.09, -3529.99, 0.000, 0.000, 0.000, 12:30:16.050
171, -3894.56, -4658.98, -4372.94, -3539.56, 0.000, 0.000, 0.000, 12:30:16.051
172, -3826.18, -4634.25, -4314.02, -3607.74, 0.000, 0.000, 0.000, 12:30:16.051
173, -3863.32, -4619.17, -4333.50, -3619.92, 0.000, 0.000, 0.000, 12:30:16.063
174, -3945.16, -4663.96, -4416.59, -3528.57, 0.000, 0.000, 0.000, 12:30:16.063
175, -3924.77, -4654.34, -4374.50, -3545.88, 0.000, 0.000, 0.000, 12:30:16.078
176, -3874.64, -4626.56, -4313.08, -3603.45, 0.000, 0.000, 0.000, 12:30:16.078
177, -3909.56, -4626.22, -4350.24, -3623.04, 0.000, 0.000, 0.000, 12:30:16.093
178, -3987.04, -4654.48, -4388.68, -3540.73, 0.000, 0.000, 0.000, 12:30:16.093
179, -3953.76, -4632.30, -4353.72, -3538.58, 0.000, 0.000, 0.000, 12:30:16.093
180, -3905.51, -4594.70, -4310.98, -3604.67, 0.000, 0.000, 0.000, 12:30:16.093
181, -3948.38, -4577.63, -4342.96, -3630.82, 0.000, 0.000, 0.000, 12:30:16.108
182, -4026.29, -4631.45, -4393.12, -3548.17, 0.000, 0.000, 0.000, 12:30:16.109
183, -4006.91, -4609.76, -4361.75, -3542.35, 0.000, 0.000, 0.000, 12:30:16.123
184, -3947.99, -4575.52, -4293.92, -3609.54, 0.000, 0.000, 0.000, 12:30:16.124
185, -3984.90, -4565.89, -4321.65, -3622.70, 0.000, 0.000, 0.000, 12:30:16.124
186, -4066.40, -4612.29, -4396.83, -3545.63, 0.000, 0.000, 0.000, 12:30:16.124
187, -4037.42, -4590.80, -4368.87, -3544.76, 0.000, 0.000, 0.000, 12:30:16.154
188, -3950.25, -4543.67, -4294.87, -3604.22, 0.000, 0.000, 0.000, 12:30:16.154
189, -4002.72, -4525.71, -4292.31, -3639.23, 0.000, 0.000, 0.000, 12:30:16.154
190, -4095.65, -4587.85, -4375.42, -3549.73, 0.000, 0.000, 0.000, 12:30:16.154
191, -4058.43, -4597.47, -4346.75, -3542.97, 0.000, 0.000, 0.000, 12:30:16.155
192, -3991.13, -4530.40, -4274.43, -3602.17, 0.000, 0.000, 0.000, 12:30:16.155
193, -4028.28, -4523.27, -4305.86, -3619.92, 0.000, 0.000, 0.000, 12:30:16.168
194, -4105.95, -4561.73, -4374.66, -3544.40, 0.000, 0.000, 0.000, 12:30:16.169
195, -4070.40, -4559.69, -4355.81, -3548.11, 0.000, 0.000, 0.000, 12:30:16.183
196, -4004.80, -4533.26, -4259.67, -3603.31, 0.000, 0.000, 0.000, 12:30:16.184
197, -4048.43, -4517.66, -4304.94, -3623.54, 0.000, 0.000, 0.000, 12:30:16.184
198, -4130.29, -4567.80, -4373.18, -3545.97, 0.000, 0.000, 0.000, 12:30:16.184
199, -4095.70, -4548.08, -4339.59, -3551.16, 0.000, 0.000, 0.000, 12:30:16.198
200, -4029.72, -4526.99, -4269.48, -3610.40, 0.000, 0.000, 0.000, 12:30:16.198
0, -4064.08, -4516.39, -4295.38, -3614.08, 0.000, 0.000, 0.000, 12:30:16.199
1, -4152.25, -4558.52, -4367.45, -3536.95, 0.000, 0.000, 0.000, 12:30:16.213
2, -4149.65, -4543.94, -4337.70, -3553.93, 0.000, 0.000, 0.000, 12:30:16.213
3, -4100.82, -4499.01, -4304.25, -3618.72, 0.000, 0.000, 0.000, 12:30:16.228
4, -4142.16, -4493.77, -4308.14, -3637.21, 0.000, 0.000, 0.000, 12:30:16.228
5, -4241.57, -4534.74, -4390.19, -3565.75, 0.000, 0.000, 0.000, 12:30:16.229
6, -4221.86, -4528.82, -4346.31, -3556.16, 0.000, 0.000, 0.000, 12:30:16.229
7, -4175.43, -4484.57, -4281.23, -3631.33, 0.000, 0.000, 0.000, 12:30:16.243
8, -4225.49, -4474.26, -4319.15, -3648.25, 0.000, 0.000, 0.000, 12:30:16.243
9, -4319.55, -4509.55, -4387.15, -3569.57, 0.000, 0.000, 0.000, 12:30:16.258
10, -4294.38, -4489.87, -4358.81, -3563.69, 0.000, 0.000, 0.000, 12:30:16.258
11, -4246.63, -4468.99, -4293.37, -3630.88, 0.000, 0.000, 0.000, 12:30:16.258
12, -4293.50, -4464.60, -4327.04, -3655.39, 0.000, 0.000, 0.000, 12:30:16.258
13, -4370.07, -4489.06, -4399.80, -3570.79, 0.000, 0.000, 0.000, 12:30:16.274
14, -4345.76, -4484.66, -4364.28, -3560.83, 0.000, 0.000, 0.000, 12:30:16.274
15, -4293.19, -4465.85, -4307.56, -3643.30, 0.000, 0.000, 0.000, 12:30:16.288
16, -4326.63, -4472.17, -4348.94, -3666.93, 0.000, 0.000, 0.000, 12:30:16.289
17, -4401.15, -4521.68, -4415.71, -3567.55, 0.000, 0.000, 0.000, 12:30:16.289
18, -4369.51, -4498.77, -4386.33, -3573.57, 0.000, 0.000, 0.000, 12:30:16.289
19, -4296.72, -4454.91, -4322.99, -3643.41, 0.000, 0.000, 0.000, 12:30:16.304
20, -4316.42, -4466.55, -4342.47, -3656.31, 0.000, 0.000, 0.000, 12:30:16.304
21, -4399.39, -4527.19, -4426.47, -3582.41, 0.000, 0.000, 0.000, 12:30:16.319
22, -4351.29, -4497.24, -4370.36, -3575.34, 0.000, 0.000, 0.000, 12:30:16.319
23, -4286.66, -4480.59, -4308.64, -3646.25, 0.000, 0.000, 0.000, 12:30:16.325
24, -4307.63, -4497.18, -4332.35, -3654.59, 0.000, 0.000, 0.000, 12:30:16.325
25, -4365.60, -4520.90, -4400.91, -3567.11, 0.000, 0.000, 0.000, 12:30:16.333
26, -4322.62, -4516.05, -4374.08, -3569.74, 0.000, 0.000, 0.000, 12:30:16.333
27, -4268.07, -4511.09, -4329.42, -3641.77, 0.000, 0.000, 0.000, 12:30:16.349
28, -4290.09, -4493.01, -4333.88, -3651.33, 0.000, 0.000, 0.000, 12:30:16.349
29, -4349.31, -4515.04, -4393.18, -3553.49, 0.000, 0.000, 0.000, 12:30:16.349
30, -4323.75, -4522.72, -4381.50, -3560.59, 0.000, 0.000, 0.000, 12:30:16.349
31, -4262.70, -4514.54, -4320.27, -3645.43, 0.000, 0.000, 0.000, 12:30:16.363
32, -4279.21, -4518.16, -4362.09, -3649.11, 0.000, 0.000, 0.000, 12:30:16.363
33, -4331.87, -4558.51, -4442.76, -3577.10, 0.000, 0.000, 0.000, 12:30:16.378
34, -4299.29, -4554.93, -4417.92, -3582.00, 0.000, 0.000, 0.000, 12:30:16.378
35, -4222.64, -4513.43, -4324.34, -3643.60, 0.000, 0.000, 0.000, 12:30:16.378
36, -4249.82, -4533.82, -4340.74, -3654.41, 0.000, 0.000, 0.000, 12:30:16.378
37, -4305.48, -4588.16, -4424.12, -3564.87, 0.000, 0.000, 0.000, 12:30:16.393
38, -4258.33, -4588.71, -4395.78, -3573.66, 0.000, 0.000, 0.000, 12:30:16.393
39, -4190.16, -4529.55, -4317.12, -3645.79, 0.000, 0.000, 0.000, 12:30:16.408
40, -4206.60, -4528.12, -4346.80, -3652.48, 0.000, 0.000, 0.000, 12:30:16.408
41, -4270.52, -4576.02, -4438.71, -3586.36, 0.000, 0.000, 0.000, 12:30:16.409
42, -4230.54, -4568.15, -4395.68, -3585.37, 0.000, 0.000, 0.000, 12:30:16.409
43, -4147.85, -4542.99, -4327.92, -3646.74, 0.000, 0.000, 0.000, 12:30:16.423
44, -4175.67, -4563.55, -4357.51, -3654.10, 0.000, 0.000, 0.000, 12:30:16.423
45, -4242.04, -4616.18, -4419.60, -3577.55, 0.000, 0.000, 0.000, 12:30:16.438
46, -4188.77, -4624.35, -4391.60, -3576.32, 0.000, 0.000, 0.000, 12:30:16.438
47, -4106.25, -4581.91, -4323.92, -3642.05, 0.000, 0.000, 0.000, 12:30:16.438
48, -4134.00, -4564.91, -4357.95, -3661.14, 0.000, 0.000, 0.000, 12:30:16.438
49, -4197.40, -4610.95, -4431.39, -3575.65, 0.000, 0.000, 0.000, 12:30:16.454
50, -4167.68, -4622.36, -4398.22, -3577.45, 0.000, 0.000, 0.000, 12:30:16.454
51, -4087.92, -4571.56, -4335.54, -3641.92, 0.000, 0.000, 0.000, 12:30:16.468
52, -4119.32, -4597.59, -4368.75, -3655.89, 0.000, 0.000, 0.000, 12:30:16.469
53, -4187.69, -4612.92, -4423.38, -3577.33, 0.000, 0.000, 0.000, 12:30:16.469
54, -4143.49, -4609.43, -4389.10, -3583.15, 0.000, 0.000, 0.000, 12:30:16.469
55, -4068.75, -4574.83, -4311.63, -3645.62, 0.000, 0.000, 0.000, 12:30:16.483
56, -4104.19, -4590.21, -4355.48, -3648.11, 0.000, 0.000, 0.000, 12:30:16.483
57, -4175.59, -4639.24, -4422.80, -3574.55, 0.000, 0.000, 0.000, 12:30:16.498
58, -4145.79, -4644.31, -4406.25, -3580.75, 0.000, 0.000, 0.000, 12:30:16.498
59, -4075.29, -4597.70, -4328.30, -3653.29, 0.000, 0.000, 0.000, 12:30:16.499
60, -4101.41, -4598.79, -4357.71, -3663.56, 0.000, 0.000, 0.000, 12:30:16.499
61, -4175.62, -4655.37, -4442.20, -3581.64, 0.000, 0.000, 0.000, 12:30:16.513
62, -4137.37, -4644.14, -4416.87, -3578.55, 0.000, 0.000, 0.000, 12:30:16.513
63, -4062.87, -4592.00, -4343.19, -3645.91, 0.000, 0.000, 0.000, 12:30:16.529
64, -4085.85, -4590.88, -4353.21, -3650.44, 0.000, 0.000, 0.000, 12:30:16.529
65, -4164.50, -4632.20, -4430.02, -3565.90, 0.000, 0.000, 0.000, 12:30:16.529
66, -4130.12, -4656.39, -4414.25, -3579.20, 0.000, 0.000, 0.000, 12:30:16.529
67, -4054.22, -4611.12, -4320.22, -3646.94, 0.000, 0.000, 0.000, 12:30:16.543
68, -4080.38, -4571.76, -4351.24, -3653.96, 0.000, 0.000, 0.000, 12:30:16.543
69, -4149.03, -4623.54, -4440.65, -3577.05, 0.000, 0.000, 0.000, 12:30:16.558
70, -4113.31, -4613.20, -4376.30, -3571.04, 0.000, 0.000, 0.000, 12:30:16.558
71, -4055.64, -4588.48, -4320.73, -3633.42, 0.000, 0.000, 0.000, 12:30:16.559
72, -4082.46, -4597.36, -4351.97, -3645.25, 0.000, 0.000, 0.000, 12:30:16.559
73, -4151.55, -4641.62, -4448.90, -3572.41, 0.000, 0.000, 0.000, 12:30:16.573
74, -4116.54, -4633.66, -4380.13, -3571.95, 0.000, 0.000, 0.000, 12:30:16.573
75, -4055.03, -4594.43, -4321.34, -3638.63, 0.000, 0.000, 0.000, 12:30:16.589
76, -4077.70, -4603.72, -4350.61, -3649.46, 0.000, 0.000, 0.000, 12:30:16.589
77, -4143.75, -4645.17, -4425.72, -3568.92, 0.000, 0.000, 0.000, 12:30:16.589
78, -4112.56, -4629.33, -4387.73, -3577.99, 0.000, 0.000, 0.000, 12:30:16.589
79, -4045.02, -4591.76, -4321.88, -3633.45, 0.000, 0.000, 0.000, 12:30:16.604
80, -4070.88, -4612.88, -4361.42, -3645.38, 0.000, 0.000, 0.000, 12:30:16.604
81, -4147.67, -4632.34, -4438.98, -3583.25, 0.000, 0.000, 0.000, 12:30:16.618
82, -4111.45, -4629.50, -4392.82, -3565.20, 0.000, 0.000, 0.000, 12:30:16.618
83, -4053.92, -4605.86, -4332.28, -3642.40, 0.000, 0.000, 0.000, 12:30:16.619
84, -4085.84, -4605.44, -4358.36, -3661.96, 0.000, 0.000, 0.000, 12:30:16.619
85, -4139.79, -4628.63, -4416.91, -3571.24, 0.000, 0.000, 0.000, 12:30:16.634
86, -4108.70, -4616.34, -4387.01, -3562.13, 0.000, 0.000, 0.000, 12:30:16.634
87, -4047.34, -4589.14, -4321.04, -3633.40, 0.000, 0.000, 0.000, 12:30:16.648
88, -4086.19, -4637.26, -4361.97, -3656.08, 0.000, 0.000, 0.000, 12:30:16.648
89, -4148.75, -4629.41, -4418.18, -3559.51, 0.000, 0.000, 0.000, 12:30:16.649
90, -4100.48, -4591.15, -4383.54, -3560.98, 0.000, 0.000, 0.000, 12:30:16.649
91, -4065.88, -4575.99, -4324.71, -3642.24, 0.000, 0.000, 0.000, 12:30:16.671
92, -4104.14, -4583.02, -4331.80, -3644.44, 0.000, 0.000, 0.000, 12:30:16.671
93, -4170.67, -4621.28, -4426.13, -3568.22, 0.000, 0.000, 0.000, 12:30:16.678
94, -4141.03, -4596.07, -4370.72, -3564.84, 0.000, 0.000, 0.000, 12:30:16.678
95, -4074.79, -4549.92, -4289.24, -3626.44, 0.000, 0.000, 0.000, 12:30:16.678
96, -4100.13, -4556.77, -4317.42, -3639.57, 0.000, 0.000, 0.000, 12:30:16.678
97, -4166.40, -4616.81, -4408.28, -3567.27, 0.000, 0.000, 0.000, 12:30:16.693
98, -4142.37, -4591.04, -4368.97, -3576.04, 0.000, 0.000, 0.000, 12:30:16.694
99, -4084.93, -4576.12, -4303.83, -3635.09, 0.000, 0.000, 0.000, 12:30:16.708
100, -4097.74, -4550.81, -4339.13, -3644.33, 0.000, 0.000, 0.000, 12:30:16.709
