%OpenBCI Raw EEG Data
%
%Sample Rate = 200.0 Hz
%First Column = SampleIndex
%Last Column = Timestamp 
%Other Columns = EEG data in microvolts followed by Accel Data (in G) interleaved with Aux Data
0, -4632.20, -5306.73, -5083.45, -4742.36, 0.000, 0.000, 0.000, 12:41:10.323
1, -4628.89, -5296.90, -5110.89, -4634.13, 0.000, 0.000, 0.000, 12:41:10.337
2, -4618.67, -5247.28, -5106.82, -4512.24, 0.000, 0.000, 0.000, 12:41:10.337
3, -4620.70, -5302.14, -5110.58, -4605.51, 0.000, 0.000, 0.000, 12:41:10.353
4, -4597.98, -5285.40, -5094.62, -4695.35, 0.000, 0.000, 0.000, 12:41:10.353
5, -4586.93, -5255.77, -5105.63, -4575.06, 0.000, 0.000, 0.000, 12:41:10.353
6, -4597.08, -5259.96, -5094.57, -4487.94, 0.000, 0.000, 0.000, 12:41:10.353
7, -4577.76, -5242.33, -5072.01, -4569.73, 0.000, 0.000, 0.000, 12:41:10.368
8, -4578.43, -5297.05, -5061.19, -4669.43, 0.000, 0.000, 0.000, 12:41:10.368
9, -4560.71, -5213.82, -5044.42, -4532.75, 0.000, 0.000, 0.000, 12:41:10.382
10, -4571.65, -5219.83, -5083.21, -4449.35, 0.000, 0.000, 0.000, 12:41:10.382
11, -4553.50, -5268.63, -5078.90, -4529.66, 0.000, 0.000, 0.000, 12:41:10.390
12, -4592.42, -5314.35, -5088.08, -4662.23, 0.000, 0.000, 0.000, 12:41:10.390
13, -4545.77, -5250.90, -5102.42, -4518.33, 0.000, 0.000, 0.000, 12:41:10.397
14, -4516.25, -5230.04, -5148.56, -4393.11, 0.000, 0.000, 0.000, 12:41:10.398
15, -4520.56, -5253.35, -5096.07, -4469.94, 0.000, 0.000, 0.000, 12:41:10.412
16, -4527.37, -5281.77, -5107.05, -4573.67, 0.000, 0.000, 0.000, 12:41:10.412
17, -4511.47, -5222.82, -5126.81, -4447.98, 0.000, 0.000, 0.000, 12:41:10.413
18, -4522.39, -5203.63, -5145.21, -4320.51, 0.000, 0.000, 0.000, 12:41:10.413
19, -4542.55, -5245.02, -5153.79, -4406.02, 0.000, 0.000, 0.000, 12:41:10.427
20, -4562.35, -5249.46, -5162.77, -4519.57, 0.000, 0.000, 0.000, 12:41:10.427
21, -4582.14, -5232.38, -5204.59, -4426.70, 0.000, 0.000, 0.000, 12:41:10.442
22, -4585.94, -5223.67, -5217.66, -4306.01, 0.000, 0.000, 0.000, 12:41:10.442
23, -4616.45, -5202.29, -5162.90, -4412.08, 0.000, 0.000, 0.000, 12:41:10.443
24, -4617.06, -5205.84, -5144.13, -4513.57, 0.000, 0.000, 0.000, 12:41:10.443
25, -4604.88, -5187.64, -5168.34, -4395.60, 0.000, 0.000, 0.000, 12:41:10.457
26, -4616.55, -5177.02, -5186.79, -4309.05, 0.000, 0.000, 0.000, 12:41:10.457
27, -4603.00, -5208.92, -5159.67, -4392.36, 0.000, 0.000, 0.000, 12:41:10.472
28, -4609.19, -5264.19, -5176.48, -4514.53, 0.000, 0.000, 0.000, 12:41:10.472
29, -4629.15, -5199.06, -5192.79, -4422.35, 0.000, 0.000, 0.000, 12:41:10.472
30, -4614.38, -5182.20, -5171.89, -4332.48, 0.000, 0.000, 0.000, 12:41:10.473
31, -4607.90, -5240.32, -5164.63, -4434.15, 0.000, 0.000, 0.000, 12:41:10.488
32, -4605.64, -5271.99, -5155.98, -4552.00, 0.000, 0.000, 0.000, 12:41:10.488
33, -4587.87, -5209.59, -5140.83, -4449.71, 0.000, 0.000, 0.000, 12:41:10.503
34, -4580.01, -5225.40, -5134.19, -4362.12, 0.000, 0.000, 0.000, 12:41:10.503
35, -4575.12, -5208.15, -5081.14, -4441.93, 0.000, 0.000, 0.000, 12:41:10.504
36, -4575.39, -5250.61, -5085.08, -4551.97, 0.000, 0.000, 0.000, 12:41:10.504
37, -4573.28, -5193.83, -5109.22, -4461.26, 0.000, 0.000, 0.000, 12:41:10.517
38, -4557.85, -5192.12, -5100.93, -4371.29, 0.000, 0.000, 0.000, 12:41:10.517
39, -4544.72, -5185.72, -5073.87, -4463.36, 0.000, 0.000, 0.000, 12:41:10.533
40, -4552.76, -5242.82, -5066.76, -4577.03, 0.000, 0.000, 0.000, 12:41:10.533
41, -4537.21, -5190.20, -5088.08, -4457.13, 0.000, 0.000, 0.000, 12:41:10.533
42, -4539.46, -5183.24, -5065.14, -4386.38, 0.000, 0.000, 0.000, 12:41:10.533
43, -4545.10, -5237.23, -5076.63, -4475.35, 0.000, 0.000, 0.000, 12:41:10.547
44, -4538.89, -5248.13, -5082.40, -4569.74, 0.000, 0.000, 0.000, 12:41:10.548
45, -4531.94, -5196.84, -5067.81, -4477.77, 0.000, 0.000, 0.000, 12:41:10.562
46, -4528.13, -5199.54, -5079.07, -4377.06, 0.000, 0.000, 0.000, 12:41:10.563
47, -4528.74, -5189.49, -5022.92, -4480.71, 0.000, 0.000, 0.000, 12:41:10.563
48, -4543.78, -5248.36, -5031.89, -4584.49, 0.000, 0.000, 0.000, 12:41:10.563
49, -4515.91, -5202.18, -5045.34, -4467.37, 0.000, 0.000, 0.000, 12:41:10.577
50, -4515.87, -5188.50, -5075.16, -4373.18, 0.000, 0.000, 0.000, 12:41:10.578
51, -4521.91, -5235.97, -5054.81, -4481.32, 0.000, 0.000, 0.000, 12:41:10.592
52, -4521.32, -5255.25, -5046.63, -4592.88, 0.000, 0.000, 0.000, 12:41:10.592
53, -4524.00, -5204.58, -5038.18, -4473.34, 0.000, 0.000, 0.000, 12:41:10.593
54, -4522.03, -5182.58, -5039.64, -4384.04, 0.000, 0.000, 0.000, 12:41:10.593
55, -4532.94, -5232.83, -5056.62, -4485.40, 0.000, 0.000, 0.000, 12:41:10.608
56, -4528.54, -5252.24, -5058.30, -4594.63, 0.000, 0.000, 0.000, 12:41:10.608
57, -4521.89, -5224.61, -5045.68, -4462.64, 0.000, 0.000, 0.000, 12:41:10.622
58, -4512.94, -5190.53, -5053.95, -4372.87, 0.000, 0.000, 0.000, 12:41:10.622
59, -4513.54, -5245.15, -5055.91, -4484.45, 0.000, 0.000, 0.000, 12:41:10.623
60, -4509.66, -5251.41, -5034.42, -4602.29, 0.000, 0.000, 0.000, 12:41:10.623
61, -4506.67, -5213.60, -5048.44, -4466.62, 0.000, 0.000, 0.000, 12:41:10.644
62, -4507.93, -5201.98, -5063.93, -4385.21, 0.000, 0.000, 0.000, 12:41:10.644
63, -4511.26, -5227.98, -5031.86, -4471.01, 0.000, 0.000, 0.000, 12:41:10.653
64, -4520.82, -5246.14, -5023.41, -4600.40, 0.000, 0.000, 0.000, 12:41:10.653
65, -4530.24, -5207.50, -5049.05, -4487.68, 0.000, 0.000, 0.000, 12:41:10.653
66, -4520.39, -5199.34, -5054.01, -4377.32, 0.000, 0.000, 0.000, 12:41:10.654
67, -4486.61, -5213.37, -5037.31, -4457.11, 0.000, 0.000, 0.000, 12:41:10.667
68, -4524.23, -5259.92, -5051.74, -4592.60, 0.000, 0.000, 0.000, 12:41:10.667
69, -4524.90, -5221.45, -5050.59, -4457.33, 0.000, 0.000, 0.000, 12:41:10.683
70, -4501.09, -5189.81, -5030.31, -4375.25, 0.000, 0.000, 0.000, 12:41:10.683
71, -4502.99, -5220.23, -5035.30, -4480.45, 0.000, 0.000, 0.000, 12:41:10.683
72, -4516.36, -5262.38, -5072.82, -4581.56, 0.000, 0.000, 0.000, 12:41:10.683
73, -4499.19, -5201.64, -5040.90, -4452.13, 0.000, 0.000, 0.000, 12:41:10.698
74, -4511.55, -5199.62, -5044.11, -4368.48, 0.000, 0.000, 0.000, 12:41:10.698
75, -4508.14, -5223.06, -5026.97, -4488.56, 0.000, 0.000, 0.000, 12:41:10.713
76, -4513.31, -5257.30, -5044.41, -4601.68, 0.000, 0.000, 0.000, 12:41:10.713
77, -4512.11, -5217.78, -5040.17, -4454.46, 0.000, 0.000, 0.000, 12:41:10.713
78, -4488.72, -5177.50, -5030.52, -4366.57, 0.000, 0.000, 0.000, 12:41:10.713
79, -4505.12, -5235.55, -5034.43, -4489.03, 0.000, 0.000, 0.000, 12:41:10.727
80, -4494.11, -5257.17, -5031.45, -4575.31, 0.000, 0.000, 0.000, 12:41:10.727
81, -4495.60, -5205.61, -5042.30, -4448.82, 0.000, 0.000, 0.000, 12:41:10.743
82, -4505.47, -5188.37, -5045.37, -4384.51, 0.000, 0.000, 0.000, 12:41:10.743
83, -4496.22, -5223.91, -5031.27, -4474.57, 0.000, 0.000, 0.000, 12:41:10.743
84, -4501.00, -5241.96, -5039.86, -4588.87, 0.000, 0.000, 0.000, 12:41:10.743
85, -4503.40, -5216.97, -5041.48, -4450.81, 0.000, 0.000, 0.000, 12:41:10.758
86, -4483.74, -5172.05, -5021.51, -4365.34, 0.000, 0.000, 0.000, 12:41:10.758
87, -4498.76, -5205.65, -5018.64, -4492.32, 0.000, 0.000, 0.000, 12:41:10.772
88, -4499.58, -5259.29, -5066.30, -4591.17, 0.000, 0.000, 0.000, 12:41:10.772
89, -4497.89, -5205.79, -5037.48, -4461.90, 0.000, 0.000, 0.000, 12:41:10.773
90, -4488.36, -5180.67, -4994.42, -4385.13, 0.000, 0.000, 0.000, 12:41:10.773
91, -4498.34, -5236.84, -5020.61, -4472.35, 0.000, 0.000, 0.000, 12:41:10.788
92, -4514.49, -5286.62, -5035.26, -4604.62, 0.000, 0.000, 0.000, 12:41:10.788
93, -4507.33, -5211.65, -5046.52, -4466.45, 0.000, 0.000, 0.000, 12:41:10.803
94, -4493.49, -5178.88, -5027.27, -4381.75, 0.000, 0.000, 0.000, 12:41:10.803
95, -4505.54, -5225.58, -5012.04, -4479.80, 0.000, 0.000, 0.000, 12:41:10.803
96, -4512.57, -5268.92, -5038.06, -4598.84, 0.000, 0.000, 0.000, 12:41:10.803
97, -4508.20, -5214.18, -5033.79, -4468.69, 0.000, 0.000, 0.000, 12:41:10.817
98, -4478.38, -5194.15, -5021.41, -4382.41, 0.000, 0.000, 0.000, 12:41:10.817
99, -4503.35, -5228.77, -5032.20, -4503.08, 0.000, 0.000, 0.000, 12:41:10.832
100, -4508.92, -5239.79, -5009.68, -4602.41, 0.000, 0.000, 0.000, 12:41:10.832
101, -4497.63, -5191.41, -5058.92, -4461.01, 0.000, 0.000, 0.000, 12:41:10.833
102, -4494.65, -5187.07, -5012.12, -4375.01, 0.000, 0.000, 0.000, 12:41:10.833
103, -4498.14, -5208.74, -5043.94, -4491.63, 0.000, 0.000, 0.000, 12:41:10.848
104, -4520.36, -5283.43, -5041.07, -4602.66, 0.000, 0.000, 0.000, 12:41:10.849
105, -4504.61, -5190.16, -4994.58, -4453.26, 0.000, 0.000, 0.000, 12:41:10.863
106, -4505.36, -5186.57, -5003.71, -4392.13, 0.000, 0.000, 0.000, 12:41:10.863
107, -4514.89, -5216.07, -5020.29, -4497.07, 0.000, 0.000, 0.000, 12:41:10.863
108, -4528.99, -5269.00, -5044.47, -4599.79, 0.000, 0.000, 0.000, 12:41:10.864
109, -4489.01, -5209.39, -5037.37, -4455.25, 0.000, 0.000, 0.000, 12:41:10.877
110, -4508.45, -5196.13, -5051.57, -4393.57, 0.000, 0.000, 0.000, 12:41:10.877
111, -4507.25, -5232.92, -5025.25, -4501.00, 0.000, 0.000, 0.000, 12:41:10.893
112, -4520.71, -5265.92, -5036.01, -4592.64, 0.000, 0.000, 0.000, 12:41:10.893
113, -4501.23, -5171.45, -5034.31, -4449.47, 0.000, 0.000, 0.000, 12:41:10.894
114, -4494.06, -5185.08, -5025.49, -4385.16, 0.000, 0.000, 0.000, 12:41:10.894
115, -4501.30, -5227.94, -5018.45, -4500.51, 0.000, 0.000, 0.000, 12:41:10.907
116, -4519.22, -5262.24, -5036.50, -4607.99, 0.000, 0.000, 0.000, 12:41:10.907
117, -4513.57, -5209.82, -5074.87, -4456.40, 0.000, 0.000, 0.000, 12:41:10.922
118, -4502.30, -5184.57, -5016.47, -4380.79, 0.000, 0.000, 0.000, 12:41:10.922
119, -4525.31, -5233.55, -5026.45, -4502.31, 0.000, 0.000, 0.000, 12:41:10.923
120, -4524.87, -5255.73, -5025.76, -4603.50, 0.000, 0.000, 0.000, 12:41:10.923
121, -4514.05, -5220.69, -5043.24, -4454.97, 0.000, 0.000, 0.000, 12:41:10.937
122, -4498.27, -5178.03, -5035.49, -4380.00, 0.000, 0.000, 0.000, 12:41:10.937
123, -4522.17, -5223.81, -5047.55, -4503.91, 0.000, 0.000, 0.000, 12:41:10.953
124, -4515.76, -5275.11, -5021.09, -4594.11, 0.000, 0.000, 0.000, 12:41:10.953
125, -4509.29, -5209.07, -5041.32, -4447.00, 0.000, 0.000, 0.000, 12:41:10.953
126, -4498.44, -5173.90, -5004.96, -4382.71, 0.000, 0.000, 0.000, 12:41:10.953
127, -4501.57, -5192.17, -4999.72, -4503.48, 0.000, 0.000, 0.000, 12:41:10.967
128, -4517.33, -5240.72, -5011.12, -4593.08, 0.000, 0.000, 0.000, 12:41:10.967
129, -4508.69, -5203.45, -5061.31, -4447.02, 0.000, 0.000, 0.000, 12:41:10.983
130, -4509.31, -5210.25, -5054.07, -4399.91, 0.000, 0.000, 0.000, 12:41:10.983
131, -4516.73, -5255.30, -5022.13, -4505.94, 0.000, 0.000, 0.000, 12:41:10.983
132, -4519.56, -5269.21, -5043.63, -4610.14, 0.000, 0.000, 0.000, 12:41:10.983
133, -4513.31, -5183.46, -5013.00, -4430.89, 0.000, 0.000, 0.000, 12:41:11.004
134, -4501.61, -5169.57, -5012.32, -4366.66, 0.000, 0.000, 0.000, 12:41:11.004
135, -4502.01, -5226.18, -5038.90, -4505.52, 0.000, 0.000, 0.000, 12:41:11.012
136, -4529.77, -5270.45, -5093.26, -4610.36, 0.000, 0.000, 0.000, 12:41:11.012
137, -4508.97, -5196.86, -4995.95, -4447.60, 0.000, 0.000, 0.000, 12:41:11.013
138, -4507.17, -5175.11, -5005.00, -4388.92, 0.000, 0.000, 0.000, 12:41:11.013
139, -4518.80, -5236.14, -5022.95, -4504.23, 0.000, 0.000, 0.000, 12:41:11.028
140, -4529.86, -5265.87, -5040.50, -4603.06, 0.000, 0.000, 0.000, 12:41:11.028
141, -4517.64, -5211.09, -5055.71, -4449.39, 0.000, 0.000, 0.000, 12:41:11.042
142, -4504.11, -5176.24, -5029.15, -4399.13, 0.000, 0.000, 0.000, 12:41:11.042
143, -4504.88, -5212.69, -5030.00, -4505.09, 0.000, 0.000, 0.000, 12:41:11.042
144, -4523.19, -5269.39, -5043.97, -4606.28, 0.000, 0.000, 0.000, 12:41:11.042
145, -4511.75, -5216.91, -5066.50, -4456.97, 0.000, 0.000, 0.000, 12:41:11.057
146, -4505.29, -5198.00, -5045.58, -4400.73, 0.000, 0.000, 0.000, 12:41:11.057
147, -4510.79, -5237.21, -5032.89, -4504.42, 0.000, 0.000, 0.000, 12:41:11.072
148, -4520.09, -5251.07, -5021.39, -4582.47, 0.000, 0.000, 0.000, 12:41:11.072
149, -4514.29, -5194.77, -5037.16, -4452.42, 0.000, 0.000, 0.000, 12:41:11.073
150, -4498.33, -5199.63, -5054.58, -4399.25, 0.000, 0.000, 0.000, 12:41:11.073
151, -4513.33, -5246.88, -5052.94, -4502.34, 0.000, 0.000, 0.000, 12:41:11.103
152, -4524.83, -5282.58, -5024.17, -4601.66, 0.000, 0.000, 0.000, 12:41:11.103
153, -4497.87, -5197.17, -5025.08, -4442.73, 0.000, 0.000, 0.000, 12:41:11.103
154, -4507.43, -5179.17, -5040.70, -4407.86, 0.000, 0.000, 0.000, 12:41:11.103
155, -4515.30, -5223.40, -5042.25, -4514.43, 0.000, 0.000, 0.000, 12:41:11.104
156, -4529.68, -5270.31, -5056.34, -4600.71, 0.000, 0.000, 0.000, 12:41:11.104
157, -4526.11, -5224.85, -5087.97, -4466.29, 0.000, 0.000, 0.000, 12:41:11.117
158, -4507.67, -5202.66, -5019.43, -4409.39, 0.000, 0.000, 0.000, 12:41:11.117
159, -4515.04, -5237.07, -5029.38, -4518.16, 0.000, 0.000, 0.000, 12:41:11.132
160, -4527.37, -5264.05, -5044.19, -4591.81, 0.000, 0.000, 0.000, 12:41:11.132
161, -4503.51, -5192.75, -5032.59, -4448.59, 0.000, 0.000, 0.000, 12:41:11.132
162, -4499.14, -5189.99, -5032.78, -4402.87, 0.000, 0.000, 0.000, 12:41:11.132
163, -4500.58, -5220.76, -5040.51, -4520.32, 0.000, 0.000, 0.000, 12:41:11.147
164, -4513.05, -5268.04, -5033.93, -4594.20, 0.000, 0.000, 0.000, 12:41:11.148
165, -4511.82, -5190.96, -5051.33, -4453.36, 0.000, 0.000, 0.000, 12:41:11.163
166, -4507.15, -5183.13, -5023.58, -4407.14, 0.000, 0.000, 0.000, 12:41:11.163
167, -4518.28, -5225.49, -5035.08, -4514.43, 0.000, 0.000, 0.000, 12:41:11.163
168, -4523.69, -5249.39, -5035.23, -4606.52, 0.000, 0.000, 0.000, 12:41:11.163
169, -4511.58, -5204.54, -5053.61, -4447.57, 0.000, 0.000, 0.000, 12:41:11.177
170, -4515.23, -5205.81, -5059.62, -4411.43, 0.000, 0.000, 0.000, 12:41:11.177
171, -4526.12, -5250.83, -5056.06, -4519.74, 0.000, 0.000, 0.000, 12:41:11.192
172, -4524.47, -5243.93, -5031.75, -4590.80, 0.000, 0.000, 0.000, 12:41:11.192
173, -4511.28, -5190.89, -5048.80, -4443.64, 0.000, 0.000, 0.000, 12:41:11.192
174, -4517.89, -5208.79, -5068.59, -4416.09, 0.000, 0.000, 0.000, 12:41:11.192
175, -4518.21, -5249.56, -5045.13, -4521.80, 0.000, 0.000, 0.000, 12:41:11.207
176, -4535.11, -5273.45, -5040.40, -4607.69, 0.000, 0.000, 0.000, 12:41:11.207
177, -4507.44, -5188.59, -5027.37, -4443.90, 0.000, 0.000, 0.000, 12:41:11.222
178, -4519.24, -5199.84, -5048.96, -4416.09, 0.000, 0.000, 0.000, 12:41:11.222
179, -4509.67, -5227.85, -5031.14, -4511.84, 0.000, 0.000, 0.000, 12:41:11.223
180, -4516.99, -5259.75, -5038.73, -4589.46, 0.000, 0.000, 0.000, 12:41:11.223
181, -4507.29, -5208.42, -5057.24, -4438.14, 0.000, 0.000, 0.000, 12:41:11.238
182, -4509.30, -5207.55, -5042.78, -4412.47, 0.000, 0.000, 0.000, 12:41:11.238
183, -4535.44, -5278.73, -5054.77, -4519.97, 0.000, 0.000, 0.000, 12:41:11.252
184, -4534.98, -5289.28, -5058.59, -4611.04, 0.000, 0.000, 0.000, 12:41:11.252
185, -4515.11, -5194.18, -5059.34, -4439.31, 0.000, 0.000, 0.000, 12:41:11.253
186, -4521.05, -5212.14, -5040.42, -4406.81, 0.000, 0.000, 0.000, 12:41:11.253
187, -4535.15, -5263.41, -5045.92, -4511.50, 0.000, 0.000, 0.000, 12:41:11.267
188, -4530.28, -5288.04, -5056.95, -4597.89, 0.000, 0.000, 0.000, 12:41:11.267
189, -4516.92, -5204.50, -5046.47, -4431.46, 0.000, 0.000, 0.000, 12:41:11.298
190, -4510.21, -5165.87, -5036.65, -4410.25, 0.000, 0.000, 0.000, 12:41:11.298
191, -4525.61, -5228.90, -5037.50, -4515.48, 0.000, 0.000, 0.000, 12:41:11.298
192, -4533.87, -5256.78, -5035.83, -4599.19, 0.000, 0.000, 0.000, 12:41:11.298
193, -4514.31, -5195.69, -5035.80, -4443.55, 0.000, 0.000, 0.000, 12:41:11.298
194, -4511.64, -5199.77, -5042.52, -4402.76, 0.000, 0.000, 0.000, 12:41:11.298
195, -4522.89, -5243.82, -5061.77, -4513.22, 0.000, 0.000, 0.000, 12:41:11.299
196, -4527.86, -5251.98, -5049.15, -4600.46, 0.000, 0.000, 0.000, 12:41:11.299
197, -4515.69, -5190.88, -5028.77, -4434.14, 0.000, 0.000, 0.000, 12:41:11.313
198, -4514.26, -5203.03, -5030.77, -4402.74, 0.000, 0.000, 0.000, 12:41:11.313
199, -4519.74, -5258.67, -5040.80, -4516.40, 0.000, 0.000, 0.000, 12:41:11.327
200, -4521.87, -5251.64, -5057.59, -4591.25, 0.000, 0.000, 0.000, 12:41:11.328
0, -4526.69, -5194.64, -5049.84, -4433.56, 0.000, 0.000, 0.000, 12:41:11.328
1, -4517.25, -5199.12, -5042.07, -4411.49, 0.000, 0.000, 0.000, 12:41:11.342
2, -4518.41, -5232.52, -5034.27, -4513.49, 0.000, 0.000, 0.000, 12:41:11.342
3, -4519.18, -5251.56, -5031.46, -4607.59, 0.000, 0.000, 0.000, 12:41:11.357
4, -4530.47, -5211.19, -5057.80, -4429.76, 0.000, 0.000, 0.000, 12:41:11.357
5, -4511.16, -5201.64, -5046.66, -4405.51, 0.000, 0.000, 0.000, 12:41:11.358
6, -4521.48, -5240.48, -5062.13, -4511.12, 0.000, 0.000, 0.000, 12:41:11.358
7, -4515.31, -5259.56, -5032.27, -4586.82, 0.000, 0.000, 0.000, 12:41:11.372
8, -4504.50, -5189.79, -5043.84, -4428.55, 0.000, 0.000, 0.000, 12:41:11.372
9, -4507.29, -5209.30, -5067.97, -4417.98, 0.000, 0.000, 0.000, 12:41:11.387
10, -4513.23, -5231.23, -5023.72, -4525.81, 0.000, 0.000, 0.000, 12:41:11.387
11, -4520.38, -5252.72, -5015.08, -4597.47, 0.000, 0.000, 0.000, 12:41:11.388
12, -4515.99, -5183.47, -5032.67, -4434.70, 0.000, 0.000, 0.000, 12:41:11.388
13, -4514.45, -5198.42, -5045.82, -4419.62, 0.000, 0.000, 0.000, 12:41:11.403
14, -4525.03, -5248.83, -5043.25, -4518.22, 0.000, 0.000, 0.000, 12:41:11.403
15, -4515.22, -5257.16, -5051.92, -4602.78, 0.000, 0.000, 0.000, 12:41:11.417
16, -4498.63, -5180.30, -5029.24, -4430.84, 0.000, 0.000, 0.000, 12:41:11.417
17, -4510.48, -5178.98, -5022.56, -4412.49, 0.000, 0.000, 0.000, 12:41:11.418
18, -4526.79, -5240.73, -5047.99, -4523.55, 0.000, 0.000, 0.000, 12:41:11.419
19, -4529.49, -5271.31, -5084.27, -4592.95, 0.000, 0.000, 0.000, 12:41:11.433
20, -4504.60, -5197.06, -5046.08, -4420.96, 0.000, 0.000, 0.000, 12:41:11.433
21, -4513.17, -5188.97, -5020.75, -4414.08, 0.000, 0.000, 0.000, 12:41:11.448
22, -4513.52, -5231.36, -5017.17, -4522.98, 0.000, 0.000, 0.000, 12:41:11.448
23, -4521.07, -5235.20, -5032.26, -4595.87, 0.000, 0.000, 0.000, 12:41:11.455
24, -4514.64, -5190.46, -5040.71, -4425.25, 0.000, 0.000, 0.000, 12:41:11.455
25, -4511.63, -5199.76, -5039.78, -4401.91, 0.000, 0.000, 0.000, 12:41:11.463
26, -4522.20, -5229.20, -5052.49, -4510.75, 0.000, 0.000, 0.000, 12:41:11.463
27, -4526.90, -5258.81, -5051.62, -4595.31, 0.000, 0.000, 0.000, 12:41:11.477
28, -4505.66, -5197.63, -5049.35, -4431.08, 0.000, 0.000, 0.000, 12:41:11.478
29, -4516.74, -5195.45, -5035.42, -4417.51, 0.000, 0.000, 0.000, 12:41:11.478
30, -4521.68, -5226.55, -5031.39, -4521.55, 0.000, 0.000, 0.000, 12:41:11.478
31, -4525.01, -5252.41, -5040.18, -4584.61, 0.000, 0.000, 0.000, 12:41:11.492
32, -4520.67, -5200.02, -5061.03, -4440.93, 0.000, 0.000, 0.000, 12:41:11.492
33, -4509.17, -5209.99, -5051.16, -4412.95, 0.000, 0.000, 0.000, 12:41:11.507
34, -4507.79, -5231.19, -5062.12, -4521.38, 0.000, 0.000, 0.000, 12:41:11.507
35, -4524.81, -5252.92, -5038.53, -4581.83, 0.000, 0.000, 0.000, 12:41:11.507
36, -4514.52, -5202.46, -5021.72, -4431.10, 0.000, 0.000, 0.000, 12:41:11.507
37, -4509.81, -5199.20, -5030.25, -4417.79, 0.000, 0.000, 0.000, 12:41:11.523
38, -4512.58, -5240.40, -5036.20, -4516.07, 0.000, 0.000, 0.000, 12:41:11.523
39, -4511.79, -5230.99, -5032.62, -4580.33, 0.000, 0.000, 0.000, 12:41:11.537
40, -4495.01, -5176.81, -5020.94, -4401.52, 0.000, 0.000, 0.000, 12:41:11.537
41, -4511.28, -5212.22, -5042.56, -4425.61, 0.000, 0.000, 0.000, 12:41:11.538
42, -4520.12, -5238.67, -5044.87, -4527.84, 0.000, 0.000, 0.000, 12:41:11.538
43, -4513.70, -5237.64, -5036.46, -4575.35, 0.000, 0.000, 0.000, 12:41:11.552
44, -4503.18, -5198.14, -5036.79, -4410.87, 0.000, 0.000, 0.000, 12:41:11.552
45, -4501.09, -5201.29, -5052.80, -4418.48, 0.000, 0.000, 0.000, 12:41:11.568
46, -4504.70, -5227.62, -5058.04, -4522.86, 0.000, 0.000, 0.000, 12:41:11.569
47, -4528.81, -5254.48, -5030.92, -4591.72, 0.000, 0.000, 0.000, 12:41:11.569
48, -4520.57, -5186.44, -5038.36, -4418.04, 0.000, 0.000, 0.000, 12:41:11.569
49, -4513.46, -5211.99, -5036.40, -4413.56, 0.000, 0.000, 0.000, 12:41:11.583
50, -4513.83, -5229.82, -5051.08, -4516.72, 0.000, 0.000, 0.000, 12:41:11.583
51, -4513.87, -5240.06, -5041.04, -4590.59, 0.000, 0.000, 0.000, 12:41:11.598
52, -4503.47, -5177.37, -5038.08, -4422.10, 0.000, 0.000, 0.000, 12:41:11.598
53, -4508.68, -5206.48, -5044.65, -4411.57, 0.000, 0.000, 0.000, 12:41:11.599
54, -4506.37, -5238.89, -5046.02, -4518.65, 0.000, 0.000, 0.000, 12:41:11.599
55, -4512.49, -5240.90, -5064.09, -4585.81, 0.000, 0.000, 0.000, 12:41:11.612
56, -4495.72, -5187.79, -5037.83, -4404.84, 0.000, 0.000, 0.000, 12:41:11.612
57, -4506.98, -5192.88, -5018.66, -4417.42, 0.000, 0.000, 0.000, 12:41:11.627
58, -4516.77, -5236.16, -5020.48, -4526.21, 0.000, 0.000, 0.000, 12:41:11.627
59, -4528.65, -5248.94, -5035.46, -4594.56, 0.000, 0.000, 0.000, 12:41:11.628
60, -4516.81, -5186.18, -5047.02, -4430.38, 0.000, 0.000, 0.000, 12:41:11.628
61, -4500.27, -5202.06, -5031.98, -4414.42, 0.000, 0.000, 0.000, 12:41:11.642
62, -4509.81, -5216.54, -5037.59, -4514.59, 0.000, 0.000, 0.000, 12:41:11.642
63, -4517.02, -5239.09, -5042.43, -4588.53, 0.000, 0.000, 0.000, 12:41:11.657
64, -4513.79, -5190.53, -5049.06, -4419.14, 0.000, 0.000, 0.000, 12:41:11.657
65, -4506.09, -5187.57, -5029.58, -4411.71, 0.000, 0.000, 0.000, 12:41:11.658
66, -4501.06, -5214.31, -5020.07, -4514.87, 0.000, 0.000, 0.000, 12:41:11.658
67, -4510.17, -5236.84, -5016.60, -4571.22, 0.000, 0.000, 0.000, 12:41:11.672
68, -4499.80, -5194.24, -5035.03, -4405.15, 0.000, 0.000, 0.000, 12:41:11.672
69, -4499.88, -5194.55, -5040.11, -4406.34, 0.000, 0.000, 0.000, 12:41:11.687
70, -4500.31, -5224.99, -5022.54, -4497.93, 0.000, 0.000, 0.000, 12:41:11.687
71, -4513.89, -5235.59, -5039.31, -4562.98, 0.000, 0.000, 0.000, 12:41:11.688
72, -4507.61, -5198.64, -5054.44, -4417.73, 0.000, 0.000, 0.000, 12:41:11.688
73, -4509.58, -5215.35, -5034.44, -4411.77, 0.000, 0.000, 0.000, 12:41:11.703
74, -4522.64, -5253.03, -5040.43, -4507.49, 0.000, 0.000, 0.000, 12:41:11.703
75, -4521.80, -5248.50, -5045.22, -4582.38, 0.000, 0.000, 0.000, 12:41:11.718
76, -4511.12, -5176.50, -5038.45, -4423.74, 0.000, 0.000, 0.000, 12:41:11.718
77, -4515.83, -5198.74, -5036.50, -4426.81, 0.000, 0.000, 0.000, 12:41:11.719
78, -4507.82, -5225.42, -5040.12, -4517.96, 0.000, 0.000, 0.000, 12:41:11.719
79, -4508.06, -5221.68, -5040.56, -4578.56, 0.000, 0.000, 0.000, 12:41:11.732
80, -4496.10, -5176.29, -5008.69, -4413.30, 0.000, 0.000, 0.000, 12:41:11.732
81, -4499.02, -5193.92, -5014.31, -4415.22, 0.000, 0.000, 0.000, 12:41:11.748
82, -4520.06, -5232.71, -5026.53, -4521.67, 0.000, 0.000, 0.000, 12:41:11.748
83, -4521.49, -5240.94, -5030.54, -4563.25, 0.000, 0.000, 0.000, 12:41:11.749
84, -4507.66, -5182.19, -5041.29, -4409.75, 0.000, 0.000, 0.000, 12:41:11.749
85, -4508.04, -5189.10, -5035.44, -4422.95, 0.000, 0.000, 0.000, 12:41:11.762
86, -4516.16, -5222.62, -5032.98, -4517.56, 0.000, 0.000, 0.000, 12:41:11.762
87, -4516.32, -5229.50, -5032.92, -4565.73, 0.000, 0.000, 0.000, 12:41:11.777
88, -4501.76, -5176.63, -5034.47, -4405.68, 0.000, 0.000, 0.000, 12:41:11.777
89, -4508.49, -5197.65, -5036.93, -4407.79, 0.000, 0.000, 0.000, 12:41:11.778
90, -4517.62, -5239.69, -5017.48, -4525.60, 0.000, 0.000, 0.000, 12:41:11.778
91, -4521.24, -5236.55, -5016.10, -4575.25, 0.000, 0.000, 0.000, 12:41:11.792
92, -4499.28, -5179.50, -5016.20, -4411.03, 0.000, 0.000, 0.000, 12:41:11.792
93, -4503.69, -5177.43, -5015.80, -4427.56, 0.000, 0.000, 0.000, 12:41:11.808
94, -4500.61, -5209.06, -5023.68, -4517.70, 0.000, 0.000, 0.000, 12:41:11.808
95, -4517.99, -5256.34, -5060.27, -4570.98, 0.000, 0.000, 0.000, 12:41:11.808
96, -4498.82, -5177.02, -5024.12, -4412.49, 0.000, 0.000, 0.000, 12:41:11.808
97, -4501.36, -5178.42, -5005.60, -4421.63, 0.000, 0.000, 0.000, 12:41:11.822
98, -4519.07, -5222.17, -5018.88, -4533.43, 0.000, 0.000, 0.000, 12:41:11.822
99, -4522.91, -5243.51, -5017.55, -4571.44, 0.000, 0.000, 0.000, 12:41:11.838
100, -4501.59, -5174.30, -5012.50, -4409.02, 0.000, 0.000, 0.000, 12:41:11.838
101, -4507.19, -5202.43, -5031.78, -4413.52, 0.000, 0.000, 0.000, 12:41:11.838
102, -4504.08, -5205.85, -5020.66, -4522.05, 0.000, 0.000, 0.000, 12:41:11.838
103, -4505.18, -5216.40, -5024.29, -4552.85, 0.000, 0.000, 0.000, 12:41:11.852
104, -4509.03, -5175.47, -5006.13, -4414.67, 0.000, 0.000, 0.000, 12:41:11.852
105, -4509.93, -5188.73, -5005.82, -4436.23, 0.000, 0.000, 0.000, 12:41:11.867
106, -4518.81, -5233.01, -5034.20, -4513.47, 0.000, 0.000, 0.000, 12:41:11.867
107, -4521.59, -5227.03, -5034.39, -4583.30, 0.000, 0.000, 0.000, 12:41:11.868
108, -4511.95, -5175.00, -5023.24, -4422.34, 0.000, 0.000, 0.000, 12:41:11.868
109, -4507.02, -5190.72, -5015.79, -4425.11, 0.000, 0.000, 0.000, 12:41:11.882
110, -4509.98, -5202.25, -5016.05, -4525.28, 0.000, 0.000, 0.000, 12:41:11.882
111, -4518.59, -5231.34, -5037.09, -4568.80, 0.000, 0.000, 0.000, 12:41:11.897
112, -4507.35, -5203.00, -5042.74, -4422.41, 0.000, 0.000, 0.000, 12:41:11.898
113, -4494.12, -5184.81, -5000.08, -4435.25, 0.000, 0.000, 0.000, 12:41:11.898
114, -4502.82, -5227.40, -5022.50, -4525.51, 0.000, 0.000, 0.000, 12:41:11.898
115, -4509.94, -5230.29, -4997.86, -4563.22, 0.000, 0.000, 0.000, 12:41:11.912
116, -4496.79, -5152.44, -5006.66, -4408.62, 0.000, 0.000, 0.000, 12:41:11.912
117, -4497.84, -5185.19, -5018.02, -4448.36, 0.000, 0.000, 0.000, 12:41:11.928
118, -4499.25, -5218.42, -5016.36, -4507.24, 0.000, 0.000, 0.000, 12:41:11.928
119, -4509.23, -5230.82, -5019.45, -4551.39, 0.000, 0.000, 0.000, 12:41:11.928
120, -4507.27, -5185.97, -5043.51, -4411.20, 0.000, 0.000, 0.000, 12:41:11.928
121, -4513.27, -5203.62, -5033.56, -4443.99, 0.000, 0.000, 0.000, 12:41:11.942
122, -4518.98, -5248.33, -5052.42, -4527.71, 0.000, 0.000, 0.000, 12:41:11.942
123, -4521.90, -5206.85, -5012.66, -4559.92, 0.000, 0.000, 0.000, 12:41:11.957
124, -4520.56, -5183.59, -5019.60, -4404.43, 0.000, 0.000, 0.000, 12:41:11.957
125, -4509.39, -5185.23, -5038.70, -4436.77, 0.000, 0.000, 0.000, 12:41:11.958
126, -4524.48, -5214.86, -5033.99, -4529.61, 0.000, 0.000, 0.000, 12:41:11.958
127, -4525.38, -5227.80, -5021.86, -4544.03, 0.000, 0.000, 0.000, 12:41:11.979
128, -4514.37, -5188.96, -5036.12, -4415.42, 0.000, 0.000, 0.000, 12:41:11.979
129, -4514.60, -5200.04, -5020.31, -4435.57, 0.000, 0.000, 0.000, 12:41:11.987
130, -4526.14, -5228.01, -5025.64, -4528.83, 0.000, 0.000, 0.000, 12:41:11.987
131, -4527.70, -5232.76, -5041.33, -4563.24, 0.000, 0.000, 0.000, 12:41:11.987
132, -4519.45, -5190.85, -5043.79, -4433.03, 0.000, 0.000, 0.000, 12:41:11.988
133, -4519.63, -5188.76, -5019.29, -4421.52, 0.000, 0.000, 0.000, 12:41:12.003
134, -4525.43, -5234.40, -5030.01, -4519.90, 0.000, 0.000, 0.000, 12:41:12.003
135, -4538.62, -5242.44, -5035.79, -4559.81, 0.000, 0.000, 0.000, 12:41:12.018
136, -4518.70, -5189.44, -5042.79, -4423.29, 0.000, 0.000, 0.000, 12:41:12.018
137, -4518.62, -5204.30, -5069.91, -4441.47, 0.000, 0.000, 0.000, 12:41:12.019
138, -4518.55, -5231.17, -5044.12, -4512.12, 0.000, 0.000, 0.000, 12:41:12.019
139, -4516.11, -5225.80, -5019.75, -4541.96, 0.000, 0.000, 0.000, 12:41:12.032
140, -4520.77, -5194.04, -5021.04, -4422.66, 0.000, 0.000, 0.000, 12:41:12.033
141, -4516.55, -5201.05, -5028.47, -4443.68, 0.000, 0.000, 0.000, 12:41:12.048
142, -4519.56, -5217.41, -5019.19, -4520.39, 0.000, 0.000, 0.000, 12:41:12.048
143, -4533.60, -5227.62, -5132.31, -4583.21, 0.000, 0.000, 0.000, 12:41:12.048
144, -4520.85, -5192.70, -5014.93, -4424.56, 0.000, 0.000, 0.000, 12:41:12.048
145, -4508.17, -5202.05, -5007.08, -4434.08, 0.000, 0.000, 0.000, 12:41:12.063
146, -4523.74, -5222.07, -4999.12, -4526.19, 0.000, 0.000, 0.000, 12:41:12.063
147, -4519.72, -5220.39, -5013.58, -4528.21, 0.000, 0.000, 0.000, 12:41:12.078
148, -4511.89, -5166.37, -5045.38, -4432.84, 0.000, 0.000, 0.000, 12:41:12.078
149, -4509.82, -5196.25, -5027.41, -4440.59, 0.000, 0.000, 0.000, 12:41:12.078
150, -4509.41, -5229.24, -5022.84, -4510.98, 0.000, 0.000, 0.000, 12:41:12.078
151, -4537.47, -5248.77, -5064.55, -4559.68, 0.000, 0.000, 0.000, 12:41:12.092
152, -4515.43, -5176.99, -5048.92, -4428.53, 0.000, 0.000, 0.000, 12:41:12.092
153, -4513.98, -5205.29, -5025.23, -4446.94, 0.000, 0.000, 0.000, 12:41:12.107
154, -4522.69, -5220.49, -5032.82, -4512.56, 0.000, 0.000, 0.000, 12:41:12.108
155, -4521.73, -5223.76, -5038.11, -4545.62, 0.000, 0.000, 0.000, 12:41:12.108
156, -4518.35, -5187.76, -5048.64, -4435.90, 0.000, 0.000, 0.000, 12:41:12.108
157, -4519.21, -5193.67, -5044.11, -4455.89, 0.000, 0.000, 0.000, 12:41:12.122
158, -4509.83, -5218.53, -5022.35, -4508.68, 0.000, 0.000, 0.000, 12:41:12.123
159, -4516.34, -5226.74, -5047.80, -4538.97, 0.000, 0.000, 0.000, 12:41:12.137
160, -4507.96, -5195.96, -5069.46, -4439.38, 0.000, 0.000, 0.000, 12:41:12.137
161, -4514.86, -5203.65, -5051.67, -4464.83, 0.000, 0.000, 0.000, 12:41:12.138
162, -4515.85, -5230.07, -5028.09, -4509.96, 0.000, 0.000, 0.000, 12:41:12.138
163, -4531.86, -5233.66, -5064.46, -4557.50, 0.000, 0.000, 0.000, 12:41:12.152
164, -4505.64, -5191.50, -5045.74, -4432.30, 0.000, 0.000, 0.000, 12:41:12.152
165, -4505.12, -5198.21, -5022.95, -4449.63, 0.000, 0.000, 0.000, 12:41:12.168
166, -4522.79, -5247.41, -5058.12, -4531.71, 0.000, 0.000, 0.000, 12:41:12.168
167, -4520.08, -5219.26, -5045.19, -4541.06, 0.000, 0.000, 0.000, 12:41:12.169
168, -4507.75, -5192.56, -5044.26, -4447.99, 0.000, 0.000, 0.000, 12:41:12.169
169, -4500.30, -5193.18, -5034.71, -4442.02, 0.000, 0.000, 0.000, 12:41:12.182
170, -4519.73, -5240.06, -5048.63, -4529.54, 0.000, 0.000, 0.000, 12:41:12.182
171, -4514.89, -5218.76, -5035.62, -4551.24, 0.000, 0.000, 0.000, 12:41:12.198
172, -4510.16, -5198.52, -5060.58, -4437.89, 0.000, 0.000, 0.000, 12:41:12.199
173, -4495.83, -5200.62, -5041.97, -4449.99, 0.000, 0.000, 0.000, 12:41:12.199
174, -4505.77, -5226.43, -5024.71, -4509.39, 0.000, 0.000, 0.000, 12:41:12.199
175, -4520.04, -5233.55, -5039.29, -4543.81, 0.000, 0.000, 0.000, 12:41:12.213
176, -4507.27, -5190.58, -5048.07, -4439.58, 0.000, 0.000, 0.000, 12:41:12.213
177, -4513.43, -5214.73, -5058.93, -4466.43, 0.000, 0.000, 0.000, 12:41:12.227
178, -4525.48, -5247.02, -5063.55, -4535.83, 0.000, 0.000, 0.000, 12:41:12.228
179, -4511.67, -5233.62, -5044.14, -4546.42, 0.000, 0.000, 0.000, 12:41:12.228
180, -4494.71, -5187.47, -5066.90, -4431.01, 0.000, 0.000, 0.000, 12:41:12.228
181, -4507.55, -5221.68, -5021.19, -4459.96, 0.000, 0.000, 0.000, 12:41:12.242
182, -4509.02, -5230.07, -5020.26, -4511.44, 0.000, 0.000, 0.000, 12:41:12.243
183, -4517.91, -5236.00, -5030.06, -4536.27, 0.000, 0.000, 0.000, 12:41:12.257
184, -4499.56, -5184.81, -5036.67, -4426.18, 0.000, 0.000, 0.000, 12:41:12.257
185, -4504.92, -5217.45, -5038.09, -4443.78, 0.000, 0.000, 0.000, 12:41:12.258
186, -4510.11, -5238.05, -5039.71, -4511.74, 0.000, 0.000, 0.000, 12:41:12.258
187, -4517.32, -5239.50, -5046.12, -4534.49, 0.000, 0.000, 0.000, 12:41:12.272
188, -4503.87, -5192.11, -5038.07, -4424.68, 0.000, 0.000, 0.000, 12:41:12.272
189, -4513.60, -5227.51, -5051.87, -4456.79, 0.000, 0.000, 0.000, 12:41:12.287
190, -4503.38, -5217.91, -5023.63, -4513.99, 0.000, 0.000, 0.000, 12:41:12.287
191, -4504.39, -5222.31, -5031.75, -4535.32, 0.000, 0.000, 0.000, 12:41:12.288
192, -4504.28, -5196.55, -5041.87, -4422.02, 0.000, 0.000, 0.000, 12:41:12.288
193, -4493.80, -5213.47, -5039.10, -4452.08, 0.000, 0.000, 0.000, 12:41:12.303
194, -4510.81, -5234.84, -5012.17, -4514.85, 0.000, 0.000, 0.000, 12:41:12.303
195, -4518.32, -5227.56, -5027.30, -4537.24, 0.000, 0.000, 0.000, 12:41:12.318
196, -4508.60, -5199.41, -5039.26, -4428.02, 0.000, 0.000, 0.000, 12:41:12.319
197, -4497.67, -5214.85, -5034.53, -4442.42, 0.000, 0.000, 0.000, 12:41:12.319
198, -4513.00, -5239.02, -5040.70, -4516.50, 0.000, 0.000, 0.000, 12:41:12.319
199, -4517.11, -5239.75, -5035.96, -4535.93, 0.000, 0.000, 0.000, 12:41:12.333
200, -4500.24, -5192.27, -5031.45, -4426.45, 0.000, 0.000, 0.000, 12:41:12.333
0, -4495.24, -5211.72, -5017.96, -4439.83, 0.000, 0.000, 0.000, 12:41:12.333
1, -4513.11, -5240.13, -5024.52, -4520.41, 0.000, 0.000, 0.000, 12:41:12.348
2, -4513.49, -5235.63, -5033.44, -4543.11, 0.000, 0.000, 0.000, 12:41:12.348
3, -4506.50, -5189.94, -5038.01, -4427.41, 0.000, 0.000, 0.000, 12:41:12.363
4, -4499.16, -5201.33, -5026.80, -4440.09, 0.000, 0.000, 0.000, 12:41:12.363
5, -4512.32, -5254.65, -5022.95, -4513.51, 0.000, 0.000, 0.000, 12:41:12.363
6, -4521.80, -5231.99, -4987.49, -4538.17, 0.000, 0.000, 0.000, 12:41:12.363
7, -4512.40, -5187.24, -4974.83, -4436.74, 0.000, 0.000, 0.000, 12:41:12.377
8, -4504.32, -5202.17, -4958.56, -4447.73, 0.000, 0.000, 0.000, 12:41:12.377
9, -4508.54, -5224.67, -4965.70, -4517.12, 0.000, 0.000, 0.000, 12:41:12.392
10, -4525.45, -5249.08, -4982.17, -4536.00, 0.000, 0.000, 0.000, 12:41:12.392
11, -4512.31, -5197.19, -4988.21, -4423.41, 0.000, 0.000, 0.000, 12:41:12.393
12, -4503.72, -5188.29, -4967.80, -4450.49, 0.000, 0.000, 0.000, 12:41:12.393
13, -4508.38, -5218.73, -4976.11, -4512.35, 0.000, 0.000, 0.000, 12:41:12.407
14, -4516.69, -5226.74, -4999.19, -4533.90, 0.000, 0.000, 0.000, 12:41:12.407
15, -4505.65, -5190.41, -4996.60, -4430.17, 0.000, 0.000, 0.000, 12:41:12.422
16, -4512.68, -5211.09, -4999.55, -4456.30, 0.000, 0.000, 0.000, 12:41:12.422
17, -4518.50, -5241.55, -4999.29, -4517.99, 0.000, 0.000, 0.000, 12:41:12.422
18, -4515.81, -5229.34, -4986.97, -4532.55, 0.000, 0.000, 0.000, 12:41:12.422
19, -4504.37, -5183.60, -4989.83, -4418.63, 0.000, 0.000, 0.000, 12:41:12.437
20, -4507.14, -5201.53, -4987.23, -4448.62, 0.000, 0.000, 0.000, 12:41:12.437
21, -4518.91, -5243.40, -4996.90, -4530.53, 0.000, 0.000, 0.000, 12:41:12.452
22, -4525.43, -5246.04, -4999.28, -4539.22, 0.000, 0.000, 0.000, 12:41:12.452
23, -4508.02, -5198.35, -5003.54, -4425.13, 0.000, 0.000, 0.000, 12:41:12.459
24, -4509.03, -5220.11, -4994.07, -4451.28, 0.000, 0.000, 0.000, 12:41:12.459
25, -4504.75, -5230.29, -4993.65, -4517.89, 0.000, 0.000, 0.000, 12:41:12.469
26, -4520.87, -5235.77, -5001.20, -4535.66, 0.000, 0.000, 0.000, 12:41:12.469
27, -4497.84, -5193.97, -4997.80, -4420.16, 0.000, 0.000, 0.000, 12:41:12.482
28, -4497.02, -5201.10, -4997.25, -4452.90, 0.000, 0.000, 0.000, 12:41:12.482
29, -4498.50, -5231.42, -4990.45, -4518.32, 0.000, 0.000, 0.000, 12:41:12.483
30, -4501.18, -5230.07, -4985.94, -4525.74, 0.000, 0.000, 0.000, 12:41:12.483
31, -4508.01, -5207.93, -5011.61, -4424.34, 0.000, 0.000, 0.000, 12:41:12.498
32, -4495.08, -5198.44, -4990.31, -4437.68, 0.000, 0.000, 0.000, 12:41:12.498
33, -4503.51, -5248.57, -4994.18, -4520.18, 0.000, 0.000, 0.000, 12:41:12.512
34, -4505.52, -5230.53, -5006.41, -4528.67, 0.000, 0.000, 0.000, 12:41:12.513
35, -4492.90, -5165.57, -5001.68, -4419.52, 0.000, 0.000, 0.000, 12:41:12.513
36, -4489.74, -5194.52, -4991.37, -4445.31, 0.000, 0.000, 0.000, 12:41:12.513
37, -4504.80, -5231.88, -5001.67, -4518.28, 0.000, 0.000, 0.000, 12:41:12.527
38, -4518.14, -5232.62, -5014.21, -4538.06, 0.000, 0.000, 0.000, 12:41:12.527
39, -4514.11, -5195.33, -5016.68, -4418.92, 0.000, 0.000, 0.000, 12:41:12.543
40, -4504.64, -5203.53, -5010.57, -4452.88, 0.000, 0.000, 0.000, 12:41:12.543
41, -4510.31, -5238.54, -5006.14, -4515.67, 0.000, 0.000, 0.000, 12:41:12.543
42, -4521.79, -5255.76, -5029.14, -4541.84, 0.000, 0.000, 0.000, 12:41:12.543
43, -4500.78, -5185.82, -5007.33, -4416.34, 0.000, 0.000, 0.000, 12:41:12.557
44, -4493.16, -5218.37, -4999.98, -4440.13, 0.000, 0.000, 0.000, 12:41:12.557
45, -4496.09, -5236.71, -4991.95, -4508.90, 0.000, 0.000, 0.000, 12:41:12.572
46, -4501.12, -5253.82, -5003.73, -4522.09, 0.000, 0.000, 0.000, 12:41:12.573
47, -4487.14, -5195.87, -5015.87, -4415.26, 0.000, 0.000, 0.000, 12:41:12.573
48, -4475.78, -5190.22, -5004.76, -4441.67, 0.000, 0.000, 0.000, 12:41:12.573
49, -4460.08, -5242.40, -4983.95, -4527.29, 0.000, 0.000, 0.000, 12:41:12.587
50, -4459.11, -5252.45, -5020.05, -4521.29, 0.000, 0.000, 0.000, 12:41:12.587
51, -4424.47, -5207.42, -5020.02, -4392.42, 0.000, 0.000, 0.000, 12:41:12.602
52, -4392.60, -5232.16, -5004.39, -4402.95, 0.000, 0.000, 0.000, 12:41:12.602
53, -4386.59, -5287.43, -4998.61, -4494.01, 0.000, 0.000, 0.000, 12:41:12.603
54, -4355.27, -5265.92, -4986.73, -4494.48, 0.000, 0.000, 0.000, 12:41:12.603
55, -4331.82, -5220.41, -4982.32, -4390.51, 0.000, 0.000, 0.000, 12:41:12.618
56, -4346.59, -5256.55, -4990.72, -4412.03, 0.000, 0.000, 0.000, 12:41:12.618
57, -4362.69, -5289.63, -4992.80, -4505.31, 0.000, 0.000, 0.000, 12:41:12.632
58, -4380.61, -5279.88, -5002.78, -4500.40, 0.000, 0.000, 0.000, 12:41:12.632
59, -4389.18, -5232.91, -5000.76, -4395.75, 0.000, 0.000, 0.000, 12:41:12.633
60, -4405.38, -5243.07, -4993.85, -4427.15, 0.000, 0.000, 0.000, 12:41:12.633
61, -4427.67, -5255.35, -4996.22, -4511.23, 0.000, 0.000, 0.000, 12:41:12.648
62, -4472.06, -5262.98, -5024.68, -4543.40, 0.000, 0.000, 0.000, 12:41:12.648
63, -4474.24, -5199.59, -5006.63, -4409.64, 0.000, 0.000, 0.000, 12:41:12.663
64, -4482.45, -5204.29, -4996.87, -4444.50, 0.000, 0.000, 0.000, 12:41:12.663
65, -4520.57, -5229.54, -5010.27, -4535.04, 0.000, 0.000, 0.000, 12:41:12.663
66, -4539.82, -5222.63, -5014.93, -4546.20, 0.000, 0.000, 0.000, 12:41:12.663
67, -4533.05, -5176.62, -5013.78, -4422.71, 0.000, 0.000, 0.000, 12:41:12.678
68, -4557.72, -5220.57, -5010.11, -4468.92, 0.000, 0.000, 0.000, 12:41:12.678
69, -4574.05, -5226.07, -5012.39, -4549.31, 0.000, 0.000, 0.000, 12:41:12.692
70, -4582.37, -5206.16, -5012.84, -4549.98, 0.000, 0.000, 0.000, 12:41:12.692
71, -4573.32, -5166.17, -5018.04, -4428.71, 0.000, 0.000, 0.000, 12:41:12.692
72, -4589.73, -5187.30, -5018.07, -4459.77, 0.000, 0.000, 0.000, 12:41:12.692
73, -4590.91, -5203.64, -5017.53, -4549.39, 0.000, 0.000, 0.000, 12:41:12.707
74, -4593.44, -5200.71, -5028.86, -4545.58, 0.000, 0.000, 0.000, 12:41:12.707
75, -4582.22, -5164.33, -5025.36, -4423.78, 0.000, 0.000, 0.000, 12:41:12.722
76, -4582.41, -5182.45, -5026.87, -4476.56, 0.000, 0.000, 0.000, 12:41:12.722
77, -4582.76, -5204.66, -5017.04, -4541.98, 0.000, 0.000, 0.000, 12:41:12.723
78, -4584.49, -5208.26, -5023.89, -4538.25, 0.000, 0.000, 0.000, 12:41:12.723
79, -4573.25, -5156.94, -5025.41, -4415.03, 0.000, 0.000, 0.000, 12:41:12.737
80, -4571.08, -5189.54, -5010.39, -4458.47, 0.000, 0.000, 0.000, 12:41:12.737
81, -4582.60, -5228.06, -5028.10, -4542.07, 0.000, 0.000, 0.000, 12:41:12.752
82, -4580.84, -5218.07, -5031.66, -4539.47, 0.000, 0.000, 0.000, 12:41:12.752
83, -4577.69, -5182.85, -5026.59, -4431.59, 0.000, 0.000, 0.000, 12:41:12.752
84, -4577.21, -5188.72, -5026.03, -4463.02, 0.000, 0.000, 0.000, 12:41:12.753
85, -4585.21, -5218.84, -5022.19, -4552.14, 0.000, 0.000, 0.000, 12:41:12.768
86, -4576.05, -5223.32, -5033.11, -4541.95, 0.000, 0.000, 0.000, 12:41:12.769
87, -4566.25, -5194.00, -5035.83, -4434.12, 0.000, 0.000, 0.000, 12:41:12.782
88, -4564.78, -5209.43, -5026.68, -4462.56, 0.000, 0.000, 0.000, 12:41:12.782
89, -4561.38, -5222.83, -5024.80, -4558.61, 0.000, 0.000, 0.000, 12:41:12.783
90, -4566.50, -5211.42, -5028.04, -4545.43, 0.000, 0.000, 0.000, 12:41:12.783
91, -4545.35, -5173.70, -5026.43, -4424.77, 0.000, 0.000, 0.000, 12:41:12.797
92, -4548.61, -5208.96, -5019.92, -4469.63, 0.000, 0.000, 0.000, 12:41:12.798
93, -4553.16, -5236.86, -5026.52, -4554.93, 0.000, 0.000, 0.000, 12:41:12.812
94, -4552.26, -5224.60, -5020.62, -4531.49, 0.000, 0.000, 0.000, 12:41:12.812
95, -4540.23, -5179.92, -5028.96, -4422.19, 0.000, 0.000, 0.000, 12:41:12.813
96, -4533.22, -5202.61, -5022.98, -4473.75, 0.000, 0.000, 0.000, 12:41:12.813
97, -4539.75, -5230.38, -5023.29, -4555.37, 0.000, 0.000, 0.000, 12:41:12.828
98, -4550.71, -5230.37, -5032.01, -4538.12, 0.000, 0.000, 0.000, 12:41:12.828
99, -4524.43, -5200.49, -5027.92, -4412.14, 0.000, 0.000, 0.000, 12:41:12.842
100, -4513.25, -5201.32, -5014.52, -4451.62, 0.000, 0.000, 0.000, 12:41:12.842
101, -4523.64, -5221.66, -5012.23, -4539.98, 0.000, 0.000, 0.000, 12:41:12.843
102, -4532.94, -5234.18, -5032.35, -4531.19, 0.000, 0.000, 0.000, 12:41:12.843
103, -4521.92, -5181.93, -5024.73, -4418.83, 0.000, 0.000, 0.000, 12:41:12.857
104, -4522.31, -5206.53, -5009.81, -4454.26, 0.000, 0.000, 0.000, 12:41:12.857
105, -4532.73, -5227.83, -5027.66, -4534.82, 0.000, 0.000, 0.000, 12:41:12.872
106, -4523.41, -5216.28, -5017.40, -4532.45, 0.000, 0.000, 0.000, 12:41:12.872
107, -4512.47, -5173.09, -5021.11, -4417.51, 0.000, 0.000, 0.000, 12:41:12.872
108, -4515.43, -5199.74, -5014.66, -4453.90, 0.000, 0.000, 0.000, 12:41:12.873
109, -4532.86, -5243.29, -5025.95, -4540.78, 0.000, 0.000, 0.000, 12:41:12.893
110, -4516.58, -5221.36, -5018.61, -4515.08, 0.000, 0.000, 0.000, 12:41:12.894
111, -4510.78, -5189.49, -5034.28, -4402.28, 0.000, 0.000, 0.000, 12:41:12.902
112, -4515.84, -5221.44, -5017.93, -4465.41, 0.000, 0.000, 0.000, 12:41:12.902
113, -4512.91, -5214.73, -5005.30, -4534.26, 0.000, 0.000, 0.000, 12:41:12.903
114, -4509.45, -5201.28, -5003.91, -4520.31, 0.000, 0.000, 0.000, 12:41:12.903
115, -4508.18, -5176.34, -5013.77, -4422.87, 0.000, 0.000, 0.000, 12:41:12.918
116, -4509.21, -5214.17, -5011.32, -4465.86, 0.000, 0.000, 0.000, 12:41:12.918
117, -4509.20, -5236.52, -5012.11, -4534.86, 0.000, 0.000, 0.000, 12:41:12.932
118, -4508.51, -5235.16, -5023.23, -4533.51, 0.000, 0.000, 0.000, 12:41:12.933
119, -4498.73, -5174.57, -5011.35, -4406.87, 0.000, 0.000, 0.000, 12:41:12.933
120, -4500.95, -5208.41, -5012.21, -4452.04, 0.000, 0.000, 0.000, 12:41:12.933
121, -4514.83, -5236.59, -5019.99, -4531.07, 0.000, 0.000, 0.000, 12:41:12.947
122, -4517.08, -5217.13, -5025.08, -4516.17, 0.000, 0.000, 0.000, 12:41:12.947
123, -4509.45, -5193.80, -5019.36, -4409.11, 0.000, 0.000, 0.000, 12:41:12.962
124, -4507.01, -5216.67, -5021.91, -4435.59, 0.000, 0.000, 0.000, 12:41:12.963
125, -4521.63, -5239.65, -5032.36, -4533.32, 0.000, 0.000, 0.000, 12:41:12.963
126, -4521.71, -5226.17, -5038.35, -4541.51, 0.000, 0.000, 0.000, 12:41:12.963
127, -4513.82, -5194.21, -5023.29, -4421.62, 0.000, 0.000, 0.000, 12:41:12.977
128, -4510.05, -5211.46, -5012.16, -4459.97, 0.000, 0.000, 0.000, 12:41:12.977
129, -4534.05, -5253.07, -5023.22, -4546.55, 0.000, 0.000, 0.000, 12:41:12.992
130, -4527.92, -5239.42, -5032.14, -4519.51, 0.000, 0.000, 0.000, 12:41:12.992
131, -4511.78, -5190.05, -5030.37, -4423.16, 0.000, 0.000, 0.000, 12:41:12.993
132, -4504.90, -5211.23, -5015.27, -4461.81, 0.000, 0.000, 0.000, 12:41:12.993
133, -4514.80, -5231.39, -5017.95, -4534.72, 0.000, 0.000, 0.000, 12:41:13.008
134, -4525.36, -5229.70, -5030.72, -4512.23, 0.000, 0.000, 0.000, 12:41:13.008
135, -4501.67, -5197.60, -5017.56, -4420.20, 0.000, 0.000, 0.000, 12:41:13.022
136, -4496.34, -5208.48, -5016.69, -4461.18, 0.000, 0.000, 0.000, 12:41:13.023
137, -4515.93, -5226.23, -5019.42, -4541.94, 0.000, 0.000, 0.000, 12:41:13.023
138, -4518.35, -5211.25, -5029.04, -4518.28, 0.000, 0.000, 0.000, 12:41:13.023
139, -4492.20, -5180.02, -5018.59, -4401.03, 0.000, 0.000, 0.000, 12:41:13.037
140, -4495.56, -5207.14, -5018.33, -4466.40, 0.000, 0.000, 0.000, 12:41:13.037
141, -4506.17, -5232.19, -5021.02, -4538.49, 0.000, 0.000, 0.000, 12:41:13.052
142, -4510.84, -5226.06, -5034.39, -4521.76, 0.000, 0.000, 0.000, 12:41:13.052
143, -4492.72, -5197.53, -5017.14, -4396.92, 0.000, 0.000, 0.000, 12:41:13.053
144, -4500.54, -5197.35, -5023.06, -4456.92, 0.000, 0.000, 0.000, 12:41:13.053
145, -4508.97, -5233.66, -5017.38, -4555.24, 0.000, 0.000, 0.000, 12:41:13.069
146, -4502.20, -5208.19, -5009.21, -4510.64, 0.000, 0.000, 0.000, 12:41:13.069
147, -4497.22, -5194.23, -5029.95, -4415.08, 0.000, 0.000, 0.000, 12:41:13.082
148, -4496.49, -5191.82, -5011.06, -4477.74, 0.000, 0.000, 0.000, 12:41:13.082
149, -4509.42, -5233.29, -5029.32, -4550.30, 0.000, 0.000, 0.000, 12:41:13.083
150, -4514.47, -5244.76, -5040.11, -4523.97, 0.000, 0.000, 0.000, 12:41:13.083
151, -4507.13, -5189.20, -5035.79, -4407.84, 0.000, 0.000, 0.000, 12:41:13.098
152, -4504.71, -5206.35, -5017.34, -4464.08, 0.000, 0.000, 0.000, 12:41:13.098
153, -4523.75, -5267.81, -5029.52, -4537.19, 0.000, 0.000, 0.000, 12:41:13.112
154, -4519.82, -5203.44, -5027.78, -4521.58, 0.000, 0.000, 0.000, 12:41:13.113
155, -4506.95, -5168.40, -5017.32, -4411.15, 0.000, 0.000, 0.000, 12:41:13.113
156, -4504.12, -5202.06, -5024.98, -4475.22, 0.000, 0.000, 0.000, 12:41:13.113
157, -4524.82, -5251.77, -5031.82, -4538.10, 0.000, 0.000, 0.000, 12:41:13.128
158, -4509.04, -5211.07, -5043.22, -4525.11, 0.000, 0.000, 0.000, 12:41:13.128
159, -4502.34, -5186.64, -5037.90, -4429.99, 0.000, 0.000, 0.000, 12:41:13.142
160, -4510.18, -5214.55, -5030.33, -4482.35, 0.000, 0.000, 0.000, 12:41:13.142
161, -4517.01, -5254.61, -5029.75, -4542.09, 0.000, 0.000, 0.000, 12:41:13.142
162, -4514.88, -5231.01, -5039.01, -4526.35, 0.000, 0.000, 0.000, 12:41:13.142
163, -4510.53, -5202.28, -5039.83, -4424.95, 0.000, 0.000, 0.000, 12:41:13.158
164, -4502.48, -5199.17, -5020.73, -4467.93, 0.000, 0.000, 0.000, 12:41:13.158
165, -4510.92, -5236.18, -5028.91, -4541.41, 0.000, 0.000, 0.000, 12:41:13.172
166, -4509.06, -5219.86, -5038.85, -4514.84, 0.000, 0.000, 0.000, 12:41:13.172
167, -4508.76, -5193.88, -5050.59, -4414.68, 0.000, 0.000, 0.000, 12:41:13.173
168, -4514.69, -5216.62, -5033.83, -4460.99, 0.000, 0.000, 0.000, 12:41:13.173
169, -4516.80, -5241.05, -5028.70, -4551.94, 0.000, 0.000, 0.000, 12:41:13.187
170, -4522.36, -5229.50, -5038.83, -4519.56, 0.000, 0.000, 0.000, 12:41:13.187
171, -4500.73, -5193.07, -5031.19, -4416.87, 0.000, 0.000, 0.000, 12:41:13.202
172, -4503.23, -5210.25, -5042.46, -4467.79, 0.000, 0.000, 0.000, 12:41:13.202
173, -4512.01, -5256.55, -5030.87, -4541.09, 0.000, 0.000, 0.000, 12:41:13.203
174, -4509.73, -5214.25, -5036.69, -4515.04, 0.000, 0.000, 0.000, 12:41:13.203
175, -4506.40, -5188.32, -5023.17, -4419.19, 0.000, 0.000, 0.000, 12:41:13.218
176, -4516.34, -5219.32, -5042.76, -4478.26, 0.000, 0.000, 0.000, 12:41:13.218
177, -4522.47, -5237.73, -5039.34, -4550.61, 0.000, 0.000, 0.000, 12:41:13.232
178, -4524.23, -5230.17, -5046.36, -4516.35, 0.000, 0.000, 0.000, 12:41:13.232
179, -4506.79, -5205.59, -5072.40, -4420.36, 0.000, 0.000, 0.000, 12:41:13.233
180, -4506.79, -5223.85, -5014.74, -4468.04, 0.000, 0.000, 0.000, 12:41:13.233
181, -4514.06, -5235.93, -5013.18, -4542.98, 0.000, 0.000, 0.000, 12:41:13.248
182, -4515.94, -5202.03, -5037.79, -4512.56, 0.000, 0.000, 0.000, 12:41:13.248
183, -4500.33, -5176.05, -5041.42, -4410.44, 0.000, 0.000, 0.000, 12:41:13.262
184, -4503.84, -5217.45, -5046.39, -4462.51, 0.000, 0.000, 0.000, 12:41:13.262
185, -4511.53, -5250.76, -5049.83, -4543.83, 0.000, 0.000, 0.000, 12:41:13.263
186, -4515.99, -5220.04, -5036.03, -4517.78, 0.000, 0.000, 0.000, 12:41:13.263
187, -4501.73, -5189.49, -5022.46, -4405.12, 0.000, 0.000, 0.000, 12:41:13.285
188, -4498.15, -5196.89, -5017.36, -4456.16, 0.000, 0.000, 0.000, 12:41:13.285
189, -4506.82, -5237.39, -5032.18, -4540.79, 0.000, 0.000, 0.000, 12:41:13.292
190, -4515.58, -5225.43, -5059.09, -4510.03, 0.000, 0.000, 0.000, 12:41:13.292
191, -4496.75, -5187.78, -5039.00, -4398.38, 0.000, 0.000, 0.000, 12:41:13.293
192, -4499.35, -5199.50, -5009.45, -4458.98, 0.000, 0.000, 0.000, 12:41:13.293
193, -4509.37, -5234.35, -5029.29, -4547.03, 0.000, 0.000, 0.000, 12:41:13.307
194, -4504.98, -5218.09, -5030.32, -4506.12, 0.000, 0.000, 0.000, 12:41:13.307
195, -4494.45, -5199.09, -5035.49, -4410.61, 0.000, 0.000, 0.000, 12:41:13.322
196, -4492.80, -5220.58, -5032.13, -4462.17, 0.000, 0.000, 0.000, 12:41:13.322
197, -4509.63, -5249.96, -5036.42, -4546.71, 0.000, 0.000, 0.000, 12:41:13.323
198, -4505.46, -5198.79, -5035.77, -4511.76, 0.000, 0.000, 0.000, 12:41:13.323
199, -4497.05, -5177.32, -5031.13, -4411.19, 0.000, 0.000, 0.000, 12:41:13.337
200, -4507.04, -5209.20, -5029.41, -4460.61, 0.000, 0.000, 0.000, 12:41:13.337
0, -4514.18, -5252.15, -5068.52, -4560.74, 0.000, 0.000, 0.000, 12:41:13.338
1, -4510.97, -5233.38, -5035.27, -4517.91, 0.000, 0.000, 0.000, 12:41:13.352
2, -4513.62, -5207.94, -5034.28, -4409.92, 0.000, 0.000, 0.000, 12:41:13.353
3, -4508.62, -5202.91, -5022.17, -4484.01, 0.000, 0.000, 0.000, 12:41:13.369
4, -4507.32, -5234.29, -5023.28, -4549.07, 0.000, 0.000, 0.000, 12:41:13.369
5, -4511.27, -5227.24, -5047.38, -4516.69, 0.000, 0.000, 0.000, 12:41:13.369
6, -4493.65, -5188.01, -5048.30, -4415.17, 0.000, 0.000, 0.000, 12:41:13.369
7, -4509.57, -5221.28, -5060.59, -4483.19, 0.000, 0.000, 0.000, 12:41:13.383
8, -4522.48, -5237.14, -5020.81, -4540.92, 0.000, 0.000, 0.000, 12:41:13.383
9, -4536.07, -5239.92, -5036.31, -4519.62, 0.000, 0.000, 0.000, 12:41:13.398
10, -4504.15, -5188.58, -5030.88, -4389.45, 0.000, 0.000, 0.000, 12:41:13.398
11, -4497.76, -5195.64, -5029.43, -4475.66, 0.000, 0.000, 0.000, 12:41:13.399
12, -4518.26, -5244.22, -5045.40, -4555.96, 0.000, 0.000, 0.000, 12:41:13.399
13, -4522.23, -5232.59, -5042.59, -4518.19, 0.000, 0.000, 0.000, 12:41:13.413
14, -4495.30, -5195.83, -5038.24, -4414.22, 0.000, 0.000, 0.000, 12:41:13.413
15, -4513.49, -5231.19, -5055.20, -4461.35, 0.000, 0.000, 0.000, 12:41:13.428
16, -4520.67, -5250.40, -5047.84, -4547.43, 0.000, 0.000, 0.000, 12:41:13.428
17, -4507.30, -5217.83, -5036.04, -4503.97, 0.000, 0.000, 0.000, 12:41:13.428
18, -4500.66, -5188.70, -5038.46, -4405.49, 0.000, 0.000, 0.000, 12:41:13.428
19, -4506.12, -5224.92, -5023.76, -4459.34, 0.000, 0.000, 0.000, 12:41:13.443
20, -4512.05, -5249.11, -5042.57, -4552.92, 0.000, 0.000, 0.000, 12:41:13.443
21, -4513.68, -5192.05, -5045.10, -4505.55, 0.000, 0.000, 0.000, 12:41:13.457
22, -4500.83, -5168.70, -5023.95, -4416.06, 0.000, 0.000, 0.000, 12:41:13.457
23, -4499.97, -5213.77, -5030.71, -4471.01, 0.000, 0.000, 0.000, 12:41:13.458
24, -4515.26, -5247.78, -5044.00, -4547.96, 0.000, 0.000, 0.000, 12:41:13.458
25, -4513.74, -5244.39, -5054.06, -4520.15, 0.000, 0.000, 0.000, 12:41:13.472
26, -4496.75, -5176.03, -5032.02, -4400.42, 0.000, 0.000, 0.000, 12:41:13.472
27, -4496.24, -5187.00, -5012.67, -4457.28, 0.000, 0.000, 0.000, 12:41:13.487
28, -4519.34, -5230.68, -5038.07, -4556.38, 0.000, 0.000, 0.000, 12:41:13.488
29, -4521.03, -5221.21, -5026.18, -4506.07, 0.000, 0.000, 0.000, 12:41:13.488
30, -4506.92, -5193.19, -5027.16, -4410.88, 0.000, 0.000, 0.000, 12:41:13.488
31, -4509.06, -5207.87, -5029.94, -4475.99, 0.000, 0.000, 0.000, 12:41:13.503
32, -4511.65, -5241.84, -5038.19, -4536.24, 0.000, 0.000, 0.000, 12:41:13.503
33, -4514.23, -5222.24, -5045.52, -4522.13, 0.000, 0.000, 0.000, 12:41:13.518
34, -4503.16, -5190.75, -5034.03, -4404.81, 0.000, 0.000, 0.000, 12:41:13.518
35, -4505.26, -5215.84, -5037.34, -4478.20, 0.000, 0.000, 0.000, 12:41:13.518
36, -4517.33, -5247.30, -5056.95, -4541.88, 0.000, 0.000, 0.000, 12:41:13.518
37, -4518.93, -5219.54, -5053.85, -4515.66, 0.000, 0.000, 0.000, 12:41:13.532
38, -4502.63, -5179.55, -5027.12, -4407.43, 0.000, 0.000, 0.000, 12:41:13.532
39, -4512.85, -5218.98, -5027.26, -4469.54, 0.000, 0.000, 0.000, 12:41:13.548
40, -4531.33, -5272.75, -5042.14, -4569.34, 0.000, 0.000, 0.000, 12:41:13.548
41, -4514.86, -5225.37, -5053.26, -4506.70, 0.000, 0.000, 0.000, 12:41:13.548
42, -4506.47, -5185.77, -5038.14, -4432.97, 0.000, 0.000, 0.000, 12:41:13.548
43, -4511.73, -5217.59, -5036.90, -4461.44, 0.000, 0.000, 0.000, 12:41:13.564
44, -4516.56, -5234.59, -5031.12, -4553.21, 0.000, 0.000, 0.000, 12:41:13.564
45, -4520.53, -5221.24, -5036.28, -4516.59, 0.000, 0.000, 0.000, 12:41:13.577
46, -4498.15, -5195.21, -5053.98, -4403.46, 0.000, 0.000, 0.000, 12:41:13.577
47, -4495.27, -5210.84, -5023.47, -4496.65, 0.000, 0.000, 0.000, 12:41:13.578
48, -4503.28, -5233.55, -5006.59, -4528.79, 0.000, 0.000, 0.000, 12:41:13.578
49, -4509.90, -5210.03, -5037.76, -4506.61, 0.000, 0.000, 0.000, 12:41:13.592
50, -4496.58, -5185.62, -5050.78, -4398.83, 0.000, 0.000, 0.000, 12:41:13.592
51, -4494.29, -5195.64, -5019.06, -4468.80, 0.000, 0.000, 0.000, 12:41:13.607
52, -4516.24, -5230.79, -5029.28, -4562.88, 0.000, 0.000, 0.000, 12:41:13.607
53, -4515.67, -5219.84, -5043.57, -4527.16, 0.000, 0.000, 0.000, 12:41:13.607
54, -4492.05, -5179.99, -5031.90, -4403.84, 0.000, 0.000, 0.000, 12:41:13.608
55, -4507.26, -5229.50, -5033.24, -4472.82, 0.000, 0.000, 0.000, 12:41:13.622
56, -4520.68, -5238.10, -5046.40, -4562.03, 0.000, 0.000, 0.000, 12:41:13.622
57, -4514.46, -5212.69, -5032.88, -4501.75, 0.000, 0.000, 0.000, 12:41:13.637
58, -4492.00, -5178.91, -5023.55, -4414.63, 0.000, 0.000, 0.000, 12:41:13.637
59, -4499.95, -5206.65, -5044.79, -4485.59, 0.000, 0.000, 0.000, 12:41:13.637
60, -4508.57, -5237.62, -5025.56, -4544.48, 0.000, 0.000, 0.000, 12:41:13.637
61, -4510.55, -5214.18, -5023.76, -4505.41, 0.000, 0.000, 0.000, 12:41:13.653
62, -4500.35, -5210.04, -5049.83, -4419.38, 0.000, 0.000, 0.000, 12:41:13.653
63, -4514.29, -5236.49, -5043.10, -4495.70, 0.000, 0.000, 0.000, 12:41:13.668
64, -4509.66, -5250.42, -5030.33, -4566.69, 0.000, 0.000, 0.000, 12:41:13.668
65, -4508.64, -5208.73, -5013.15, -4487.83, 0.000, 0.000, 0.000, 12:41:13.668
66, -4505.33, -5186.14, -5034.72, -4415.09, 0.000, 0.000, 0.000, 12:41:13.668
67, -4506.70, -5220.38, -5040.33, -4471.17, 0.000, 0.000, 0.000, 12:41:13.683
68, -4513.63, -5238.72, -5020.47, -4559.23, 0.000, 0.000, 0.000, 12:41:13.683
69, -4510.11, -5204.95, -5032.59, -4498.01, 0.000, 0.000, 0.000, 12:41:13.697
70, -4499.91, -5176.78, -5022.70, -4410.51, 0.000, 0.000, 0.000, 12:41:13.698
71, -4498.19, -5207.47, -5031.34, -4475.26, 0.000, 0.000, 0.000, 12:41:13.698
72, -4512.09, -5239.50, -5045.83, -4551.66, 0.000, 0.000, 0.000, 12:41:13.698
73, -4502.20, -5199.53, -5025.57, -4509.31, 0.000, 0.000, 0.000, 12:41:13.719
74, -4500.21, -5181.49, -5023.57, -4411.99, 0.000, 0.000, 0.000, 12:41:13.719
75, -4506.13, -5217.65, -5024.24, -4478.77, 0.000, 0.000, 0.000, 12:41:13.727
76, -4522.52, -5247.23, -5034.69, -4560.28, 0.000, 0.000, 0.000, 12:41:13.727
77, -4530.46, -5230.94, -5049.25, -4512.34, 0.000, 0.000, 0.000, 12:41:13.728
78, -4505.82, -5193.85, -5036.08, -4417.24, 0.000, 0.000, 0.000, 12:41:13.728
79, -4502.66, -5215.90, -5040.54, -4486.34, 0.000, 0.000, 0.000, 12:41:13.742
80, -4514.58, -5237.78, -5027.61, -4556.44, 0.000, 0.000, 0.000, 12:41:13.742
81, -4503.98, -5209.21, -5048.81, -4494.70, 0.000, 0.000, 0.000, 12:41:13.757
82, -4486.54, -5193.78, -5033.09, -4427.28, 0.000, 0.000, 0.000, 12:41:13.757
83, -4495.63, -5204.88, -5014.36, -4505.47, 0.000, 0.000, 0.000, 12:41:13.757
84, -4509.94, -5232.33, -5028.71, -4567.92, 0.000, 0.000, 0.000, 12:41:13.758
85, -4510.43, -5224.20, -5027.49, -4504.34, 0.000, 0.000, 0.000, 12:41:13.772
86, -4505.46, -5201.56, -5039.66, -4413.67, 0.000, 0.000, 0.000, 12:41:13.772
87, -4511.45, -5241.97, -5036.22, -4487.17, 0.000, 0.000, 0.000, 12:41:13.787
88, -4523.76, -5256.67, -5069.59, -4547.36, 0.000, 0.000, 0.000, 12:41:13.787
89, -4520.38, -5226.78, -5054.75, -4497.59, 0.000, 0.000, 0.000, 12:41:13.788
90, -4495.49, -5191.85, -5027.68, -4401.65, 0.000, 0.000, 0.000, 12:41:13.788
91, -4501.97, -5206.63, -5009.46, -4484.59, 0.000, 0.000, 0.000, 12:41:13.803
92, -4510.62, -5230.18, -5028.08, -4551.79, 0.000, 0.000, 0.000, 12:41:13.803
93, -4505.27, -5214.52, -5038.81, -4495.45, 0.000, 0.000, 0.000, 12:41:13.818
94, -4502.39, -5186.95, -5036.96, -4416.55, 0.000, 0.000, 0.000, 12:41:13.818
95, -4516.12, -5221.67, -5037.65, -4482.89, 0.000, 0.000, 0.000, 12:41:13.818
96, -4519.99, -5234.21, -5027.43, -4545.27, 0.000, 0.000, 0.000, 12:41:13.818
97, -4511.27, -5207.90, -5032.75, -4484.41, 0.000, 0.000, 0.000, 12:41:13.833
98, -4507.48, -5188.27, -5033.98, -4419.25, 0.000, 0.000, 0.000, 12:41:13.833
99, -4518.11, -5223.78, -5047.12, -4475.96, 0.000, 0.000, 0.000, 12:41:13.848
100, -4521.86, -5252.46, -5047.19, -4568.79, 0.000, 0.000, 0.000, 12:41:13.848
101, -4520.96, -5223.31, -5058.42, -4495.32, 0.000, 0.000, 0.000, 12:41:13.848
102, -4511.11, -5202.08, -5048.33, -4413.49, 0.000, 0.000, 0.000, 12:41:13.848
103, -4505.93, -5218.87, -5022.16, -4475.12, 0.000, 0.000, 0.000, 12:41:13.862
104, -4521.20, -5254.52, -5042.51, -4539.33, 0.000, 0.000, 0.000, 12:41:13.862
105, -4516.73, -5212.21, -5054.92, -4489.47, 0.000, 0.000, 0.000, 12:41:13.878
106, -4506.63, -5190.59, -5032.83, -4416.77, 0.000, 0.000, 0.000, 12:41:13.878
107, -4509.94, -5227.02, -5034.70, -4490.47, 0.000, 0.000, 0.000, 12:41:13.878
108, -4516.36, -5236.33, -5038.43, -4560.69, 0.000, 0.000, 0.000, 12:41:13.878
109, -4512.19, -5214.42, -5052.72, -4503.07, 0.000, 0.000, 0.000, 12:41:13.893
110, -4500.83, -5193.40, -5038.11, -4416.77, 0.000, 0.000, 0.000, 12:41:13.893
111, -4508.71, -5232.36, -5019.40, -4485.52, 0.000, 0.000, 0.000, 12:41:13.907
112, -4517.50, -5242.50, -5042.33, -4551.03, 0.000, 0.000, 0.000, 12:41:13.908
113, -4516.56, -5229.70, -5059.35, -4487.88, 0.000, 0.000, 0.000, 12:41:13.908
114, -4490.52, -5177.65, -5028.82, -4402.20, 0.000, 0.000, 0.000, 12:41:13.908
115, -4501.57, -5195.44, -5015.46, -4485.03, 0.000, 0.000, 0.000, 12:41:13.923
116, -4516.60, -5250.78, -5038.52, -4551.85, 0.000, 0.000, 0.000, 12:41:13.923
117, -4510.94, -5214.75, -5041.31, -4492.08, 0.000, 0.000, 0.000, 12:41:13.937
118, -4505.81, -5187.13, -5033.40, -4416.08, 0.000, 0.000, 0.000, 12:41:13.937
119, -4503.75, -5220.95, -5036.33, -4490.52, 0.000, 0.000, 0.000, 12:41:13.937
120, -4529.59, -5256.35, -5051.18, -4580.91, 0.000, 0.000, 0.000, 12:41:13.938
121, -4514.82, -5220.19, -5049.93, -4481.63, 0.000, 0.000, 0.000, 12:41:13.952
122, -4505.65, -5183.23, -5030.09, -4412.12, 0.000, 0.000, 0.000, 12:41:13.952
123, -4509.63, -5209.02, -5032.03, -4483.50, 0.000, 0.000, 0.000, 12:41:13.968
124, -4520.04, -5243.73, -5037.91, -4554.29, 0.000, 0.000, 0.000, 12:41:13.968
125, -4507.12, -5219.49, -5049.14, -4491.84, 0.000, 0.000, 0.000, 12:41:13.968
126, -4507.54, -5201.87, -5050.60, -4405.10, 0.000, 0.000, 0.000, 12:41:13.968
127, -4522.27, -5239.55, -5056.12, -4486.74, 0.000, 0.000, 0.000, 12:41:13.982
128, -4531.62, -5240.17, -5037.17, -4559.53, 0.000, 0.000, 0.000, 12:41:13.982
129, -4521.44, -5217.75, -5036.31, -4491.51, 0.000, 0.000, 0.000, 12:41:13.998
130, -4499.25, -5183.96, -5016.76, -4407.67, 0.000, 0.000, 0.000, 12:41:13.998
131, -4495.91, -5199.57, -5017.86, -4489.91, 0.000, 0.000, 0.000, 12:41:13.998
132, -4509.61, -5233.75, -5056.25, -4558.29, 0.000, 0.000, 0.000, 12:41:13.998
133, -4518.82, -5217.47, -5052.67, -4490.84, 0.000, 0.000, 0.000, 12:41:14.013
134, -4494.43, -5181.64, -5019.74, -4408.78, 0.000, 0.000, 0.000, 12:41:14.013
135, -4513.37, -5217.52, -5033.72, -4488.84, 0.000, 0.000, 0.000, 12:41:14.028
136, -4509.65, -5252.01, -5045.94, -4552.34, 0.000, 0.000, 0.000, 12:41:14.028
137, -4505.24, -5216.16, -5047.14, -4488.32, 0.000, 0.000, 0.000, 12:41:14.028
138, -4496.06, -5188.49, -5027.26, -4414.00, 0.000, 0.000, 0.000, 12:41:14.028
139, -4502.12, -5228.64, -5019.85, -4491.13, 0.000, 0.000, 0.000, 12:41:14.042
140, -4503.59, -5233.04, -5032.72, -4548.02, 0.000, 0.000, 0.000, 12:41:14.042
141, -4511.31, -5214.10, -5027.90, -4490.60, 0.000, 0.000, 0.000, 12:41:14.058
142, -4501.56, -5192.96, -5041.08, -4425.63, 0.000, 0.000, 0.000, 12:41:14.058
143, -4502.78, -5216.21, -5051.55, -4485.49, 0.000, 0.000, 0.000, 12:41:14.065
144, -4514.66, -5245.23, -5047.27, -4563.97, 0.000, 0.000, 0.000, 12:41:14.065
145, -4510.89, -5210.59, -5018.29, -4475.21, 0.000, 0.000, 0.000, 12:41:14.072
146, -4504.80, -5189.75, -5009.24, -4415.69, 0.000, 0.000, 0.000, 12:41:14.072
147, -4500.49, -5207.07, -5024.29, -4482.26, 0.000, 0.000, 0.000, 12:41:14.088
148, -4509.08, -5228.13, -5034.14, -4558.36, 0.000, 0.000, 0.000, 12:41:14.088
149, -4515.07, -5206.06, -5045.10, -4486.12, 0.000, 0.000, 0.000, 12:41:14.088
150, -4499.25, -5198.31, -5031.56, -4424.61, 0.000, 0.000, 0.000, 12:41:14.088
151, -4508.39, -5219.24, -5035.85, -4497.87, 0.000, 0.000, 0.000, 12:41:14.102
152, -4503.81, -5238.82, -5033.63, -4576.19, 0.000, 0.000, 0.000, 12:41:14.103
153, -4501.09, -5197.71, -5032.53, -4466.52, 0.000, 0.000, 0.000, 12:41:14.118
154, -4498.61, -5189.13, -5039.13, -4415.53, 0.000, 0.000, 0.000, 12:41:14.118
155, -4500.01, -5220.50, -5037.18, -4485.58, 0.000, 0.000, 0.000, 12:41:14.118
156, -4518.46, -5240.71, -5053.79, -4570.89, 0.000, 0.000, 0.000, 12:41:14.118
157, -4503.86, -5217.45, -5028.73, -4474.32, 0.000, 0.000, 0.000, 12:41:14.132
158, -4500.74, -5184.54, -5033.63, -4424.85, 0.000, 0.000, 0.000, 12:41:14.132
159, -4506.20, -5215.49, -5042.11, -4483.65, 0.000, 0.000, 0.000, 12:41:14.148
160, -4512.22, -5242.27, -5025.27, -4554.89, 0.000, 0.000, 0.000, 12:41:14.148
161, -4509.75, -5214.18, -5032.94, -4479.34, 0.000, 0.000, 0.000, 12:41:14.148
162, -4503.51, -5204.51, -5031.47, -4418.34, 0.000, 0.000, 0.000, 12:41:14.148
163, -4507.27, -5208.35, -5040.11, -4490.44, 0.000, 0.000, 0.000, 12:41:14.163
164, -4523.82, -5233.95, -5037.46, -4566.38, 0.000, 0.000, 0.000, 12:41:14.163
165, -4512.25, -5210.31, -5038.33, -4485.12, 0.000, 0.000, 0.000, 12:41:14.177
166, -4510.85, -5206.25, -5049.00, -4432.73, 0.000, 0.000, 0.000, 12:41:14.177
167, -4513.07, -5219.80, -5030.12, -4492.05, 0.000, 0.000, 0.000, 12:41:14.178
168, -4517.59, -5255.55, -5036.05, -4563.67, 0.000, 0.000, 0.000, 12:41:14.178
169, -4510.15, -5219.40, -5041.54, -4480.41, 0.000, 0.000, 0.000, 12:41:14.193
170, -4497.29, -5193.69, -5053.27, -4425.07, 0.000, 0.000, 0.000, 12:41:14.193
171, -4507.59, -5218.31, -5026.43, -4489.14, 0.000, 0.000, 0.000, 12:41:14.207
172, -4524.20, -5241.87, -5032.98, -4558.56, 0.000, 0.000, 0.000, 12:41:14.208
173, -4522.21, -5213.86, -5046.68, -4484.50, 0.000, 0.000, 0.000, 12:41:14.208
174, -4496.55, -5185.17, -5032.19, -4423.06, 0.000, 0.000, 0.000, 12:41:14.208
175, -4505.29, -5214.27, -5037.13, -4496.95, 0.000, 0.000, 0.000, 12:41:14.222
176, -4522.09, -5247.95, -5046.02, -4570.61, 0.000, 0.000, 0.000, 12:41:14.222
177, -4506.49, -5206.80, -5052.57, -4482.56, 0.000, 0.000, 0.000, 12:41:14.238
178, -4498.09, -5195.77, -5041.41, -4425.08, 0.000, 0.000, 0.000, 12:41:14.238
179, -4514.92, -5211.54, -5039.41, -4483.89, 0.000, 0.000, 0.000, 12:41:14.238
180, -4529.34, -5252.11, -5056.52, -4558.21, 0.000, 0.000, 0.000, 12:41:14.238
181, -4514.48, -5201.29, -5030.51, -4486.43, 0.000, 0.000, 0.000, 12:41:14.252
182, -4506.60, -5178.25, -5028.12, -4425.88, 0.000, 0.000, 0.000, 12:41:14.252
183, -4514.65, -5218.29, -5040.02, -4497.86, 0.000, 0.000, 0.000, 12:41:14.268
184, -4522.81, -5256.34, -5049.31, -4561.05, 0.000, 0.000, 0.000, 12:41:14.268
185, -4508.87, -5203.00, -5035.55, -4486.21, 0.000, 0.000, 0.000, 12:41:14.268
186, -4500.81, -5185.43, -5021.66, -4426.17, 0.000, 0.000, 0.000, 12:41:14.268
187, -4513.59, -5216.43, -5027.83, -4494.92, 0.000, 0.000, 0.000, 12:41:14.282
188, -4524.27, -5239.07, -5030.46, -4557.00, 0.000, 0.000, 0.000, 12:41:14.282
189, -4514.06, -5199.61, -5044.68, -4486.76, 0.000, 0.000, 0.000, 12:41:14.298
190, -4506.14, -5190.37, -5034.44, -4426.83, 0.000, 0.000, 0.000, 12:41:14.298
191, -4507.03, -5231.14, -5034.50, -4503.58, 0.000, 0.000, 0.000, 12:41:14.298
192, -4522.12, -5254.32, -5044.73, -4571.18, 0.000, 0.000, 0.000, 12:41:14.298
193, -4496.34, -5193.82, -5038.55, -4458.20, 0.000, 0.000, 0.000, 12:41:14.313
194, -4504.19, -5194.55, -5042.62, -4428.67, 0.000, 0.000, 0.000, 12:41:14.313
195, -4516.54, -5212.47, -5028.08, -4504.74, 0.000, 0.000, 0.000, 12:41:14.328
196, -4521.99, -5230.11, -5022.02, -4561.18, 0.000, 0.000, 0.000, 12:41:14.328
197, -4517.13, -5207.61, -5030.48, -4477.41, 0.000, 0.000, 0.000, 12:41:14.328
198, -4509.52, -5193.75, -5042.96, -4412.06, 0.000, 0.000, 0.000, 12:41:14.328
199, -4509.76, -5231.03, -5034.55, -4512.96, 0.000, 0.000, 0.000, 12:41:14.343
200, -4516.06, -5258.26, -5049.49, -4558.42, 0.000, 0.000, 0.000, 12:41:14.343
0, -4497.06, -5205.32, -5035.62, -4471.43, 0.000, 0.000, 0.000, 12:41:14.343
1, -4502.31, -5203.45, -5045.50, -4429.14, 0.000, 0.000, 0.000, 12:41:14.357
2, -4500.99, -5220.02, -5030.58, -4493.47, 0.000, 0.000, 0.000, 12:41:14.358
3, -4507.85, -5222.45, -5030.43, -4553.79, 0.000, 0.000, 0.000, 12:41:14.372
4, -4517.94, -5202.46, -5041.33, -4483.88, 0.000, 0.000, 0.000, 12:41:14.372
5, -4503.95, -5190.89, -5033.43, -4430.66, 0.000, 0.000, 0.000, 12:41:14.372
6, -4514.90, -5224.40, -5044.74, -4501.30, 0.000, 0.000, 0.000, 12:41:14.373
7, -4515.83, -5243.12, -5060.29, -4563.87, 0.000, 0.000, 0.000, 12:41:14.387
8, -4514.77, -5206.11, -5033.54, -4480.44, 0.000, 0.000, 0.000, 12:41:14.388
9, -4509.15, -5186.17, -5030.17, -4450.48, 0.000, 0.000, 0.000, 12:41:14.402
10, -4518.55, -5222.58, -5041.54, -4506.49, 0.000, 0.000, 0.000, 12:41:14.402
11, -4518.32, -5246.88, -5044.43, -4557.63, 0.000, 0.000, 0.000, 12:41:14.403
12, -4508.14, -5207.80, -5038.40, -4469.92, 0.000, 0.000, 0.000, 12:41:14.403
13, -4510.53, -5195.09, -5034.37, -4424.02, 0.000, 0.000, 0.000, 12:41:14.418
14, -4508.97, -5231.67, -5040.85, -4500.19, 0.000, 0.000, 0.000, 12:41:14.418
15, -4520.97, -5244.79, -5045.77, -4563.66, 0.000, 0.000, 0.000, 12:41:14.433
16, -4521.11, -5206.82, -5044.07, -4483.12, 0.000, 0.000, 0.000, 12:41:14.433
17, -4515.31, -5201.05, -5027.19, -4432.27, 0.000, 0.000, 0.000, 12:41:14.433
18, -4506.04, -5218.33, -5034.96, -4490.09, 0.000, 0.000, 0.000, 12:41:14.433
19, -4513.20, -5238.22, -5038.73, -4560.12, 0.000, 0.000, 0.000, 12:41:14.448
20, -4514.27, -5217.79, -5054.98, -4475.07, 0.000, 0.000, 0.000, 12:41:14.448
21, -4499.78, -5192.54, -5032.99, -4422.97, 0.000, 0.000, 0.000, 12:41:14.462
22, -4504.73, -5220.56, -5048.62, -4493.24, 0.000, 0.000, 0.000, 12:41:14.463
23, -4524.39, -5238.15, -5047.74, -4558.06, 0.000, 0.000, 0.000, 12:41:14.463
24, -4512.49, -5217.56, -5061.63, -4459.95, 0.000, 0.000, 0.000, 12:41:14.463
25, -4501.70, -5206.03, -5036.24, -4421.61, 0.000, 0.000, 0.000, 12:41:14.477
26, -4513.28, -5216.00, -5022.22, -4502.48, 0.000, 0.000, 0.000, 12:41:14.477
27, -4527.06, -5242.48, -5046.70, -4573.85, 0.000, 0.000, 0.000, 12:41:14.492
28, -4513.85, -5202.19, -5046.83, -4467.23, 0.000, 0.000, 0.000, 12:41:14.493
29, -4512.07, -5199.10, -5046.72, -4428.42, 0.000, 0.000, 0.000, 12:41:14.493
30, -4507.66, -5231.60, -5041.96, -4500.47, 0.000, 0.000, 0.000, 12:41:14.493
31, -4515.28, -5248.25, -5026.86, -4562.68, 0.000, 0.000, 0.000, 12:41:14.508
32, -4512.38, -5215.77, -5045.93, -4459.42, 0.000, 0.000, 0.000, 12:41:14.508
33, -4507.12, -5191.56, -5034.83, -4425.90, 0.000, 0.000, 0.000, 12:41:14.522
34, -4508.90, -5215.45, -5031.16, -4509.98, 0.000, 0.000, 0.000, 12:41:14.522
35, -4521.89, -5233.81, -5043.87, -4568.25, 0.000, 0.000, 0.000, 12:41:14.522
36, -4514.57, -5221.69, -5056.48, -4475.70, 0.000, 0.000, 0.000, 12:41:14.523
37, -4499.22, -5195.04, -5031.13, -4416.20, 0.000, 0.000, 0.000, 12:41:14.538
38, -4500.55, -5212.23, -5026.63, -4479.86, 0.000, 0.000, 0.000, 12:41:14.538
39, -4519.42, -5241.36, -5058.79, -4570.88, 0.000, 0.000, 0.000, 12:41:14.553
40, -4500.78, -5207.33, -5032.51, -4465.52, 0.000, 0.000, 0.000, 12:41:14.553
41, -4497.97, -5190.94, -5040.61, -4427.72, 0.000, 0.000, 0.000, 12:41:14.553
42, -4484.90, -5207.45, -5026.79, -4481.59, 0.000, 0.000, 0.000, 12:41:14.553
43, -4518.55, -5270.03, -5088.17, -4562.96, 0.000, 0.000, 0.000, 12:41:14.568
44, -4502.75, -5205.59, -5038.79, -4465.56, 0.000, 0.000, 0.000, 12:41:14.568
45, -4496.14, -5177.93, -5009.87, -4420.13, 0.000, 0.000, 0.000, 12:41:14.582
46, -4507.67, -5207.45, -5028.47, -4496.55, 0.000, 0.000, 0.000, 12:41:14.582
47, -4504.25, -5235.08, -5026.62, -4552.56, 0.000, 0.000, 0.000, 12:41:14.582
48, -4505.30, -5209.24, -5041.90, -4457.61, 0.000, 0.000, 0.000, 12:41:14.583
49, -4501.39, -5211.05, -5031.51, -4430.04, 0.000, 0.000, 0.000, 12:41:14.598
50, -4506.90, -5214.50, -5036.31, -4512.02, 0.000, 0.000, 0.000, 12:41:14.599
51, -4511.49, -5221.24, -5034.66, -4554.52, 0.000, 0.000, 0.000, 12:41:14.612
52, -4511.33, -5185.24, -5042.11, -4464.22, 0.000, 0.000, 0.000, 12:41:14.612
53, -4497.22, -5206.48, -5050.63, -4423.42, 0.000, 0.000, 0.000, 12:41:14.613
54, -4514.48, -5233.46, -5072.01, -4495.23, 0.000, 0.000, 0.000, 12:41:14.613
55, -4523.28, -5239.59, -5036.46, -4565.72, 0.000, 0.000, 0.000, 12:41:14.627
56, -4518.22, -5200.23, -5031.89, -4463.65, 0.000, 0.000, 0.000, 12:41:14.627
57, -4500.27, -5185.27, -5024.59, -4421.67, 0.000, 0.000, 0.000, 12:41:14.642
58, -4512.63, -5229.08, -5033.08, -4507.64, 0.000, 0.000, 0.000, 12:41:14.642
59, -4508.20, -5222.19, -5044.24, -4562.14, 0.000, 0.000, 0.000, 12:41:14.643
60, -4492.40, -5191.50, -5024.62, -4450.33, 0.000, 0.000, 0.000, 12:41:14.643
61, -4503.19, -5209.75, -5029.80, -4428.94, 0.000, 0.000, 0.000, 12:41:14.658
62, -4502.04, -5227.71, -5038.50, -4503.42, 0.000, 0.000, 0.000, 12:41:14.658
63, -4515.72, -5245.77, -5040.80, -4558.20, 0.000, 0.000, 0.000, 12:41:14.672
64, -4515.47, -5207.27, -5053.67, -4464.85, 0.000, 0.000, 0.000, 12:41:14.672
65, -4506.56, -5196.40, -5041.94, -4441.65, 0.000, 0.000, 0.000, 12:41:14.672
66, -4505.83, -5213.39, -5031.21, -4498.83, 0.000, 0.000, 0.000, 12:41:14.673
67, -4521.46, -5237.44, -5042.65, -4560.55, 0.000, 0.000, 0.000, 12:41:14.694
68, -4504.84, -5194.90, -5041.74, -4458.62, 0.000, 0.000, 0.000, 12:41:14.695
69, -4504.16, -5196.57, -5050.30, -4414.95, 0.000, 0.000, 0.000, 12:41:14.703
70, -4510.49, -5221.04, -5038.83, -4494.51, 0.000, 0.000, 0.000, 12:41:14.703
71, -4513.59, -5247.30, -5066.52, -4566.55, 0.000, 0.000, 0.000, 12:41:14.703
72, -4515.66, -5192.92, -5024.61, -4444.70, 0.000, 0.000, 0.000, 12:41:14.703
73, -4500.10, -5180.80, -5015.58, -4420.82, 0.000, 0.000, 0.000, 12:41:14.718
74, -4513.83, -5224.55, -5033.24, -4497.21, 0.000, 0.000, 0.000, 12:41:14.718
75, -4518.07, -5237.82, -5032.47, -4552.55, 0.000, 0.000, 0.000, 12:41:14.732
76, -4510.16, -5185.52, -5045.94, -4461.75, 0.000, 0.000, 0.000, 12:41:14.732
77, -4508.47, -5191.37, -5045.78, -4429.27, 0.000, 0.000, 0.000, 12:41:14.733
78, -4512.74, -5226.12, -5045.60, -4509.42, 0.000, 0.000, 0.000, 12:41:14.733
79, -4537.89, -5262.56, -5072.06, -4570.83, 0.000, 0.000, 0.000, 12:41:14.748
80, -4516.52, -5198.72, -5059.89, -4465.20, 0.000, 0.000, 0.000, 12:41:14.748
81, -4511.09, -5192.95, -5011.78, -4425.84, 0.000, 0.000, 0.000, 12:41:14.763
82, -4505.56, -5209.82, -5008.08, -4491.17, 0.000, 0.000, 0.000, 12:41:14.763
83, -4520.83, -5235.67, -5033.01, -4558.38, 0.000, 0.000, 0.000, 12:41:14.764
84, -4504.40, -5178.33, -5022.78, -4454.80, 0.000, 0.000, 0.000, 12:41:14.764
85, -4515.59, -5201.54, -5049.87, -4439.00, 0.000, 0.000, 0.000, 12:41:14.778
86, -4502.78, -5200.33, -5043.92, -4485.80, 0.000, 0.000, 0.000, 12:41:14.778
87, -4519.99, -5229.91, -5047.49, -4545.72, 0.000, 0.000, 0.000, 12:41:14.792
88, -4498.04, -5178.14, -5033.69, -4447.88, 0.000, 0.000, 0.000, 12:41:14.792
89, -4499.35, -5162.55, -5040.80, -4410.71, 0.000, 0.000, 0.000, 12:41:14.793
90, -4495.55, -5189.59, -5025.86, -4477.68, 0.000, 0.000, 0.000, 12:41:14.793
91, -4526.07, -5265.91, -5041.25, -4562.92, 0.000, 0.000, 0.000, 12:41:14.808
92, -4508.47, -5198.78, -5021.14, -4456.18, 0.000, 0.000, 0.000, 12:41:14.808
93, -4489.56, -5174.64, -5033.44, -4435.74, 0.000, 0.000, 0.000, 12:41:14.822
94, -4485.90, -5207.44, -4986.61, -4494.37, 0.000, 0.000, 0.000, 12:41:14.822
95, -4520.51, -5235.16, -5036.47, -4582.58, 0.000, 0.000, 0.000, 12:41:14.823
96, -4513.64, -5192.58, -5044.33, -4470.62, 0.000, 0.000, 0.000, 12:41:14.823
97, -4506.68, -5176.86, -5028.96, -4436.55, 0.000, 0.000, 0.000, 12:41:14.838
98, -4488.32, -5185.80, -5017.06, -4491.18, 0.000, 0.000, 0.000, 12:41:14.838
99, -4515.90, -5237.21, -5028.70, -4561.32, 0.000, 0.000, 0.000, 12:41:14.852
100, -4511.59, -5182.57, -5011.08, -4453.15, 0.000, 0.000, 0.000, 12:41:14.852
101, -4497.63, -5163.48, -5013.12, -4425.21, 0.000, 0.000, 0.000, 12:41:14.853
102, -4498.88, -5192.28, -5012.50, -4489.36, 0.000, 0.000, 0.000, 12:41:14.853
103, -4506.59, -5212.34, -5026.86, -4561.12, 0.000, 0.000, 0.000, 12:41:14.868
104, -4507.98, -5198.75, -5052.10, -4454.59, 0.000, 0.000, 0.000, 12:41:14.868
105, -4496.16, -5190.43, -5036.11, -4436.33, 0.000, 0.000, 0.000, 12:41:14.882
106, -4484.98, -5183.88, -5013.56, -4502.17, 0.000, 0.000, 0.000, 12:41:14.882
107, -4516.41, -5241.13, -5043.58, -4561.05, 0.000, 0.000, 0.000, 12:41:14.883
108, -4511.94, -5216.90, -5043.12, -4442.71, 0.000, 0.000, 0.000, 12:41:14.883
109, -4519.94, -5211.58, -5055.65, -4452.25, 0.000, 0.000, 0.000, 12:41:14.897
110, -4513.93, -5227.92, -5047.81, -4506.71, 0.000, 0.000, 0.000, 12:41:14.897
111, -4523.50, -5262.32, -5062.45, -4568.96, 0.000, 0.000, 0.000, 12:41:14.912
112, -4525.28, -5219.05, -5064.40, -4455.07, 0.000, 0.000, 0.000, 12:41:14.913
113, -4508.73, -5204.71, -5026.08, -4435.76, 0.000, 0.000, 0.000, 12:41:14.913
114, -4505.74, -5210.28, -5027.18, -4501.94, 0.000, 0.000, 0.000, 12:41:14.913
115, -4537.44, -5263.73, -5067.57, -4581.54, 0.000, 0.000, 0.000, 12:41:14.927
116, -4515.50, -5199.74, -5066.17, -4463.42, 0.000, 0.000, 0.000, 12:41:14.927
117, -4501.56, -5198.21, -5028.14, -4421.76, 0.000, 0.000, 0.000, 12:41:14.942
118, -4520.52, -5245.53, -5038.89, -4503.98, 0.000, 0.000, 0.000, 12:41:14.942
119, -4518.86, -5246.78, -5039.38, -4563.76, 0.000, 0.000, 0.000, 12:41:14.942
120, -4505.69, -5192.49, -5029.34, -4450.79, 0.000, 0.000, 0.000, 12:41:14.942
121, -4493.31, -5189.87, -5032.10, -4435.01, 0.000, 0.000, 0.000, 12:41:14.958
122, -4515.30, -5229.21, -5058.03, -4510.17, 0.000, 0.000, 0.000, 12:41:14.958
123, -4509.18, -5247.97, -5038.32, -4542.78, 0.000, 0.000, 0.000, 12:41:14.972
124, -4496.17, -5196.73, -5029.28, -4432.27, 0.000, 0.000, 0.000, 12:41:14.973
125, -4484.37, -5173.15, -5005.11, -4426.74, 0.000, 0.000, 0.000, 12:41:14.973
126, -4504.67, -5241.94, -5041.11, -4502.82, 0.000, 0.000, 0.000, 12:41:14.973
127, -4498.43, -5263.21, -5038.88, -4566.71, 0.000, 0.000, 0.000, 12:41:14.987
128, -4485.06, -5165.95, -5035.27, -4435.00, 0.000, 0.000, 0.000, 12:41:14.987
129, -4481.28, -5164.63, -5050.32, -4405.19, 0.000, 0.000, 0.000, 12:41:15.002
130, -4518.84, -5222.55, -5048.98, -4516.46, 0.000, 0.000, 0.000, 12:41:15.002
131, -4514.98, -5236.97, -5032.45, -4551.50, 0.000, 0.000, 0.000, 12:41:15.010
132, -4518.29, -5194.90, -5042.93, -4442.88, 0.000, 0.000, 0.000, 12:41:15.010
133, -4508.33, -5195.01, -5030.24, -4438.09, 0.000, 0.000, 0.000, 12:41:15.018
134, -4519.07, -5230.74, -5051.06, -4531.60, 0.000, 0.000, 0.000, 12:41:15.018
135, -4541.79, -5244.98, -5056.45, -4571.47, 0.000, 0.000, 0.000, 12:41:15.033
136, -4511.38, -5181.48, -5033.62, -4449.05, 0.000, 0.000, 0.000, 12:41:15.033
137, -4510.50, -5210.01, -5055.85, -4424.63, 0.000, 0.000, 0.000, 12:41:15.033
138, -4507.93, -5207.71, -5051.26, -4511.04, 0.000, 0.000, 0.000, 12:41:15.033
139, -4524.25, -5229.67, -5044.87, -4565.00, 0.000, 0.000, 0.000, 12:41:15.047
140, -4534.11, -5225.29, -5089.94, -4453.24, 0.000, 0.000, 0.000, 12:41:15.048
141, -4500.96, -5190.09, -5041.89, -4428.64, 0.000, 0.000, 0.000, 12:41:15.063
142, -4530.58, -5237.61, -5035.37, -4509.11, 0.000, 0.000, 0.000, 12:41:15.063
143, -4533.36, -5235.76, -5044.23, -4565.44, 0.000, 0.000, 0.000, 12:41:15.063
144, -4523.33, -5209.62, -5058.12, -4432.78, 0.000, 0.000, 0.000, 12:41:15.063
145, -4488.19, -5168.99, -5017.46, -4419.40, 0.000, 0.000, 0.000, 12:41:15.078
146, -4507.27, -5216.57, -5028.79, -4519.14, 0.000, 0.000, 0.000, 12:41:15.078
147, -4518.37, -5224.44, -5048.37, -4563.12, 0.000, 0.000, 0.000, 12:41:15.092
148, -4514.48, -5192.86, -5059.81, -4450.89, 0.000, 0.000, 0.000, 12:41:15.092
149, -4519.17, -5204.26, -5043.95, -4431.96, 0.000, 0.000, 0.000, 12:41:15.093
150, -4509.34, -5215.77, -5037.71, -4503.10, 0.000, 0.000, 0.000, 12:41:15.093
151, -4543.30, -5254.38, -5068.82, -4585.70, 0.000, 0.000, 0.000, 12:41:15.107
152, -4491.67, -5190.27, -5040.31, -4445.60, 0.000, 0.000, 0.000, 12:41:15.107
153, -4533.45, -5230.14, -5067.76, -4449.90, 0.000, 0.000, 0.000, 12:41:15.122
154, -4519.93, -5226.53, -5035.86, -4508.32, 0.000, 0.000, 0.000, 12:41:15.123
155, -4533.12, -5233.36, -5041.89, -4571.40, 0.000, 0.000, 0.000, 12:41:15.123
156, -4524.87, -5208.58, -5050.33, -4461.19, 0.000, 0.000, 0.000, 12:41:15.123
157, -4513.73, -5185.20, -5037.97, -4442.48, 0.000, 0.000, 0.000, 12:41:15.137
158, -4504.22, -5210.17, -5027.08, -4508.57, 0.000, 0.000, 0.000, 12:41:15.137
159, -4524.87, -5246.57, -5044.49, -4560.08, 0.000, 0.000, 0.000, 12:41:15.152
160, -4509.43, -5199.15, -5046.93, -4449.95, 0.000, 0.000, 0.000, 12:41:15.152
161, -4496.11, -5195.33, -5024.53, -4435.92, 0.000, 0.000, 0.000, 12:41:15.152
162, -4503.08, -5222.28, -5037.06, -4509.00, 0.000, 0.000, 0.000, 12:41:15.153
163, -4512.90, -5247.01, -5029.37, -4559.27, 0.000, 0.000, 0.000, 12:41:15.168
164, -4510.25, -5210.37, -5030.92, -4440.76, 0.000, 0.000, 0.000, 12:41:15.168
165, -4494.82, -5193.46, -5017.12, -4422.32, 0.000, 0.000, 0.000, 12:41:15.182
166, -4507.52, -5230.05, -5031.73, -4516.07, 0.000, 0.000, 0.000, 12:41:15.182
167, -4492.54, -5219.40, -5018.65, -4547.63, 0.000, 0.000, 0.000, 12:41:15.182
168, -4510.26, -5230.86, -5072.11, -4453.80, 0.000, 0.000, 0.000, 12:41:15.183
169, -4499.23, -5198.25, -5041.53, -4438.85, 0.000, 0.000, 0.000, 12:41:15.198
170, -4494.59, -5204.57, -5012.62, -4504.73, 0.000, 0.000, 0.000, 12:41:15.199
171, -4510.59, -5238.91, -5033.14, -4568.42, 0.000, 0.000, 0.000, 12:41:15.212
172, -4498.07, -5200.07, -5022.77, -4436.33, 0.000, 0.000, 0.000, 12:41:15.213
173, -4489.91, -5209.31, -5029.28, -4442.14, 0.000, 0.000, 0.000, 12:41:15.213
174, -4512.45, -5246.77, -5048.10, -4525.53, 0.000, 0.000, 0.000, 12:41:15.213
175, -4501.96, -5227.73, -5045.72, -4559.27, 0.000, 0.000, 0.000, 12:41:15.228
176, -4506.39, -5197.57, -5049.29, -4450.63, 0.000, 0.000, 0.000, 12:41:15.228
177, -4502.28, -5195.54, -5045.76, -4440.73, 0.000, 0.000, 0.000, 12:41:15.242
178, -4512.33, -5243.77, -5028.31, -4516.82, 0.000, 0.000, 0.000, 12:41:15.242
179, -4519.14, -5247.06, -5034.65, -4558.94, 0.000, 0.000, 0.000, 12:41:15.242
180, -4499.27, -5200.08, -5040.64, -4431.35, 0.000, 0.000, 0.000, 12:41:15.243
181, -4499.29, -5187.83, -5028.87, -4434.31, 0.000, 0.000, 0.000, 12:41:15.258
182, -4503.96, -5225.34, -5037.33, -4507.83, 0.000, 0.000, 0.000, 12:41:15.258
183, -4509.49, -5249.01, -5056.04, -4554.99, 0.000, 0.000, 0.000, 12:41:15.273
184, -4505.17, -5186.40, -5037.95, -4438.08, 0.000, 0.000, 0.000, 12:41:15.273
185, -4506.89, -5201.26, -5029.12, -4436.80, 0.000, 0.000, 0.000, 12:41:15.273
186, -4511.82, -5230.43, -5020.27, -4517.84, 0.000, 0.000, 0.000, 12:41:15.273
187, -4512.86, -5248.95, -5028.21, -4552.05, 0.000, 0.000, 0.000, 12:41:15.288
188, -4511.85, -5194.86, -5044.30, -4437.09, 0.000, 0.000, 0.000, 12:41:15.288
189, -4499.50, -5197.18, -5036.39, -4439.42, 0.000, 0.000, 0.000, 12:41:15.302
190, -4514.81, -5226.72, -5032.39, -4510.08, 0.000, 0.000, 0.000, 12:41:15.302
191, -4515.90, -5238.50, -5040.29, -4546.20, 0.000, 0.000, 0.000, 12:41:15.302
192, -4497.25, -5177.41, -5035.98, -4433.47, 0.000, 0.000, 0.000, 12:41:15.302
193, -4501.28, -5198.08, -5049.40, -4432.85, 0.000, 0.000, 0.000, 12:41:15.318
194, -4504.89, -5214.74, -5025.98, -4514.87, 0.000, 0.000, 0.000, 12:41:15.318
195, -4517.46, -5242.55, -5028.50, -4582.00, 0.000, 0.000, 0.000, 12:41:15.332
196, -4500.37, -5183.48, -5026.63, -4446.92, 0.000, 0.000, 0.000, 12:41:15.332
197, -4487.41, -5162.91, -5014.10, -4433.64, 0.000, 0.000, 0.000, 12:41:15.333
198, -4508.20, -5208.79, -5017.27, -4514.80, 0.000, 0.000, 0.000, 12:41:15.333
199, -4510.96, -5225.31, -5021.84, -4535.40, 0.000, 0.000, 0.000, 12:41:15.348
200, -4498.26, -5185.88, -5030.36, -4438.11, 0.000, 0.000, 0.000, 12:41:15.348
0, -4513.30, -5190.40, -5035.96, -4442.08, 0.000, 0.000, 0.000, 12:41:15.348
1, -4511.91, -5226.30, -5045.70, -4513.09, 0.000, 0.000, 0.000, 12:41:15.363
2, -4512.37, -5231.41, -5040.24, -4565.54, 0.000, 0.000, 0.000, 12:41:15.364
3, -4511.33, -5194.97, -5037.88, -4437.88, 0.000, 0.000, 0.000, 12:41:15.377
4, -4515.96, -5207.42, -5036.49, -4448.77, 0.000, 0.000, 0.000, 12:41:15.378
5, -4514.06, -5240.32, -5034.35, -4513.27, 0.000, 0.000, 0.000, 12:41:15.378
6, -4521.10, -5228.93, -5039.16, -4558.13, 0.000, 0.000, 0.000, 12:41:15.378
7, -4511.47, -5192.98, -5038.12, -4439.05, 0.000, 0.000, 0.000, 12:41:15.392
8, -4516.46, -5203.46, -5040.27, -4456.96, 0.000, 0.000, 0.000, 12:41:15.392
9, -4517.88, -5231.15, -5056.46, -4520.32, 0.000, 0.000, 0.000, 12:41:15.407
10, -4523.33, -5229.04, -5025.07, -4558.94, 0.000, 0.000, 0.000, 12:41:15.407
11, -4503.05, -5178.97, -5033.59, -4427.98, 0.000, 0.000, 0.000, 12:41:15.408
12, -4505.70, -5210.94, -5043.40, -4446.19, 0.000, 0.000, 0.000, 12:41:15.408
13, -4500.89, -5223.10, -5015.58, -4524.39, 0.000, 0.000, 0.000, 12:41:15.422
14, -4514.37, -5237.50, -5050.51, -4551.66, 0.000, 0.000, 0.000, 12:41:15.422
15, -4498.13, -5195.96, -5045.47, -4439.67, 0.000, 0.000, 0.000, 12:41:15.437
16, -4498.44, -5198.00, -5018.24, -4441.75, 0.000, 0.000, 0.000, 12:41:15.437
17, -4507.38, -5223.64, -5032.38, -4528.83, 0.000, 0.000, 0.000, 12:41:15.445
18, -4524.28, -5240.34, -5047.24, -4566.31, 0.000, 0.000, 0.000, 12:41:15.446
19, -4508.66, -5197.55, -5022.40, -4438.61, 0.000, 0.000, 0.000, 12:41:15.453
20, -4498.06, -5185.96, -5015.31, -4438.19, 0.000, 0.000, 0.000, 12:41:15.453
21, -4514.06, -5234.81, -5033.81, -4527.97, 0.000, 0.000, 0.000, 12:41:15.468
22, -4508.36, -5241.66, -5044.96, -4576.68, 0.000, 0.000, 0.000, 12:41:15.468
23, -4502.96, -5206.58, -5042.05, -4444.09, 0.000, 0.000, 0.000, 12:41:15.468
24, -4505.92, -5191.61, -5018.96, -4445.48, 0.000, 0.000, 0.000, 12:41:15.468
25, -4510.14, -5224.17, -5027.87, -4518.84, 0.000, 0.000, 0.000, 12:41:15.482
26, -4529.63, -5237.18, -5051.32, -4548.64, 0.000, 0.000, 0.000, 12:41:15.482
27, -4516.51, -5199.23, -5047.10, -4440.78, 0.000, 0.000, 0.000, 12:41:15.497
28, -4512.11, -5209.99, -5048.42, -4442.28, 0.000, 0.000, 0.000, 12:41:15.497
29, -4518.08, -5224.53, -5029.75, -4524.73, 0.000, 0.000, 0.000, 12:41:15.498
30, -4526.96, -5248.14, -5040.90, -4564.58, 0.000, 0.000, 0.000, 12:41:15.498
31, -4513.27, -5190.89, -5054.30, -4430.60, 0.000, 0.000, 0.000, 12:41:15.512
32, -4502.98, -5196.44, -5031.58, -4441.98, 0.000, 0.000, 0.000, 12:41:15.513
33, -4517.67, -5234.55, -5038.84, -4524.43, 0.000, 0.000, 0.000, 12:41:15.528
34, -4513.09, -5237.43, -5060.22, -4557.11, 0.000, 0.000, 0.000, 12:41:15.528
35, -4504.38, -5192.66, -5039.42, -4438.87, 0.000, 0.000, 0.000, 12:41:15.528
36, -4503.46, -5204.50, -5019.30, -4444.16, 0.000, 0.000, 0.000, 12:41:15.528
37, -4502.89, -5229.24, -5027.35, -4536.68, 0.000, 0.000, 0.000, 12:41:15.542
38, -4518.52, -5245.92, -5032.54, -4570.15, 0.000, 0.000, 0.000, 12:41:15.543
39, -4507.97, -5194.54, -5030.10, -4434.42, 0.000, 0.000, 0.000, 12:41:15.557
40, -4493.06, -5191.33, -5017.71, -4430.02, 0.000, 0.000, 0.000, 12:41:15.557
41, -4509.61, -5225.96, -5066.11, -4535.16, 0.000, 0.000, 0.000, 12:41:15.557
42, -4511.03, -5243.00, -5033.35, -4562.63, 0.000, 0.000, 0.000, 12:41:15.558
43, -4503.09, -5208.59, -5039.50, -4439.30, 0.000, 0.000, 0.000, 12:41:15.572
44, -4499.37, -5205.70, -5017.52, -4459.47, 0.000, 0.000, 0.000, 12:41:15.572
45, -4502.33, -5245.80, -5027.68, -4515.70, 0.000, 0.000, 0.000, 12:41:15.588
46, -4509.86, -5241.96, -5047.37, -4561.60, 0.000, 0.000, 0.000, 12:41:15.588
47, -4496.47, -5179.20, -5044.32, -4430.80, 0.000, 0.000, 0.000, 12:41:15.588
48, -4495.23, -5180.39, -5010.55, -4429.75, 0.000, 0.000, 0.000, 12:41:15.588
49, -4499.90, -5221.09, -5015.90, -4518.11, 0.000, 0.000, 0.000, 12:41:15.602
50, -4517.67, -5249.84, -5042.50, -4557.40, 0.000, 0.000, 0.000, 12:41:15.602
51, -4502.69, -5199.63, -5053.59, -4433.93, 0.000, 0.000, 0.000, 12:41:15.618
52, -4501.88, -5212.27, -5026.02, -4440.25, 0.000, 0.000, 0.000, 12:41:15.618
53, -4503.16, -5225.27, -5027.24, -4524.75, 0.000, 0.000, 0.000, 12:41:15.618
54, -4521.42, -5241.27, -5050.42, -4556.24, 0.000, 0.000, 0.000, 12:41:15.618
55, -4502.34, -5187.57, -5030.79, -4418.14, 0.000, 0.000, 0.000, 12:41:15.632
56, -4501.04, -5205.76, -5039.49, -4437.55, 0.000, 0.000, 0.000, 12:41:15.632
57, -4516.93, -5239.27, -5038.96, -4523.70, 0.000, 0.000, 0.000, 12:41:15.647
58, -4527.32, -5245.37, -5050.72, -4562.80, 0.000, 0.000, 0.000, 12:41:15.648
59, -4517.05, -5201.34, -5063.16, -4435.00, 0.000, 0.000, 0.000, 12:41:15.648
60, -4508.84, -5211.43, -5049.79, -4444.29, 0.000, 0.000, 0.000, 12:41:15.648
61, -4519.65, -5237.52, -5052.17, -4516.46, 0.000, 0.000, 0.000, 12:41:15.663
62, -4522.28, -5241.78, -5036.47, -4567.89, 0.000, 0.000, 0.000, 12:41:15.663
63, -4503.33, -5178.53, -5036.54, -4425.25, 0.000, 0.000, 0.000, 12:41:15.678
64, -4506.09, -5193.77, -5021.78, -4454.78, 0.000, 0.000, 0.000, 12:41:15.678
65, -4508.94, -5220.90, -5016.98, -4528.31, 0.000, 0.000, 0.000, 12:41:15.678
66, -4514.02, -5240.87, -5045.04, -4551.30, 0.000, 0.000, 0.000, 12:41:15.679
67, -4503.12, -5205.58, -5089.70, -4429.00, 0.000, 0.000, 0.000, 12:41:15.693
68, -4498.45, -5207.96, -5027.72, -4448.03, 0.000, 0.000, 0.000, 12:41:15.693
69, -4507.53, -5224.53, -5012.71, -4528.35, 0.000, 0.000, 0.000, 12:41:15.707
70, -4519.21, -5241.72, -5031.73, -4561.20, 0.000, 0.000, 0.000, 12:41:15.707
71, -4503.82, -5193.00, -5033.41, -4434.52, 0.000, 0.000, 0.000, 12:41:15.708
72, -4509.96, -5205.30, -5038.03, -4450.05, 0.000, 0.000, 0.000, 12:41:15.708
73, -4515.85, -5224.57, -5050.08, -4533.32, 0.000, 0.000, 0.000, 12:41:15.722
74, -4519.38, -5241.46, -5056.07, -4557.50, 0.000, 0.000, 0.000, 12:41:15.722
75, -4504.71, -5193.70, -5050.66, -4444.72, 0.000, 0.000, 0.000, 12:41:15.738
76, -4511.04, -5212.89, -5042.74, -4458.43, 0.000, 0.000, 0.000, 12:41:15.738
77, -4510.37, -5234.63, -5032.19, -4527.55, 0.000, 0.000, 0.000, 12:41:15.738
78, -4520.00, -5233.33, -5032.48, -4560.69, 0.000, 0.000, 0.000, 12:41:15.738
79, -4507.79, -5198.11, -5049.84, -4427.32, 0.000, 0.000, 0.000, 12:41:15.753
80, -4505.47, -5226.48, -5051.33, -4453.87, 0.000, 0.000, 0.000, 12:41:15.753
81, -4514.17, -5238.32, -5049.89, -4536.26, 0.000, 0.000, 0.000, 12:41:15.768
82, -4520.27, -5249.99, -5067.64, -4552.91, 0.000, 0.000, 0.000, 12:41:15.768
83, -4513.50, -5198.52, -5050.23, -4435.92, 0.000, 0.000, 0.000, 12:41:15.768
84, -4515.54, -5210.53, -5021.92, -4455.88, 0.000, 0.000, 0.000, 12:41:15.768
85, -4511.14, -5220.50, -5026.48, -4525.14, 0.000, 0.000, 0.000, 12:41:15.782
86, -4519.84, -5239.80, -5054.39, -4564.42, 0.000, 0.000, 0.000, 12:41:15.782
87, -4497.94, -5198.69, -5038.47, -4438.62, 0.000, 0.000, 0.000, 12:41:15.797
88, -4499.81, -5201.08, -5033.14, -4464.47, 0.000, 0.000, 0.000, 12:41:15.797
89, -4509.84, -5235.71, -5037.60, -4529.94, 0.000, 0.000, 0.000, 12:41:15.798
90, -4515.46, -5218.49, -5021.32, -4547.91, 0.000, 0.000, 0.000, 12:41:15.798
91, -4492.44, -5182.09, -5010.70, -4427.72, 0.000, 0.000, 0.000, 12:41:15.813
92, -4493.75, -5193.29, -5023.52, -4436.21, 0.000, 0.000, 0.000, 12:41:15.813
93, -4495.81, -5230.07, -5036.14, -4525.61, 0.000, 0.000, 0.000, 12:41:15.828
94, -4521.77, -5249.98, -5063.69, -4561.21, 0.000, 0.000, 0.000, 12:41:15.828
95, -4514.29, -5186.91, -5030.56, -4437.77, 0.000, 0.000, 0.000, 12:41:15.828
96, -4506.37, -5196.10, -5027.99, -4463.66, 0.000, 0.000, 0.000, 12:41:15.828
97, -4515.22, -5238.71, -5047.05, -4537.16, 0.000, 0.000, 0.000, 12:41:15.843
98, -4520.31, -5241.58, -5061.32, -4554.39, 0.000, 0.000, 0.000, 12:41:15.843
99, -4508.71, -5185.03, -5040.94, -4427.14, 0.000, 0.000, 0.000, 12:41:15.857
100, -4507.56, -5211.63, -5059.49, -4452.58, 0.000, 0.000, 0.000, 12:41:15.858
101, -4508.29, -5246.50, -5049.25, -4530.67, 0.000, 0.000, 0.000, 12:41:15.858
102, -4524.47, -5248.63, -5051.86, -4559.45, 0.000, 0.000, 0.000, 12:41:15.858
103, -4514.46, -5191.39, -5024.52, -4419.08, 0.000, 0.000, 0.000, 12:41:15.879
104, -4508.84, -5217.76, -5033.34, -4459.17, 0.000, 0.000, 0.000, 12:41:15.879
105, -4518.96, -5239.16, -5029.91, -4532.44, 0.000, 0.000, 0.000, 12:41:15.888
106, -4525.21, -5239.34, -5062.33, -4542.46, 0.000, 0.000, 0.000, 12:41:15.888
107, -4506.47, -5204.33, -5048.92, -4442.93, 0.000, 0.000, 0.000, 12:41:15.888
108, -4511.46, -5217.69, -5044.79, -4453.61, 0.000, 0.000, 0.000, 12:41:15.888
109, -4521.31, -5229.73, -5054.57, -4529.41, 0.000, 0.000, 0.000, 12:41:15.902
110, -4522.28, -5227.57, -5039.74, -4566.39, 0.000, 0.000, 0.000, 12:41:15.902
111, -4511.25, -5184.02, -5037.65, -4422.65, 0.000, 0.000, 0.000, 12:41:15.919
112, -4499.51, -5197.45, -5024.69, -4453.29, 0.000, 0.000, 0.000, 12:41:15.919
113, -4505.66, -5233.07, -5031.42, -4530.47, 0.000, 0.000, 0.000, 12:41:15.919
114, -4519.71, -5253.46, -5055.87, -4552.74, 0.000, 0.000, 0.000, 12:41:15.920
115, -4507.74, -5187.36, -5057.53, -4426.49, 0.000, 0.000, 0.000, 12:41:15.933
116, -4513.92, -5201.58, -5038.10, -4452.41, 0.000, 0.000, 0.000, 12:41:15.933
117, -4523.37, -5239.04, -5031.11, -4538.80, 0.000, 0.000, 0.000, 12:41:15.947
118, -4523.14, -5226.82, -5037.38, -4537.13, 0.000, 0.000, 0.000, 12:41:15.947
119, -4504.09, -5184.55, -5040.23, -4430.54, 0.000, 0.000, 0.000, 12:41:15.948
120, -4507.47, -5207.95, -5052.00, -4461.95, 0.000, 0.000, 0.000, 12:41:15.948
121, -4516.87, -5235.20, -5034.66, -4521.73, 0.000, 0.000, 0.000, 12:41:15.962
122, -4523.16, -5244.85, -5038.70, -4553.93, 0.000, 0.000, 0.000, 12:41:15.962
123, -4507.57, -5190.76, -5037.23, -4439.67, 0.000, 0.000, 0.000, 12:41:15.977
124, -4510.25, -5201.59, -5035.82, -4458.32, 0.000, 0.000, 0.000, 12:41:15.978
125, -4520.09, -5244.48, -5056.23, -4537.03, 0.000, 0.000, 0.000, 12:41:15.978
126, -4525.28, -5241.31, -5038.28, -4544.35, 0.000, 0.000, 0.000, 12:41:15.978
127, -4508.66, -5194.47, -5043.70, -4422.24, 0.000, 0.000, 0.000, 12:41:15.993
128, -4504.14, -5190.31, -5028.83, -4438.89, 0.000, 0.000, 0.000, 12:41:15.993
129, -4514.77, -5222.62, -5045.71, -4540.01, 0.000, 0.000, 0.000, 12:41:16.007
130, -4522.80, -5250.75, -5058.83, -4558.64, 0.000, 0.000, 0.000, 12:41:16.008
131, -4518.56, -5204.22, -5061.87, -4423.47, 0.000, 0.000, 0.000, 12:41:16.008
132, -4511.99, -5222.44, -5043.20, -4445.20, 0.000, 0.000, 0.000, 12:41:16.008
133, -4505.65, -5229.87, -5024.91, -4533.84, 0.000, 0.000, 0.000, 12:41:16.023
134, -4516.30, -5225.50, -5037.15, -4558.28, 0.000, 0.000, 0.000, 12:41:16.023
135, -4513.45, -5191.93, -5049.38, -4432.98, 0.000, 0.000, 0.000, 12:41:16.037
136, -4511.20, -5223.90, -5029.04, -4455.39, 0.000, 0.000, 0.000, 12:41:16.037
137, -4531.93, -5244.72, -5042.69, -4559.32, 0.000, 0.000, 0.000, 12:41:16.037
138, -4524.38, -5235.21, -5055.54, -4546.48, 0.000, 0.000, 0.000, 12:41:16.037
139, -4510.92, -5194.84, -5046.75, -4422.35, 0.000, 0.000, 0.000, 12:41:16.053
140, -4508.97, -5209.98, -5040.72, -4459.24, 0.000, 0.000, 0.000, 12:41:16.053
141, -4520.86, -5235.82, -5048.34, -4547.10, 0.000, 0.000, 0.000, 12:41:16.068
142, -4526.73, -5241.53, -5053.95, -4560.50, 0.000, 0.000, 0.000, 12:41:16.068
143, -4508.16, -5184.59, -5031.08, -4434.62, 0.000, 0.000, 0.000, 12:41:16.068
144, -4507.76, -5194.32, -5024.53, -4457.01, 0.000, 0.000, 0.000, 12:41:16.068
145, -4526.24, -5239.13, -5042.99, -4541.73, 0.000, 0.000, 0.000, 12:41:16.082
146, -4521.77, -5222.06, -5044.24, -4545.45, 0.000, 0.000, 0.000, 12:41:16.082
147, -4502.50, -5183.34, -5052.25, -4391.12, 0.000, 0.000, 0.000, 12:41:16.098
148, -4494.72, -5219.38, -5029.04, -4451.38, 0.000, 0.000, 0.000, 12:41:16.098
149, -4513.90, -5231.89, -5038.07, -4543.98, 0.000, 0.000, 0.000, 12:41:16.098
150, -4532.96, -5245.02, -5067.75, -4560.88, 0.000, 0.000, 0.000, 12:41:16.098
151, -4505.38, -5191.43, -5034.99, -4407.42, 0.000, 0.000, 0.000, 12:41:16.112
152, -4518.97, -5211.34, -5029.06, -4460.11, 0.000, 0.000, 0.000, 12:41:16.113
153, -4528.32, -5244.67, -5039.18, -4540.21, 0.000, 0.000, 0.000, 12:41:16.128
154, -4527.47, -5228.43, -5045.95, -4545.67, 0.000, 0.000, 0.000, 12:41:16.128
155, -4513.96, -5187.14, -5045.76, -4409.48, 0.000, 0.000, 0.000, 12:41:16.128
156, -4520.34, -5208.13, -5060.04, -4466.17, 0.000, 0.000, 0.000, 12:41:16.129
157, -4524.14, -5248.08, -5044.90, -4538.65, 0.000, 0.000, 0.000, 12:41:16.142
158, -4529.65, -5230.07, -5036.25, -4556.78, 0.000, 0.000, 0.000, 12:41:16.142
159, -4512.53, -5197.31, -5035.60, -4435.98, 0.000, 0.000, 0.000, 12:41:16.157
160, -4502.56, -5217.56, -5041.09, -4464.56, 0.000, 0.000, 0.000, 12:41:16.157
161, -4514.10, -5232.09, -5033.90, -4518.76, 0.000, 0.000, 0.000, 12:41:16.157
162, -4517.71, -5228.64, -5036.64, -4546.27, 0.000, 0.000, 0.000, 12:41:16.158
163, -4509.58, -5195.02, -5039.38, -4431.82, 0.000, 0.000, 0.000, 12:41:16.172
164, -4507.56, -5204.16, -5042.03, -4457.28, 0.000, 0.000, 0.000, 12:41:16.172
165, -4527.37, -5236.64, -5030.84, -4553.61, 0.000, 0.000, 0.000, 12:41:16.187
166, -4525.12, -5230.27, -5031.91, -4569.01, 0.000, 0.000, 0.000, 12:41:16.187
167, -4511.02, -5185.11, -5033.75, -4421.66, 0.000, 0.000, 0.000, 12:41:16.187
168, -4508.20, -5210.02, -5037.28, -4454.66, 0.000, 0.000, 0.000, 12:41:16.187
169, -4517.17, -5229.75, -5031.75, -4543.02, 0.000, 0.000, 0.000, 12:41:16.203
170, -4519.48, -5232.08, -5040.88, -4555.18, 0.000, 0.000, 0.000, 12:41:16.203
171, -4499.51, -5186.75, -5032.59, -4425.79, 0.000, 0.000, 0.000, 12:41:16.218
172, -4510.64, -5199.91, -5053.98, -4474.01, 0.000, 0.000, 0.000, 12:41:16.218
173, -4519.89, -5232.23, -5033.28, -4549.27, 0.000, 0.000, 0.000, 12:41:16.218
174, -4519.36, -5235.14, -5039.62, -4547.38, 0.000, 0.000, 0.000, 12:41:16.218
175, -4510.95, -5193.64, -5036.82, -4416.55, 0.000, 0.000, 0.000, 12:41:16.232
176, -4503.68, -5195.90, -5032.50, -4470.73, 0.000, 0.000, 0.000, 12:41:16.232
177, -4512.34, -5228.24, -5039.96, -4551.56, 0.000, 0.000, 0.000, 12:41:16.248
178, -4529.47, -5251.70, -5034.75, -4546.05, 0.000, 0.000, 0.000, 12:41:16.248
179, -4506.45, -5182.19, -5031.42, -4420.28, 0.000, 0.000, 0.000, 12:41:16.248
180, -4499.42, -5200.15, -5026.55, -4459.41, 0.000, 0.000, 0.000, 12:41:16.249
181, -4521.54, -5237.46, -5042.96, -4563.09, 0.000, 0.000, 0.000, 12:41:16.263
182, -4518.04, -5231.39, -5042.56, -4540.99, 0.000, 0.000, 0.000, 12:41:16.263
183, -4504.39, -5184.94, -5048.55, -4427.96, 0.000, 0.000, 0.000, 12:41:16.277
184, -4504.85, -5206.82, -5022.88, -4455.42, 0.000, 0.000, 0.000, 12:41:16.277
185, -4503.44, -5232.44, -5030.90, -4548.30, 0.000, 0.000, 0.000, 12:41:16.278
186, -4511.16, -5226.83, -5030.01, -4542.64, 0.000, 0.000, 0.000, 12:41:16.278
187, -4498.25, -5174.02, -5020.91, -4414.09, 0.000, 0.000, 0.000, 12:41:16.299
188, -4505.92, -5226.03, -5056.16, -4482.25, 0.000, 0.000, 0.000, 12:41:16.302
189, -4512.32, -5242.78, -5047.44, -4549.32, 0.000, 0.000, 0.000, 12:41:16.307
190, -4513.86, -5218.63, -5019.42, -4528.54, 0.000, 0.000, 0.000, 12:41:16.307
191, -4506.74, -5181.20, -5021.96, -4403.76, 0.000, 0.000, 0.000, 12:41:16.308
192, -4503.36, -5191.63, -5024.65, -4477.23, 0.000, 0.000, 0.000, 12:41:16.308
193, -4516.45, -5237.69, -5036.93, -4530.14, 0.000, 0.000, 0.000, 12:41:16.322
194, -4522.03, -5227.45, -5052.51, -4542.08, 0.000, 0.000, 0.000, 12:41:16.322
195, -4504.88, -5185.57, -5035.60, -4411.72, 0.000, 0.000, 0.000, 12:41:16.337
196, -4510.60, -5206.25, -5030.30, -4453.76, 0.000, 0.000, 0.000, 12:41:16.337
197, -4528.11, -5239.48, -5037.29, -4549.00, 0.000, 0.000, 0.000, 12:41:16.338
198, -4526.26, -5232.92, -5050.25, -4565.49, 0.000, 0.000, 0.000, 12:41:16.338
199, -4510.48, -5193.89, -5029.88, -4426.82, 0.000, 0.000, 0.000, 12:41:16.352
200, -4503.77, -5222.45, -5029.90, -4463.34, 0.000, 0.000, 0.000, 12:41:16.352
0, -4510.94, -5224.88, -5037.53, -4549.31, 0.000, 0.000, 0.000, 12:41:16.353
1, -4513.97, -5207.31, -5044.07, -4529.07, 0.000, 0.000, 0.000, 12:41:16.368
2, -4488.31, -5173.73, -5021.50, -4424.07, 0.000, 0.000, 0.000, 12:41:16.368
3, -4495.32, -5203.53, -5031.83, -4461.94, 0.000, 0.000, 0.000, 12:41:16.382
4, -4516.57, -5237.01, -5038.76, -4536.83, 0.000, 0.000, 0.000, 12:41:16.383
5, -4520.89, -5226.34, -5046.34, -4540.20, 0.000, 0.000, 0.000, 12:41:16.383
6, -4495.60, -5187.77, -5047.61, -4420.71, 0.000, 0.000, 0.000, 12:41:16.384
7, -4494.57, -5226.64, -5046.50, -4472.88, 0.000, 0.000, 0.000, 12:41:16.398
8, -4508.63, -5237.67, -5026.71, -4536.78, 0.000, 0.000, 0.000, 12:41:16.398
9, -4515.67, -5236.11, -5040.21, -4534.77, 0.000, 0.000, 0.000, 12:41:16.413
10, -4505.28, -5178.84, -5043.30, -4410.19, 0.000, 0.000, 0.000, 12:41:16.413
11, -4495.99, -5196.23, -5029.28, -4451.57, 0.000, 0.000, 0.000, 12:41:16.413
12, -4514.45, -5245.13, -5027.15, -4547.85, 0.000, 0.000, 0.000, 12:41:16.414
13, -4508.74, -5219.25, -5034.90, -4528.44, 0.000, 0.000, 0.000, 12:41:16.428
14, -4500.10, -5169.16, -5051.90, -4419.20, 0.000, 0.000, 0.000, 12:41:16.428
15, -4498.91, -5199.88, -5046.96, -4449.36, 0.000, 0.000, 0.000, 12:41:16.442
16, -4519.95, -5248.02, -5020.64, -4551.57, 0.000, 0.000, 0.000, 12:41:16.442
17, -4533.49, -5238.90, -5034.31, -4558.83, 0.000, 0.000, 0.000, 12:41:16.443
18, -4508.38, -5183.50, -5024.60, -4403.48, 0.000, 0.000, 0.000, 12:41:16.443
19, -4511.32, -5213.74, -5039.06, -4470.98, 0.000, 0.000, 0.000, 12:41:16.457
20, -4532.50, -5255.67, -5057.16, -4559.14, 0.000, 0.000, 0.000, 12:41:16.457
21, -4540.09, -5246.39, -5057.21, -4555.72, 0.000, 0.000, 0.000, 12:41:16.472
22, -4517.95, -5207.22, -5034.71, -4432.49, 0.000, 0.000, 0.000, 12:41:16.473
23, -4521.07, -5227.16, -5049.67, -4470.77, 0.000, 0.000, 0.000, 12:41:16.473
24, -4543.15, -5253.14, -5045.75, -4557.80, 0.000, 0.000, 0.000, 12:41:16.473
25, -4532.36, -5231.75, -5050.95, -4543.73, 0.000, 0.000, 0.000, 12:41:16.488
26, -4516.47, -5178.53, -5045.58, -4416.36, 0.000, 0.000, 0.000, 12:41:16.488
27, -4498.30, -5194.26, -5022.92, -4446.16, 0.000, 0.000, 0.000, 12:41:16.502
28, -4520.01, -5237.40, -5044.06, -4556.52, 0.000, 0.000, 0.000, 12:41:16.502
29, -4518.92, -5235.12, -5040.46, -4532.78, 0.000, 0.000, 0.000, 12:41:16.503
30, -4506.92, -5197.02, -5039.09, -4405.05, 0.000, 0.000, 0.000, 12:41:16.503
31, -4502.84, -5189.97, -5010.53, -4458.36, 0.000, 0.000, 0.000, 12:41:16.517
32, -4515.67, -5231.43, -5032.22, -4548.90, 0.000, 0.000, 0.000, 12:41:16.517
33, -4513.66, -5217.53, -5044.74, -4539.07, 0.000, 0.000, 0.000, 12:41:16.532
34, -4490.92, -5180.91, -5022.25, -4415.35, 0.000, 0.000, 0.000, 12:41:16.532
35, -4505.70, -5212.99, -5026.26, -4457.13, 0.000, 0.000, 0.000, 12:41:16.533
36, -4517.16, -5240.55, -5042.70, -4557.86, 0.000, 0.000, 0.000, 12:41:16.534
37, -4509.29, -5217.81, -5036.62, -4541.86, 0.000, 0.000, 0.000, 12:41:16.547
38, -4492.99, -5183.14, -5019.80, -4412.36, 0.000, 0.000, 0.000, 12:41:16.547
39, -4497.08, -5208.27, -5021.26, -4462.37, 0.000, 0.000, 0.000, 12:41:16.563
40, -4510.34, -5251.56, -5035.52, -4549.88, 0.000, 0.000, 0.000, 12:41:16.564
41, -4520.20, -5247.06, -5059.53, -4557.85, 0.000, 0.000, 0.000, 12:41:16.564
42, -4493.76, -5189.19, -5047.50, -4412.49, 0.000, 0.000, 0.000, 12:41:16.564
43, -4491.17, -5207.91, -5041.99, -4462.67, 0.000, 0.000, 0.000, 12:41:16.577
44, -4516.95, -5250.21, -5036.90, -4569.17, 0.000, 0.000, 0.000, 12:41:16.577
45, -4512.55, -5220.08, -5014.68, -4533.65, 0.000, 0.000, 0.000, 12:41:16.592
46, -4499.34, -5175.66, -5026.73, -4430.86, 0.000, 0.000, 0.000, 12:41:16.592
47, -4504.02, -5199.93, -5019.51, -4477.37, 0.000, 0.000, 0.000, 12:41:16.600
48, -4507.91, -5239.84, -5030.33, -4546.08, 0.000, 0.000, 0.000, 12:41:16.600
49, -4519.79, -5228.94, -5045.42, -4530.97, 0.000, 0.000, 0.000, 12:41:16.607
50, -4501.78, -5198.41, -5031.00, -4421.72, 0.000, 0.000, 0.000, 12:41:16.607
51, -4506.67, -5216.45, -5035.86, -4470.03, 0.000, 0.000, 0.000, 12:41:16.622
52, -4529.94, -5248.62, -5049.41, -4556.40, 0.000, 0.000, 0.000, 12:41:16.622
53, -4517.58, -5228.83, -5058.96, -4534.12, 0.000, 0.000, 0.000, 12:41:16.623
54, -4513.57, -5210.46, -5051.05, -4421.96, 0.000, 0.000, 0.000, 12:41:16.623
55, -4511.67, -5208.65, -5033.29, -4481.86, 0.000, 0.000, 0.000, 12:41:16.637
56, -4527.90, -5226.54, -5026.44, -4538.05, 0.000, 0.000, 0.000, 12:41:16.637
57, -4530.90, -5224.11, -5031.90, -4525.20, 0.000, 0.000, 0.000, 12:41:16.652
58, -4517.77, -5186.81, -5036.79, -4423.57, 0.000, 0.000, 0.000, 12:41:16.652
59, -4512.56, -5235.75, -5039.00, -4473.85, 0.000, 0.000, 0.000, 12:41:16.652
60, -4515.44, -5257.40, -5052.75, -4551.69, 0.000, 0.000, 0.000, 12:41:16.653
61, -4523.00, -5233.89, -5069.40, -4541.98, 0.000, 0.000, 0.000, 12:41:16.668
62, -4507.74, -5192.94, -5044.33, -4423.39, 0.000, 0.000, 0.000, 12:41:16.668
63, -4507.44, -5207.60, -5013.37, -4481.82, 0.000, 0.000, 0.000, 12:41:16.682
64, -4529.71, -5235.04, -5030.45, -4550.18, 0.000, 0.000, 0.000, 12:41:16.683
65, -4519.35, -5218.91, -5039.03, -4532.62, 0.000, 0.000, 0.000, 12:41:16.684
66, -4506.98, -5179.96, -5035.80, -4417.37, 0.000, 0.000, 0.000, 12:41:16.684
67, -4507.36, -5217.54, -5038.75, -4475.55, 0.000, 0.000, 0.000, 12:41:16.698
68, -4515.11, -5247.36, -5050.04, -4544.45, 0.000, 0.000, 0.000, 12:41:16.699
69, -4517.50, -5237.27, -5052.43, -4541.35, 0.000, 0.000, 0.000, 12:41:16.712
70, -4499.88, -5181.10, -5040.52, -4416.67, 0.000, 0.000, 0.000, 12:41:16.713
71, -4513.17, -5212.04, -5022.75, -4480.22, 0.000, 0.000, 0.000, 12:41:16.713
72, -4511.25, -5241.12, -5029.38, -4548.87, 0.000, 0.000, 0.000, 12:41:16.713
73, -4523.40, -5235.01, -5049.89, -4546.53, 0.000, 0.000, 0.000, 12:41:16.728
74, -4507.04, -5177.31, -5038.29, -4427.42, 0.000, 0.000, 0.000, 12:41:16.728
75, -4513.87, -5216.37, -5049.06, -4462.43, 0.000, 0.000, 0.000, 12:41:16.742
76, -4525.29, -5247.21, -5038.20, -4558.27, 0.000, 0.000, 0.000, 12:41:16.742
77, -4531.70, -5223.67, -5048.23, -4534.33, 0.000, 0.000, 0.000, 12:41:16.742
78, -4496.90, -5192.83, -5030.49, -4417.17, 0.000, 0.000, 0.000, 12:41:16.742
79, -4505.16, -5197.76, -5023.84, -4471.31, 0.000, 0.000, 0.000, 12:41:16.757
80, -4520.30, -5232.04, -5038.70, -4554.40, 0.000, 0.000, 0.000, 12:41:16.757
81, -4512.38, -5218.39, -5039.85, -4518.23, 0.000, 0.000, 0.000, 12:41:16.772
82, -4496.93, -5186.64, -5024.47, -4406.42, 0.000, 0.000, 0.000, 12:41:16.772
83, -4508.96, -5214.98, -5037.61, -4481.09, 0.000, 0.000, 0.000, 12:41:16.773
84, -4516.76, -5241.12, -5052.31, -4553.64, 0.000, 0.000, 0.000, 12:41:16.773
85, -4521.96, -5231.05, -5049.47, -4526.40, 0.000, 0.000, 0.000, 12:41:16.787
86, -4489.81, -5171.75, -5027.98, -4414.27, 0.000, 0.000, 0.000, 12:41:16.787
87, -4490.04, -5185.43, -5003.74, -4461.96, 0.000, 0.000, 0.000, 12:41:16.803
88, -4515.36, -5251.63, -5033.03, -4567.81, 0.000, 0.000, 0.000, 12:41:16.803
89, -4511.19, -5222.31, -5051.92, -4530.19, 0.000, 0.000, 0.000, 12:41:16.803
90, -4499.36, -5187.63, -5028.69, -4414.42, 0.000, 0.000, 0.000, 12:41:16.803
91, -4503.57, -5204.92, -5026.37, -4465.86, 0.000, 0.000, 0.000, 12:41:16.818
92, -4518.67, -5247.53, -5037.98, -4555.11, 0.000, 0.000, 0.000, 12:41:16.818
93, -4516.04, -5210.50, -5021.65, -4529.35, 0.000, 0.000, 0.000, 12:41:16.832
94, -4499.96, -5197.28, -5024.16, -4423.45, 0.000, 0.000, 0.000, 12:41:16.833
95, -4503.17, -5202.77, -5030.19, -4472.23, 0.000, 0.000, 0.000, 12:41:16.834
96, -4511.32, -5230.86, -5051.56, -4548.34, 0.000, 0.000, 0.000, 12:41:16.834
97, -4516.63, -5223.26, -5046.71, -4521.80, 0.000, 0.000, 0.000, 12:41:16.848
98, -4503.73, -5177.67, -5012.75, -4415.59, 0.000, 0.000, 0.000, 12:41:16.848
99, -4510.91, -5211.81, -5032.27, -4486.19, 0.000, 0.000, 0.000, 12:41:16.863
100, -4519.88, -5242.75, -5045.29, -4550.40, 0.000, 0.000, 0.000, 12:41:16.863
101, -4516.53, -5251.89, -5045.14, -4530.37, 0.000, 0.000, 0.000, 12:41:16.864
102, -4502.25, -5212.73, -5055.26, -4415.33, 0.000, 0.000, 0.000, 12:41:16.864
103, -4499.31, -5200.54, -5035.85, -4469.56, 0.000, 0.000, 0.000, 12:41:16.878
104, -4516.79, -5234.61, -5041.19, -4556.20, 0.000, 0.000, 0.000, 12:41:16.878
105, -4519.03, -5223.26, -5052.25, -4520.85, 0.000, 0.000, 0.000, 12:41:16.892
106, -4500.59, -5182.04, -5045.69, -4428.65, 0.000, 0.000, 0.000, 12:41:16.892
107, -4512.12, -5233.17, -5038.92, -4482.06, 0.000, 0.000, 0.000, 12:41:16.893
108, -4521.23, -5262.76, -5039.98, -4567.86, 0.000, 0.000, 0.000, 12:41:16.893
109, -4513.14, -5212.76, -5046.21, -4524.73, 0.000, 0.000, 0.000, 12:41:16.907
110, -4494.44, -5166.66, -5045.93, -4402.46, 0.000, 0.000, 0.000, 12:41:16.907
111, -4501.00, -5197.58, -5029.37, -4464.22, 0.000, 0.000, 0.000, 12:41:16.922
112, -4513.25, -5242.35, -5030.54, -4535.11, 0.000, 0.000, 0.000, 12:41:16.922
113, -4515.53, -5245.40, -5041.18, -4518.11, 0.000, 0.000, 0.000, 12:41:16.923
114, -4502.02, -5187.27, -5047.23, -4421.75, 0.000, 0.000, 0.000, 12:41:16.923
115, -4507.33, -5205.64, -5040.36, -4481.97, 0.000, 0.000, 0.000, 12:41:16.937
116, -4519.26, -5235.06, -5047.18, -4573.27, 0.000, 0.000, 0.000, 12:41:16.937
117, -4518.90, -5226.94, -5037.44, -4528.24, 0.000, 0.000, 0.000, 12:41:16.953
118, -4504.14, -5184.83, -5028.90, -4410.15, 0.000, 0.000, 0.000, 12:41:16.953
119, -4504.77, -5212.93, -5024.68, -4473.37, 0.000, 0.000, 0.000, 12:41:16.953
120, -4511.85, -5249.17, -5036.09, -4558.20, 0.000, 0.000, 0.000, 12:41:16.953
121, -4518.81, -5228.05, -5052.17, -4530.39, 0.000, 0.000, 0.000, 12:41:16.968
122, -4506.53, -5193.76, -5049.20, -4415.80, 0.000, 0.000, 0.000, 12:41:16.968
123, -4517.43, -5223.85, -5059.64, -4481.29, 0.000, 0.000, 0.000, 12:41:16.982
124, -4524.38, -5235.37, -5048.61, -4575.86, 0.000, 0.000, 0.000, 12:41:16.982
125, -4523.02, -5219.93, -5037.03, -4529.40, 0.000, 0.000, 0.000, 12:41:16.983
126, -4506.37, -5175.81, -5028.99, -4415.80, 0.000, 0.000, 0.000, 12:41:16.984
127, -4512.50, -5218.08, -5033.69, -4469.11, 0.000, 0.000, 0.000, 12:41:16.997
128, -4522.12, -5257.07, -5039.33, -4570.60, 0.000, 0.000, 0.000, 12:41:16.997
129, -4520.28, -5231.86, -5043.17, -4531.52, 0.000, 0.000, 0.000, 12:41:17.013
130, -4511.50, -5201.06, -5031.99, -4429.81, 0.000, 0.000, 0.000, 12:41:17.013
131, -4510.71, -5193.62, -5039.05, -4487.66, 0.000, 0.000, 0.000, 12:41:17.014
132, -4528.32, -5243.18, -5060.80, -4556.91, 0.000, 0.000, 0.000, 12:41:17.014
133, -4531.41, -5227.95, -5047.61, -4522.75, 0.000, 0.000, 0.000, 12:41:17.028
134, -4504.95, -5189.92, -5032.04, -4414.48, 0.000, 0.000, 0.000, 12:41:17.028
135, -4507.34, -5222.71, -5030.26, -4484.68, 0.000, 0.000, 0.000, 12:41:17.042
136, -4529.45, -5257.42, -5049.49, -4564.96, 0.000, 0.000, 0.000, 12:41:17.042
137, -4522.23, -5223.07, -5057.37, -4518.62, 0.000, 0.000, 0.000, 12:41:17.043
138, -4506.77, -5197.01, -5047.25, -4405.33, 0.000, 0.000, 0.000, 12:41:17.043
139, -4508.30, -5223.03, -5057.11, -4473.16, 0.000, 0.000, 0.000, 12:41:17.057
140, -4526.40, -5253.26, -5044.14, -4552.90, 0.000, 0.000, 0.000, 12:41:17.057
141, -4522.51, -5222.12, -5032.14, -4521.86, 0.000, 0.000, 0.000, 12:41:17.073
142, -4503.63, -5173.73, -5040.35, -4410.07, 0.000, 0.000, 0.000, 12:41:17.073
143, -4510.77, -5197.92, -5019.18, -4483.51, 0.000, 0.000, 0.000, 12:41:17.073
144, -4517.40, -5240.34, -5023.63, -4554.90, 0.000, 0.000, 0.000, 12:41:17.073
145, -4515.44, -5215.83, -5030.30, -4512.07, 0.000, 0.000, 0.000, 12:41:17.087
146, -4505.84, -5185.16, -5031.82, -4408.66, 0.000, 0.000, 0.000, 12:41:17.087
147, -4510.75, -5223.57, -5058.10, -4489.51, 0.000, 0.000, 0.000, 12:41:17.102
148, -4522.33, -5252.19, -5030.66, -4579.35, 0.000, 0.000, 0.000, 12:41:17.102
149, -4517.78, -5215.80, -5037.46, -4530.62, 0.000, 0.000, 0.000, 12:41:17.103
150, -4498.83, -5180.32, -5023.50, -4417.77, 0.000, 0.000, 0.000, 12:41:17.103
151, -4505.91, -5199.67, -5034.81, -4478.24, 0.000, 0.000, 0.000, 12:41:17.117
152, -4517.30, -5261.35, -5041.39, -4558.81, 0.000, 0.000, 0.000, 12:41:17.117
153, -4511.94, -5222.68, -5041.85, -4507.50, 0.000, 0.000, 0.000, 12:41:17.132
154, -4500.42, -5173.48, -5043.94, -4416.02, 0.000, 0.000, 0.000, 12:41:17.133
155, -4503.22, -5209.87, -5043.31, -4481.08, 0.000, 0.000, 0.000, 12:41:17.133
156, -4518.95, -5265.49, -5033.39, -4566.80, 0.000, 0.000, 0.000, 12:41:17.134
157, -4518.07, -5236.38, -5040.85, -4512.99, 0.000, 0.000, 0.000, 12:41:17.147
158, -4506.55, -5191.08, -5031.35, -4426.52, 0.000, 0.000, 0.000, 12:41:17.148
159, -4506.10, -5209.26, -5028.56, -4476.67, 0.000, 0.000, 0.000, 12:41:17.162
160, -4527.66, -5247.67, -5053.16, -4569.01, 0.000, 0.000, 0.000, 12:41:17.163
161, -4523.51, -5222.61, -5063.91, -4520.56, 0.000, 0.000, 0.000, 12:41:17.163
162, -4507.89, -5187.13, -5030.76, -4419.03, 0.000, 0.000, 0.000, 12:41:17.163
163, -4498.66, -5198.71, -5012.08, -4465.03, 0.000, 0.000, 0.000, 12:41:17.177
164, -4512.36, -5240.59, -5025.73, -4559.94, 0.000, 0.000, 0.000, 12:41:17.177
165, -4523.34, -5218.99, -5030.11, -4519.41, 0.000, 0.000, 0.000, 12:41:17.192
166, -4500.93, -5187.00, -5031.65, -4419.41, 0.000, 0.000, 0.000, 12:41:17.192
167, -4518.77, -5222.64, -5052.54, -4487.80, 0.000, 0.000, 0.000, 12:41:17.193
168, -4527.91, -5256.99, -5044.08, -4571.62, 0.000, 0.000, 0.000, 12:41:17.193
169, -4519.35, -5222.77, -5042.13, -4508.08, 0.000, 0.000, 0.000, 12:41:17.207
170, -4507.59, -5195.86, -5040.48, -4418.47, 0.000, 0.000, 0.000, 12:41:17.208
171, -4505.05, -5212.78, -5031.28, -4481.19, 0.000, 0.000, 0.000, 12:41:17.223
172, -4521.93, -5257.01, -5048.81, -4565.79, 0.000, 0.000, 0.000, 12:41:17.223
173, -4513.86, -5204.98, -5032.82, -4504.07, 0.000, 0.000, 0.000, 12:41:17.223
174, -4498.06, -5182.01, -5023.26, -4418.91, 0.000, 0.000, 0.000, 12:41:17.223
175, -4517.37, -5233.40, -5053.15, -4501.55, 0.000, 0.000, 0.000, 12:41:17.237
176, -4524.26, -5243.68, -5041.36, -4559.97, 0.000, 0.000, 0.000, 12:41:17.237
177, -4519.15, -5206.69, -5033.03, -4510.45, 0.000, 0.000, 0.000, 12:41:17.252
178, -4505.51, -5190.85, -5032.04, -4418.62, 0.000, 0.000, 0.000, 12:41:17.252
179, -4510.40, -5235.51, -5030.88, -4491.02, 0.000, 0.000, 0.000, 12:41:17.253
180, -4521.59, -5245.56, -5048.73, -4575.96, 0.000, 0.000, 0.000, 12:41:17.253
181, -4526.06, -5208.78, -5049.56, -4519.64, 0.000, 0.000, 0.000, 12:41:17.274
182, -4506.85, -5183.46, -5044.90, -4421.61, 0.000, 0.000, 0.000, 12:41:17.274
183, -4510.39, -5223.62, -5052.83, -4491.40, 0.000, 0.000, 0.000, 12:41:17.282
184, -4523.60, -5243.36, -5045.93, -4563.50, 0.000, 0.000, 0.000, 12:41:17.282
185, -4517.88, -5205.88, -5024.57, -4500.38, 0.000, 0.000, 0.000, 12:41:17.283
186, -4497.56, -5192.84, -5029.68, -4404.35, 0.000, 0.000, 0.000, 12:41:17.284
187, -4512.20, -5215.20, -5044.05, -4494.36, 0.000, 0.000, 0.000, 12:41:17.298
188, -4512.74, -5256.54, -5047.85, -4568.26, 0.000, 0.000, 0.000, 12:41:17.298
189, -4521.12, -5229.84, -5047.95, -4507.42, 0.000, 0.000, 0.000, 12:41:17.313
190, -4498.67, -5193.36, -5048.31, -4424.04, 0.000, 0.000, 0.000, 12:41:17.313
191, -4509.78, -5201.20, -5038.10, -4492.03, 0.000, 0.000, 0.000, 12:41:17.313
192, -4527.52, -5238.68, -5046.23, -4561.70, 0.000, 0.000, 0.000, 12:41:17.313
193, -4512.22, -5215.08, -5035.86, -4507.24, 0.000, 0.000, 0.000, 12:41:17.327
194, -4504.96, -5193.84, -5047.63, -4423.38, 0.000, 0.000, 0.000, 12:41:17.327
195, -4506.61, -5231.75, -5034.87, -4487.07, 0.000, 0.000, 0.000, 12:41:17.342
196, -4525.20, -5260.49, -5034.23, -4559.84, 0.000, 0.000, 0.000, 12:41:17.342
197, -4523.27, -5219.93, -5052.07, -4497.35, 0.000, 0.000, 0.000, 12:41:17.343
198, -4510.42, -5192.02, -5044.01, -4428.91, 0.000, 0.000, 0.000, 12:41:17.343
199, -4508.34, -5207.58, -5041.24, -4496.81, 0.000, 0.000, 0.000, 12:41:17.357
200, -4517.98, -5274.28, -5055.99, -4569.89, 0.000, 0.000, 0.000, 12:41:17.357
0, -4528.01, -5233.15, -5049.32, -4515.39, 0.000, 0.000, 0.000, 12:41:17.358
1, -4498.12, -5183.86, -5045.44, -4431.97, 0.000, 0.000, 0.000, 12:41:17.372
2, -4508.79, -5210.05, -5050.01, -4495.17, 0.000, 0.000, 0.000, 12:41:17.372
3, -4513.40, -5243.13, -5030.66, -4569.17, 0.000, 0.000, 0.000, 12:41:17.387
4, -4519.59, -5217.04, -5035.02, -4510.83, 0.000, 0.000, 0.000, 12:41:17.387
5, -4506.67, -5197.57, -5027.06, -4415.19, 0.000, 0.000, 0.000, 12:41:17.388
6, -4505.98, -5207.70, -5029.53, -4496.53, 0.000, 0.000, 0.000, 12:41:17.388
7, -4520.22, -5246.34, -5042.74, -4574.92, 0.000, 0.000, 0.000, 12:41:17.402
8, -4513.26, -5224.40, -5042.75, -4500.69, 0.000, 0.000, 0.000, 12:41:17.403
9, -4489.41, -5182.92, -5026.60, -4416.41, 0.000, 0.000, 0.000, 12:41:17.417
10, -4499.77, -5234.18, -5051.20, -4497.00, 0.000, 0.000, 0.000, 12:41:17.417
11, -4530.29, -5266.77, -5067.27, -4567.62, 0.000, 0.000, 0.000, 12:41:17.417
12, -4513.69, -5196.33, -5036.40, -4509.14, 0.000, 0.000, 0.000, 12:41:17.417
13, -4499.78, -5177.22, -5013.70, -4429.51, 0.000, 0.000, 0.000, 12:41:17.433
14, -4501.92, -5200.99, -5028.78, -4489.61, 0.000, 0.000, 0.000, 12:41:17.433
15, -4510.93, -5243.34, -5036.18, -4564.60, 0.000, 0.000, 0.000, 12:41:17.447
16, -4509.07, -5223.27, -5039.57, -4500.08, 0.000, 0.000, 0.000, 12:41:17.447
17, -4508.02, -5201.24, -5029.44, -4422.80, 0.000, 0.000, 0.000, 12:41:17.447
18, -4504.04, -5202.57, -5024.00, -4487.50, 0.000, 0.000, 0.000, 12:41:17.448
19, -4522.85, -5240.17, -5042.50, -4564.58, 0.000, 0.000, 0.000, 12:41:17.463
20, -4516.07, -5220.89, -5052.18, -4499.88, 0.000, 0.000, 0.000, 12:41:17.463
21, -4505.19, -5180.37, -5027.02, -4423.46, 0.000, 0.000, 0.000, 12:41:17.477
22, -4508.28, -5217.25, -5030.50, -4492.91, 0.000, 0.000, 0.000, 12:41:17.477
23, -4520.29, -5245.73, -5052.12, -4563.59, 0.000, 0.000, 0.000, 12:41:17.478
24, -4522.56, -5229.06, -5051.35, -4505.48, 0.000, 0.000, 0.000, 12:41:17.478
25, -4519.62, -5189.19, -5039.13, -4424.09, 0.000, 0.000, 0.000, 12:41:17.492
26, -4511.27, -5208.65, -5023.13, -4489.28, 0.000, 0.000, 0.000, 12:41:17.492
27, -4522.34, -5248.49, -5037.45, -4571.63, 0.000, 0.000, 0.000, 12:41:17.507
28, -4521.02, -5219.21, -5043.32, -4494.40, 0.000, 0.000, 0.000, 12:41:17.507
29, -4506.20, -5181.67, -5029.61, -4416.98, 0.000, 0.000, 0.000, 12:41:17.508
30, -4509.98, -5221.07, -5042.71, -4490.18, 0.000, 0.000, 0.000, 12:41:17.508
31, -4523.68, -5250.98, -5043.77, -4577.56, 0.000, 0.000, 0.000, 12:41:17.522
32, -4523.78, -5224.87, -5055.31, -4513.55, 0.000, 0.000, 0.000, 12:41:17.522
33, -4502.73, -5182.96, -5032.93, -4417.39, 0.000, 0.000, 0.000, 12:41:17.538
34, -4506.03, -5200.54, -5023.43, -4488.31, 0.000, 0.000, 0.000, 12:41:17.538
35, -4517.24, -5234.68, -5035.20, -4561.88, 0.000, 0.000, 0.000, 12:41:17.538
36, -4515.40, -5214.79, -5040.85, -4489.92, 0.000, 0.000, 0.000, 12:41:17.538
37, -4504.19, -5195.08, -5051.34, -4430.30, 0.000, 0.000, 0.000, 12:41:17.553
38, -4504.90, -5218.49, -5031.63, -4485.09, 0.000, 0.000, 0.000, 12:41:17.553
39, -4524.19, -5257.39, -5043.16, -4573.40, 0.000, 0.000, 0.000, 12:41:17.567
40, -4516.71, -5225.15, -5040.26, -4494.02, 0.000, 0.000, 0.000, 12:41:17.567
41, -4496.54, -5183.50, -5027.89, -4421.70, 0.000, 0.000, 0.000, 12:41:17.567
42, -4510.10, -5203.37, -5032.89, -4491.50, 0.000, 0.000, 0.000, 12:41:17.567
43, -4531.27, -5251.99, -5046.71, -4574.35, 0.000, 0.000, 0.000, 12:41:17.582
44, -4517.31, -5206.76, -5040.79, -4491.81, 0.000, 0.000, 0.000, 12:41:17.583
45, -4498.99, -5188.38, -5032.46, -4418.79, 0.000, 0.000, 0.000, 12:41:17.597
46, -4507.57, -5226.82, -5035.16, -4493.41, 0.000, 0.000, 0.000, 12:41:17.598
47, -4518.64, -5246.81, -5049.62, -4568.95, 0.000, 0.000, 0.000, 12:41:17.598
48, -4512.73, -5203.75, -5048.52, -4485.71, 0.000, 0.000, 0.000, 12:41:17.598
49, -4518.00, -5216.75, -5043.53, -4424.17, 0.000, 0.000, 0.000, 12:41:17.612
50, -4502.55, -5201.12, -5033.12, -4490.80, 0.000, 0.000, 0.000, 12:41:17.613
51, -4519.71, -5254.76, -5053.14, -4553.18, 0.000, 0.000, 0.000, 12:41:17.628
52, -4510.63, -5206.51, -5045.04, -4496.94, 0.000, 0.000, 0.000, 12:41:17.628
53, -4502.48, -5174.82, -5014.66, -4416.36, 0.000, 0.000, 0.000, 12:41:17.628
54, -4519.28, -5223.30, -5037.30, -4500.92, 0.000, 0.000, 0.000, 12:41:17.628
55, -4520.40, -5245.86, -5032.59, -4567.69, 0.000, 0.000, 0.000, 12:41:17.642
56, -4516.41, -5217.53, -5041.08, -4488.74, 0.000, 0.000, 0.000, 12:41:17.642
57, -4504.53, -5191.71, -5030.24, -4427.48, 0.000, 0.000, 0.000, 12:41:17.657
58, -4501.56, -5224.22, -5030.49, -4486.83, 0.000, 0.000, 0.000, 12:41:17.657
59, -4525.66, -5245.43, -5047.81, -4570.60, 0.000, 0.000, 0.000, 12:41:17.658
60, -4524.66, -5205.02, -5046.02, -4500.08, 0.000, 0.000, 0.000, 12:41:17.658
61, -4505.04, -5178.81, -5034.80, -4434.46, 0.000, 0.000, 0.000, 12:41:17.672
62, -4510.09, -5226.11, -5046.43, -4506.01, 0.000, 0.000, 0.000, 12:41:17.672
63, -4543.95, -5264.87, -5061.95, -4579.54, 0.000, 0.000, 0.000, 12:41:17.687
64, -4522.50, -5221.32, -5051.78, -4493.24, 0.000, 0.000, 0.000, 12:41:17.687
65, -4507.40, -5203.48, -5023.76, -4427.54, 0.000, 0.000, 0.000, 12:41:17.695
66, -4523.69, -5223.14, -5031.41, -4504.38, 0.000, 0.000, 0.000, 12:41:17.695
67, -4541.06, -5254.17, -5061.91, -4580.78, 0.000, 0.000, 0.000, 12:41:17.702
68, -4519.28, -5214.94, -5048.29, -4494.23, 0.000, 0.000, 0.000, 12:41:17.703
69, -4508.98, -5186.52, -5028.47, -4428.91, 0.000, 0.000, 0.000, 12:41:17.718
70, -4514.59, -5225.23, -5030.37, -4511.93, 0.000, 0.000, 0.000, 12:41:17.718
71, -4525.40, -5256.59, -5044.44, -4580.48, 0.000, 0.000, 0.000, 12:41:17.718
72, -4525.04, -5218.49, -5047.06, -4504.81, 0.000, 0.000, 0.000, 12:41:17.718
73, -4510.23, -5180.55, -5029.31, -4423.67, 0.000, 0.000, 0.000, 12:41:17.732
74, -4517.13, -5225.88, -5037.58, -4498.07, 0.000, 0.000, 0.000, 12:41:17.733
75, -4524.88, -5252.18, -5041.18, -4563.12, 0.000, 0.000, 0.000, 12:41:17.747
76, -4524.91, -5230.32, -5026.70, -4492.04, 0.000, 0.000, 0.000, 12:41:17.748
77, -4512.88, -5193.96, -5029.14, -4431.80, 0.000, 0.000, 0.000, 12:41:17.748
78, -4517.17, -5219.88, -5023.68, -4506.27, 0.000, 0.000, 0.000, 12:41:17.748
79, -4529.99, -5228.23, -5038.08, -4567.15, 0.000, 0.000, 0.000, 12:41:17.762
80, -4525.27, -5194.02, -5029.57, -4490.40, 0.000, 0.000, 0.000, 12:41:17.762
81, -4508.10, -5207.49, -5033.39, -4429.57, 0.000, 0.000, 0.000, 12:41:17.778
82, -4530.37, -5227.73, -5047.11, -4498.54, 0.000, 0.000, 0.000, 12:41:17.778
83, -4530.22, -5243.03, -5052.39, -4574.48, 0.000, 0.000, 0.000, 12:41:17.778
84, -4522.06, -5204.52, -5044.66, -4500.80, 0.000, 0.000, 0.000, 12:41:17.778
85, -4513.61, -5180.84, -5029.64, -4437.23, 0.000, 0.000, 0.000, 12:41:17.807
86, -4520.57, -5221.96, -5038.88, -4493.59, 0.000, 0.000, 0.000, 12:41:17.807
87, -4532.20, -5257.02, -5047.12, -4585.52, 0.000, 0.000, 0.000, 12:41:17.809
88, -4521.94, -5213.97, -5041.04, -4493.72, 0.000, 0.000, 0.000, 12:41:17.809
89, -4510.76, -5181.97, -5039.06, -4426.05, 0.000, 0.000, 0.000, 12:41:17.809
90, -4504.58, -5221.19, -5040.90, -4494.81, 0.000, 0.000, 0.000, 12:41:17.810
91, -4524.44, -5238.60, -5043.14, -4574.27, 0.000, 0.000, 0.000, 12:41:17.822
92, -4526.97, -5196.08, -5039.67, -4495.19, 0.000, 0.000, 0.000, 12:41:17.822
93, -4511.94, -5199.23, -5033.10, -4443.45, 0.000, 0.000, 0.000, 12:41:17.838
94, -4514.50, -5211.25, -5031.19, -4501.61, 0.000, 0.000, 0.000, 12:41:17.838
95, -4527.50, -5250.97, -5045.33, -4575.15, 0.000, 0.000, 0.000, 12:41:17.838
96, -4517.65, -5193.84, -5052.13, -4480.70, 0.000, 0.000, 0.000, 12:41:17.838
97, -4502.38, -5186.24, -5030.19, -4431.57, 0.000, 0.000, 0.000, 12:41:17.852
98, -4502.89, -5217.47, -5028.42, -4496.74, 0.000, 0.000, 0.000, 12:41:17.853
99, -4535.21, -5273.02, -5051.88, -4568.63, 0.000, 0.000, 0.000, 12:41:17.867
100, -4521.40, -5208.80, -5058.89, -4488.90, 0.000, 0.000, 0.000, 12:41:17.867
