%OpenBCI Raw EEG Data
%
%Sample Rate = 200.0 Hz
%First Column = SampleIndex
%Last Column = Timestamp 
%Other Columns = EEG data in microvolts followed by Accel Data (in G) interleaved with Aux Data
0, -4368.15, -4972.16, -4756.99, -4316.68, 0.000, 0.000, 0.000, 12:35:16.081
1, -4297.98, -4940.29, -4672.35, -4392.31, 0.000, 0.000, 0.000, 12:35:16.096
2, -4359.59, -4977.58, -4723.27, -4446.80, 0.000, 0.000, 0.000, 12:35:16.096
3, -4383.52, -4994.73, -4768.43, -4285.50, 0.000, 0.000, 0.000, 12:35:16.110
4, -3533.22, -4395.64, -3927.34, -4388.54, 0.000, 0.000, 0.000, 12:35:16.111
5, -2623.16, -3720.11, -3029.12, -4755.08, 0.000, 0.000, 0.000, 12:35:16.111
6, -2296.33, -3467.55, -2701.20, -5057.26, 0.000, 0.000, 0.000, 12:35:16.112
7, -1739.45, -3037.07, -2163.33, -5146.33, 0.000, 0.000, 0.000, 12:35:16.125
8, -1561.08, -2885.47, -1997.56, -5280.61, 0.000, 0.000, 0.000, 12:35:16.125
9, -1333.38, -2730.04, -1744.28, -5452.46, 0.000, 0.000, 0.000, 12:35:16.140
10, -1118.75, -2587.34, -1527.80, -5587.70, 0.000, 0.000, 0.000, 12:35:16.140
11, -774.49, -2285.59, -1201.30, -5657.99, 0.000, 0.000, 0.000, 12:35:16.140
12, -850.01, -2340.47, -1273.63, -5672.28, 0.000, 0.000, 0.000, 12:35:16.140
13, -587.36, -2163.95, -1013.07, -5793.13, 0.000, 0.000, 0.000, 12:35:16.155
14, -440.40, -2084.63, -867.59, -5946.00, 0.000, 0.000, 0.000, 12:35:16.156
15, -256.47, -1897.95, -690.91, -5896.95, 0.000, 0.000, 0.000, 12:35:16.185
16, 124.48, -1620.17, -308.68, -5982.03, 0.000, 0.000, 0.000, 12:35:16.186
17, 709.98, -1201.16, 255.89, -6247.75, 0.000, 0.000, 0.000, 12:35:16.186
18, 1370.89, -731.36, 922.27, -6549.46, 0.000, 0.000, 0.000, 12:35:16.186
19, 1965.47, -270.27, 1510.20, -6745.82, 0.000, 0.000, 0.000, 12:35:16.187
20, 2366.91, 36.48, 1926.98, -6924.19, 0.000, 0.000, 0.000, 12:35:16.187
21, 2540.36, 153.46, 2105.99, -7145.57, 0.000, 0.000, 0.000, 12:35:16.187
22, 2459.56, 116.28, 2022.40, -7264.65, 0.000, 0.000, 0.000, 12:35:16.187
23, 2111.08, -86.18, 1649.56, -7091.92, 0.000, 0.000, 0.000, 12:35:16.201
24, 1700.98, -394.68, 1265.64, -6934.16, 0.000, 0.000, 0.000, 12:35:16.201
25, 1411.13, -634.07, 973.64, -6841.50, 0.000, 0.000, 0.000, 12:35:16.215
26, 1112.91, -869.86, 686.71, -6797.98, 0.000, 0.000, 0.000, 12:35:16.215
27, 631.07, -1195.87, 196.61, -6520.44, 0.000, 0.000, 0.000, 12:35:16.245
28, 168.10, -1547.06, -276.86, -6288.31, 0.000, 0.000, 0.000, 12:35:16.245
29, -237.53, -1868.62, -658.70, -6188.44, 0.000, 0.000, 0.000, 12:35:16.246
30, -629.75, -2179.71, -1049.62, -6089.28, 0.000, 0.000, 0.000, 12:35:16.246
31, -1060.86, -2480.14, -1526.00, -5779.23, 0.000, 0.000, 0.000, 12:35:16.246
32, -1351.65, -2709.91, -1774.41, -5591.71, 0.000, 0.000, 0.000, 12:35:16.246
33, -1539.16, -2867.04, -1943.83, -5542.81, 0.000, 0.000, 0.000, 12:35:16.247
34, -1716.22, -3028.98, -2133.33, -5520.45, 0.000, 0.000, 0.000, 12:35:16.247
35, -2000.18, -3201.14, -2449.45, -5297.64, 0.000, 0.000, 0.000, 12:35:16.260
36, -2193.64, -3352.22, -2652.46, -5150.48, 0.000, 0.000, 0.000, 12:35:16.260
37, -2317.19, -3488.38, -2756.36, -5169.44, 0.000, 0.000, 0.000, 12:35:16.275
38, -2445.92, -3622.13, -2911.61, -5209.56, 0.000, 0.000, 0.000, 12:35:16.275
39, -2678.66, -3788.56, -3162.28, -4966.19, 0.000, 0.000, 0.000, 12:35:16.291
40, -2825.37, -3913.99, -3367.33, -4802.97, 0.000, 0.000, 0.000, 12:35:16.291
41, -2940.76, -4039.78, -3505.48, -4831.30, 0.000, 0.000, 0.000, 12:35:16.298
42, -3008.18, -4134.77, -3604.97, -4813.61, 0.000, 0.000, 0.000, 12:35:16.298
43, -3067.29, -4169.04, -3709.87, -4603.11, 0.000, 0.000, 0.000, 12:35:16.305
44, -2899.78, -4072.50, -3560.65, -4576.13, 0.000, 0.000, 0.000, 12:35:16.305
45, -2610.21, -3898.68, -3298.63, -4748.48, 0.000, 0.000, 0.000, 12:35:16.320
46, -2489.12, -3822.36, -3200.90, -4879.11, 0.000, 0.000, 0.000, 12:35:16.320
47, -2509.57, -3827.78, -3260.48, -4760.15, 0.000, 0.000, 0.000, 12:35:16.320
48, -2306.52, -3695.51, -3062.55, -4761.84, 0.000, 0.000, 0.000, 12:35:16.321
49, -1822.71, -3345.07, -2569.85, -4955.72, 0.000, 0.000, 0.000, 12:35:16.335
50, -1403.71, -3023.98, -2149.15, -5237.31, 0.000, 0.000, 0.000, 12:35:16.335
51, -1450.58, -3026.97, -2211.75, -5196.59, 0.000, 0.000, 0.000, 12:35:16.350
52, -1583.08, -3103.82, -2322.86, -5159.50, 0.000, 0.000, 0.000, 12:35:16.350
53, -1699.80, -3188.96, -2417.94, -5231.46, 0.000, 0.000, 0.000, 12:35:16.350
54, -1834.67, -3285.32, -2570.06, -5278.26, 0.000, 0.000, 0.000, 12:35:16.350
55, -2100.26, -3422.79, -2794.70, -5070.98, 0.000, 0.000, 0.000, 12:35:16.365
56, -2290.57, -3560.68, -2943.88, -4970.50, 0.000, 0.000, 0.000, 12:35:16.365
57, -2408.72, -3629.33, -3047.04, -4978.48, 0.000, 0.000, 0.000, 12:35:16.380
58, -2542.12, -3720.15, -3162.50, -5026.31, 0.000, 0.000, 0.000, 12:35:16.380
59, -2768.40, -3854.47, -3375.41, -4813.97, 0.000, 0.000, 0.000, 12:35:16.381
60, -2924.92, -3959.03, -3512.88, -4725.92, 0.000, 0.000, 0.000, 12:35:16.381
61, -3013.31, -4048.42, -3569.74, -4794.96, 0.000, 0.000, 0.000, 12:35:16.395
62, -3093.80, -4098.15, -3615.75, -4861.28, 0.000, 0.000, 0.000, 12:35:16.395
63, -3245.63, -4172.81, -3797.90, -4661.16, 0.000, 0.000, 0.000, 12:35:16.426
64, -3359.77, -4251.02, -3906.50, -4564.67, 0.000, 0.000, 0.000, 12:35:16.426
65, -3411.53, -4304.09, -3903.27, -4627.94, 0.000, 0.000, 0.000, 12:35:16.426
66, -3441.04, -4299.34, -3911.09, -4691.80, 0.000, 0.000, 0.000, 12:35:16.426
67, -3578.15, -4363.93, -4062.16, -4529.85, 0.000, 0.000, 0.000, 12:35:16.427
68, -3672.68, -4457.09, -4156.40, -4446.93, 0.000, 0.000, 0.000, 12:35:16.427
69, -3684.34, -4468.93, -4142.95, -4511.14, 0.000, 0.000, 0.000, 12:35:16.428
70, -3710.65, -4504.10, -4134.26, -4618.91, 0.000, 0.000, 0.000, 12:35:16.428
71, -3818.87, -4545.68, -4262.02, -4414.19, 0.000, 0.000, 0.000, 12:35:16.440
72, -3887.64, -4585.31, -4331.75, -4359.03, 0.000, 0.000, 0.000, 12:35:16.440
73, -3864.02, -4573.14, -4307.29, -4452.19, 0.000, 0.000, 0.000, 12:35:16.455
74, -3853.43, -4590.00, -4284.41, -4530.03, 0.000, 0.000, 0.000, 12:35:16.455
75, -3961.26, -4635.54, -4386.30, -4349.07, 0.000, 0.000, 0.000, 12:35:16.470
76, -4010.97, -4699.23, -4433.31, -4299.31, 0.000, 0.000, 0.000, 12:35:16.470
77, -3996.55, -4682.92, -4408.62, -4369.28, 0.000, 0.000, 0.000, 12:35:16.471
78, -3968.87, -4695.47, -4399.45, -4464.77, 0.000, 0.000, 0.000, 12:35:16.471
79, -4084.42, -4725.51, -4492.51, -4319.99, 0.000, 0.000, 0.000, 12:35:16.485
80, -4113.53, -4760.22, -4512.74, -4237.11, 0.000, 0.000, 0.000, 12:35:16.485
81, -4080.89, -4734.47, -4482.96, -4334.31, 0.000, 0.000, 0.000, 12:35:16.500
82, -4058.99, -4737.53, -4451.08, -4417.89, 0.000, 0.000, 0.000, 12:35:16.500
83, -4157.26, -4801.27, -4584.03, -4292.83, 0.000, 0.000, 0.000, 12:35:16.500
84, -4172.33, -4799.81, -4611.60, -4227.38, 0.000, 0.000, 0.000, 12:35:16.500
85, -4137.08, -4812.12, -4538.10, -4302.88, 0.000, 0.000, 0.000, 12:35:16.515
86, -4109.75, -4782.05, -4511.71, -4392.30, 0.000, 0.000, 0.000, 12:35:16.516
87, -4178.72, -4810.21, -4582.63, -4253.39, 0.000, 0.000, 0.000, 12:35:16.529
88, -4221.51, -4841.02, -4622.75, -4192.46, 0.000, 0.000, 0.000, 12:35:16.530
89, -4167.68, -4829.01, -4570.98, -4278.37, 0.000, 0.000, 0.000, 12:35:16.530
90, -4136.93, -4809.28, -4549.90, -4364.20, 0.000, 0.000, 0.000, 12:35:16.530
91, -4205.32, -4854.03, -4647.13, -4220.73, 0.000, 0.000, 0.000, 12:35:16.546
92, -4234.97, -4886.15, -4688.60, -4183.44, 0.000, 0.000, 0.000, 12:35:16.546
93, -4186.34, -4866.00, -4592.99, -4269.15, 0.000, 0.000, 0.000, 12:35:16.560
94, -4146.82, -4840.14, -4562.67, -4340.75, 0.000, 0.000, 0.000, 12:35:16.560
95, -4233.08, -4885.26, -4680.09, -4211.59, 0.000, 0.000, 0.000, 12:35:16.561
96, -4235.60, -4884.28, -4692.91, -4157.70, 0.000, 0.000, 0.000, 12:35:16.561
97, -4197.72, -4874.81, -4620.75, -4258.00, 0.000, 0.000, 0.000, 12:35:16.575
98, -4158.46, -4880.71, -4572.00, -4321.06, 0.000, 0.000, 0.000, 12:35:16.575
99, -4233.89, -4879.75, -4674.92, -4205.81, 0.000, 0.000, 0.000, 12:35:16.590
100, -4246.13, -4899.80, -4705.77, -4154.37, 0.000, 0.000, 0.000, 12:35:16.590
101, -4197.13, -4866.77, -4640.68, -4232.04, 0.000, 0.000, 0.000, 12:35:16.597
102, -4165.48, -4850.44, -4607.29, -4301.54, 0.000, 0.000, 0.000, 12:35:16.597
103, -4257.84, -4919.00, -4712.95, -4230.56, 0.000, 0.000, 0.000, 12:35:16.605
104, -4274.55, -4937.82, -4718.23, -4171.18, 0.000, 0.000, 0.000, 12:35:16.605
105, -4206.54, -4879.67, -4656.57, -4219.62, 0.000, 0.000, 0.000, 12:35:16.620
106, -4174.27, -4863.44, -4601.33, -4289.80, 0.000, 0.000, 0.000, 12:35:16.620
107, -4273.87, -4899.32, -4719.97, -4187.66, 0.000, 0.000, 0.000, 12:35:16.620
108, -4292.05, -4918.63, -4726.13, -4137.80, 0.000, 0.000, 0.000, 12:35:16.620
109, -4235.77, -4916.55, -4652.30, -4230.91, 0.000, 0.000, 0.000, 12:35:16.635
110, -4187.13, -4871.59, -4614.30, -4274.00, 0.000, 0.000, 0.000, 12:35:16.635
111, -4265.03, -4915.76, -4707.69, -4169.97, 0.000, 0.000, 0.000, 12:35:16.650
112, -4278.35, -4939.45, -4736.13, -4149.89, 0.000, 0.000, 0.000, 12:35:16.650
113, -4234.12, -4913.58, -4684.42, -4215.28, 0.000, 0.000, 0.000, 12:35:16.650
114, -4183.09, -4871.48, -4631.39, -4276.60, 0.000, 0.000, 0.000, 12:35:16.650
115, -4266.95, -4904.74, -4716.57, -4183.82, 0.000, 0.000, 0.000, 12:35:16.665
116, -4274.32, -4951.81, -4728.25, -4140.68, 0.000, 0.000, 0.000, 12:35:16.665
117, -4231.37, -4916.54, -4664.63, -4211.66, 0.000, 0.000, 0.000, 12:35:16.680
118, -4183.67, -4875.74, -4624.05, -4267.15, 0.000, 0.000, 0.000, 12:35:16.680
119, -4273.46, -4905.03, -4743.85, -4187.39, 0.000, 0.000, 0.000, 12:35:16.681
120, -4295.84, -4930.58, -4724.16, -4150.53, 0.000, 0.000, 0.000, 12:35:16.681
121, -4255.03, -4918.56, -4679.96, -4215.49, 0.000, 0.000, 0.000, 12:35:16.695
122, -4203.74, -4909.96, -4648.74, -4272.22, 0.000, 0.000, 0.000, 12:35:16.695
123, -4275.50, -4941.19, -4742.52, -4183.57, 0.000, 0.000, 0.000, 12:35:16.710
124, -4285.12, -4941.67, -4737.89, -4143.44, 0.000, 0.000, 0.000, 12:35:16.710
125, -4241.50, -4932.38, -4670.46, -4196.75, 0.000, 0.000, 0.000, 12:35:16.711
126, -4206.66, -4896.95, -4634.02, -4256.55, 0.000, 0.000, 0.000, 12:35:16.712
127, -4275.08, -4924.01, -4731.89, -4177.41, 0.000, 0.000, 0.000, 12:35:16.726
128, -4290.16, -4947.72, -4757.57, -4145.30, 0.000, 0.000, 0.000, 12:35:16.726
129, -4234.49, -4925.93, -4657.71, -4205.83, 0.000, 0.000, 0.000, 12:35:16.741
130, -4189.65, -4891.32, -4627.30, -4255.84, 0.000, 0.000, 0.000, 12:35:16.741
131, -4263.57, -4947.88, -4725.08, -4193.75, 0.000, 0.000, 0.000, 12:35:16.743
132, -4283.78, -4947.20, -4734.60, -4148.23, 0.000, 0.000, 0.000, 12:35:16.743
133, -4241.41, -4924.12, -4675.49, -4184.76, 0.000, 0.000, 0.000, 12:35:16.755
134, -4202.10, -4906.73, -4656.87, -4250.25, 0.000, 0.000, 0.000, 12:35:16.755
135, -4268.03, -4936.11, -4765.17, -4185.21, 0.000, 0.000, 0.000, 12:35:16.770
136, -4279.76, -4967.18, -4741.57, -4154.94, 0.000, 0.000, 0.000, 12:35:16.770
137, -4238.58, -4933.27, -4683.13, -4214.36, 0.000, 0.000, 0.000, 12:35:16.770
138, -4179.90, -4891.40, -4638.02, -4242.70, 0.000, 0.000, 0.000, 12:35:16.770
139, -4256.63, -4924.77, -4727.92, -4183.29, 0.000, 0.000, 0.000, 12:35:16.785
140, -4261.31, -4960.41, -4740.14, -4151.90, 0.000, 0.000, 0.000, 12:35:16.785
141, -4200.23, -4924.08, -4680.77, -4179.84, 0.000, 0.000, 0.000, 12:35:16.815
142, -4154.02, -4927.59, -4647.86, -4256.06, 0.000, 0.000, 0.000, 12:35:16.815
143, -4215.90, -4942.18, -4735.22, -4168.02, 0.000, 0.000, 0.000, 12:35:16.815
144, -4227.01, -4950.57, -4748.44, -4129.02, 0.000, 0.000, 0.000, 12:35:16.815
145, -4177.88, -4942.45, -4706.81, -4189.07, 0.000, 0.000, 0.000, 12:35:16.816
146, -4115.66, -4933.31, -4659.61, -4219.87, 0.000, 0.000, 0.000, 12:35:16.816
147, -4165.72, -4952.22, -4734.05, -4162.08, 0.000, 0.000, 0.000, 12:35:16.817
148, -4169.68, -4960.34, -4737.08, -4136.94, 0.000, 0.000, 0.000, 12:35:16.817
149, -4141.24, -4964.43, -4695.17, -4185.35, 0.000, 0.000, 0.000, 12:35:16.830
150, -4081.58, -4920.39, -4633.52, -4209.45, 0.000, 0.000, 0.000, 12:35:16.830
151, -4158.64, -4957.13, -4717.37, -4159.40, 0.000, 0.000, 0.000, 12:35:16.845
152, -4186.37, -4989.73, -4737.96, -4158.54, 0.000, 0.000, 0.000, 12:35:16.845
153, -4130.38, -4944.54, -4676.21, -4180.42, 0.000, 0.000, 0.000, 12:35:16.860
154, -4110.40, -4915.75, -4631.52, -4223.10, 0.000, 0.000, 0.000, 12:35:16.860
155, -4183.01, -4938.71, -4709.10, -4180.90, 0.000, 0.000, 0.000, 12:35:16.862
156, -4217.72, -4967.80, -4733.78, -4171.24, 0.000, 0.000, 0.000, 12:35:16.862
157, -4178.41, -4944.34, -4678.92, -4190.45, 0.000, 0.000, 0.000, 12:35:16.875
158, -4156.75, -4906.67, -4639.97, -4231.61, 0.000, 0.000, 0.000, 12:35:16.875
159, -4241.09, -4924.80, -4719.79, -4192.87, 0.000, 0.000, 0.000, 12:35:16.891
160, -4280.37, -4945.10, -4725.12, -4182.96, 0.000, 0.000, 0.000, 12:35:16.891
161, -4240.64, -4897.80, -4664.62, -4207.46, 0.000, 0.000, 0.000, 12:35:16.891
162, -4208.28, -4869.55, -4615.15, -4243.75, 0.000, 0.000, 0.000, 12:35:16.892
163, -4311.71, -4897.09, -4700.47, -4229.02, 0.000, 0.000, 0.000, 12:35:16.905
164, -4346.79, -4920.35, -4722.24, -4201.02, 0.000, 0.000, 0.000, 12:35:16.905
165, -4287.10, -4872.14, -4656.13, -4225.06, 0.000, 0.000, 0.000, 12:35:16.920
166, -4276.91, -4862.26, -4615.89, -4271.14, 0.000, 0.000, 0.000, 12:35:16.920
167, -4347.64, -4887.31, -4697.97, -4238.55, 0.000, 0.000, 0.000, 12:35:16.921
168, -4350.23, -4891.57, -4698.34, -4207.80, 0.000, 0.000, 0.000, 12:35:16.921
169, -4328.67, -4862.27, -4640.21, -4255.27, 0.000, 0.000, 0.000, 12:35:16.935
170, -4302.72, -4843.55, -4611.44, -4266.86, 0.000, 0.000, 0.000, 12:35:16.935
171, -4376.18, -4871.40, -4670.79, -4254.83, 0.000, 0.000, 0.000, 12:35:16.950
172, -4385.63, -4893.10, -4681.32, -4243.48, 0.000, 0.000, 0.000, 12:35:16.951
173, -4351.20, -4887.68, -4644.27, -4249.09, 0.000, 0.000, 0.000, 12:35:16.951
174, -4321.70, -4848.91, -4618.01, -4290.78, 0.000, 0.000, 0.000, 12:35:16.951
175, -4376.85, -4857.37, -4660.26, -4245.42, 0.000, 0.000, 0.000, 12:35:16.979
176, -4383.29, -4887.37, -4672.13, -4208.98, 0.000, 0.000, 0.000, 12:35:16.980
177, -4344.16, -4886.73, -4643.88, -4251.06, 0.000, 0.000, 0.000, 12:35:16.980
178, -4305.53, -4841.43, -4577.67, -4281.07, 0.000, 0.000, 0.000, 12:35:16.980
179, -4373.99, -4888.84, -4642.02, -4253.85, 0.000, 0.000, 0.000, 12:35:16.982
180, -4387.61, -4904.71, -4692.01, -4217.94, 0.000, 0.000, 0.000, 12:35:16.982
181, -4348.87, -4884.38, -4639.24, -4252.27, 0.000, 0.000, 0.000, 12:35:16.995
182, -4312.69, -4866.44, -4609.19, -4282.52, 0.000, 0.000, 0.000, 12:35:16.995
183, -4376.88, -4938.63, -4686.59, -4245.21, 0.000, 0.000, 0.000, 12:35:17.010
184, -4378.90, -4926.67, -4714.55, -4215.29, 0.000, 0.000, 0.000, 12:35:17.010
185, -4324.60, -4896.40, -4675.77, -4239.54, 0.000, 0.000, 0.000, 12:35:17.011
186, -4281.46, -4880.86, -4613.03, -4258.01, 0.000, 0.000, 0.000, 12:35:17.012
187, -4353.09, -4895.87, -4689.00, -4223.15, 0.000, 0.000, 0.000, 12:35:17.026
188, -4354.79, -4927.63, -4712.11, -4194.03, 0.000, 0.000, 0.000, 12:35:17.026
189, -4313.50, -4917.18, -4713.45, -4246.68, 0.000, 0.000, 0.000, 12:35:17.040
190, -4290.73, -4912.15, -4663.65, -4263.77, 0.000, 0.000, 0.000, 12:35:17.040
191, -4347.82, -4934.74, -4703.30, -4198.56, 0.000, 0.000, 0.000, 12:35:17.041
192, -4326.29, -4943.35, -4714.52, -4176.92, 0.000, 0.000, 0.000, 12:35:17.041
193, -4307.95, -4947.38, -4712.52, -4224.83, 0.000, 0.000, 0.000, 12:35:17.062
194, -4267.90, -4943.68, -4672.99, -4240.96, 0.000, 0.000, 0.000, 12:35:17.063
195, -4311.60, -4943.82, -4730.33, -4185.52, 0.000, 0.000, 0.000, 12:35:17.070
196, -4320.10, -4962.65, -4746.19, -4179.45, 0.000, 0.000, 0.000, 12:35:17.070
197, -4279.03, -4969.32, -4697.23, -4195.25, 0.000, 0.000, 0.000, 12:35:17.071
198, -4242.31, -4943.29, -4679.93, -4250.56, 0.000, 0.000, 0.000, 12:35:17.071
199, -4283.03, -4947.85, -4738.33, -4191.20, 0.000, 0.000, 0.000, 12:35:17.085
200, -4304.01, -4993.38, -4767.48, -4183.06, 0.000, 0.000, 0.000, 12:35:17.085
0, -4256.49, -4981.51, -4739.63, -4189.81, 0.000, 0.000, 0.000, 12:35:17.086
1, -4197.08, -4946.46, -4693.98, -4228.75, 0.000, 0.000, 0.000, 12:35:17.100
2, -4228.87, -4989.05, -4764.26, -4157.16, 0.000, 0.000, 0.000, 12:35:17.100
3, -4212.94, -4987.77, -4784.45, -4107.62, 0.000, 0.000, 0.000, 12:35:17.115
4, -4181.08, -5009.53, -4779.67, -4140.28, 0.000, 0.000, 0.000, 12:35:17.115
5, -4155.99, -5002.99, -4776.55, -4174.69, 0.000, 0.000, 0.000, 12:35:17.115
6, -4179.67, -5031.35, -4838.48, -4104.95, 0.000, 0.000, 0.000, 12:35:17.115
7, -4191.74, -5061.43, -4879.21, -4078.05, 0.000, 0.000, 0.000, 12:35:17.131
8, -4154.75, -5036.35, -4829.33, -4104.91, 0.000, 0.000, 0.000, 12:35:17.131
9, -4120.06, -5015.54, -4804.17, -4149.38, 0.000, 0.000, 0.000, 12:35:17.145
10, -4184.71, -5047.69, -4879.94, -4099.75, 0.000, 0.000, 0.000, 12:35:17.145
11, -4194.42, -5054.76, -4881.27, -4058.34, 0.000, 0.000, 0.000, 12:35:17.146
12, -4184.39, -5057.24, -4866.13, -4119.52, 0.000, 0.000, 0.000, 12:35:17.146
13, -4177.98, -5061.80, -4841.64, -4183.17, 0.000, 0.000, 0.000, 12:35:17.161
14, -4217.75, -5049.59, -4876.67, -4104.19, 0.000, 0.000, 0.000, 12:35:17.161
15, -4252.97, -5054.92, -4884.34, -4084.09, 0.000, 0.000, 0.000, 12:35:17.175
16, -4243.29, -5060.19, -4851.22, -4150.33, 0.000, 0.000, 0.000, 12:35:17.175
17, -4210.98, -5013.23, -4804.69, -4187.86, 0.000, 0.000, 0.000, 12:35:17.176
18, -4275.53, -5027.92, -4841.62, -4138.39, 0.000, 0.000, 0.000, 12:35:17.176
19, -4303.76, -5026.86, -4839.60, -4128.84, 0.000, 0.000, 0.000, 12:35:17.190
20, -4277.08, -4993.65, -4806.35, -4192.12, 0.000, 0.000, 0.000, 12:35:17.190
21, -4285.38, -4992.92, -4789.93, -4234.40, 0.000, 0.000, 0.000, 12:35:17.205
22, -4332.42, -5004.16, -4810.89, -4178.53, 0.000, 0.000, 0.000, 12:35:17.205
23, -4348.52, -4991.96, -4810.35, -4165.33, 0.000, 0.000, 0.000, 12:35:17.205
24, -4328.86, -4981.14, -4813.31, -4193.16, 0.000, 0.000, 0.000, 12:35:17.205
25, -4325.43, -4984.92, -4759.83, -4258.44, 0.000, 0.000, 0.000, 12:35:17.220
26, -4377.92, -4975.84, -4780.13, -4190.96, 0.000, 0.000, 0.000, 12:35:17.221
27, -4399.09, -4993.47, -4811.13, -4180.53, 0.000, 0.000, 0.000, 12:35:17.235
28, -4382.67, -4997.10, -4774.82, -4224.90, 0.000, 0.000, 0.000, 12:35:17.235
29, -4366.09, -4967.11, -4762.87, -4273.63, 0.000, 0.000, 0.000, 12:35:17.236
30, -4386.46, -4962.71, -4791.16, -4200.58, 0.000, 0.000, 0.000, 12:35:17.236
31, -4385.45, -4969.86, -4773.74, -4177.40, 0.000, 0.000, 0.000, 12:35:17.263
32, -4362.09, -4957.63, -4749.86, -4210.68, 0.000, 0.000, 0.000, 12:35:17.263
33, -4352.72, -4950.06, -4738.52, -4263.81, 0.000, 0.000, 0.000, 12:35:17.282
34, -4378.79, -4948.50, -4792.28, -4187.24, 0.000, 0.000, 0.000, 12:35:17.282
35, -4395.96, -4980.25, -4801.88, -4165.82, 0.000, 0.000, 0.000, 12:35:17.282
36, -4365.66, -4971.98, -4763.30, -4232.89, 0.000, 0.000, 0.000, 12:35:17.282
37, -4343.87, -4962.25, -4740.39, -4273.23, 0.000, 0.000, 0.000, 12:35:17.282
38, -4388.93, -4965.73, -4788.06, -4201.20, 0.000, 0.000, 0.000, 12:35:17.282
39, -4391.92, -4975.03, -4796.73, -4183.39, 0.000, 0.000, 0.000, 12:35:17.304
40, -4367.23, -4978.80, -4749.73, -4221.11, 0.000, 0.000, 0.000, 12:35:17.305
41, -4341.81, -4946.54, -4735.00, -4256.54, 0.000, 0.000, 0.000, 12:35:17.305
42, -4373.35, -4961.12, -4762.71, -4195.89, 0.000, 0.000, 0.000, 12:35:17.305
43, -4365.17, -4978.17, -4769.94, -4169.13, 0.000, 0.000, 0.000, 12:35:17.314
44, -4344.63, -4966.36, -4749.90, -4204.87, 0.000, 0.000, 0.000, 12:35:17.314
45, -4324.70, -4949.74, -4737.91, -4273.84, 0.000, 0.000, 0.000, 12:35:17.326
46, -4366.34, -4960.00, -4766.40, -4199.54, 0.000, 0.000, 0.000, 12:35:17.326
47, -4358.87, -4970.84, -4762.12, -4162.84, 0.000, 0.000, 0.000, 12:35:17.326
48, -4339.61, -4965.61, -4741.35, -4205.41, 0.000, 0.000, 0.000, 12:35:17.326
49, -4315.48, -4965.13, -4722.64, -4261.09, 0.000, 0.000, 0.000, 12:35:17.345
50, -4348.35, -4946.95, -4777.14, -4202.20, 0.000, 0.000, 0.000, 12:35:17.345
51, -4352.09, -4976.37, -4771.01, -4170.98, 0.000, 0.000, 0.000, 12:35:17.355
52, -4326.16, -4982.53, -4744.52, -4211.84, 0.000, 0.000, 0.000, 12:35:17.355
53, -4302.78, -4962.62, -4720.79, -4255.77, 0.000, 0.000, 0.000, 12:35:17.356
54, -4328.23, -4948.84, -4768.28, -4166.82, 0.000, 0.000, 0.000, 12:35:17.356
55, -4337.81, -4985.01, -4790.90, -4144.78, 0.000, 0.000, 0.000, 12:35:17.370
56, -4324.09, -4980.45, -4728.67, -4208.61, 0.000, 0.000, 0.000, 12:35:17.370
57, -4294.42, -4974.39, -4723.79, -4250.12, 0.000, 0.000, 0.000, 12:35:17.385
58, -4338.31, -4950.14, -4768.65, -4175.06, 0.000, 0.000, 0.000, 12:35:17.386
59, -4344.84, -4971.26, -4777.24, -4158.39, 0.000, 0.000, 0.000, 12:35:17.386
60, -4306.33, -4953.51, -4753.26, -4190.46, 0.000, 0.000, 0.000, 12:35:17.386
61, -4299.28, -4951.27, -4708.79, -4267.33, 0.000, 0.000, 0.000, 12:35:17.400
62, -4321.68, -4948.31, -4739.05, -4169.78, 0.000, 0.000, 0.000, 12:35:17.400
63, -4320.80, -4977.29, -4771.71, -4150.57, 0.000, 0.000, 0.000, 12:35:17.415
64, -4306.41, -4973.26, -4778.98, -4208.01, 0.000, 0.000, 0.000, 12:35:17.416
65, -4291.60, -4964.67, -4716.00, -4258.31, 0.000, 0.000, 0.000, 12:35:17.416
66, -4321.10, -4948.52, -4751.77, -4179.48, 0.000, 0.000, 0.000, 12:35:17.416
67, -4325.55, -4975.18, -4762.55, -4154.28, 0.000, 0.000, 0.000, 12:35:17.430
68, -4300.52, -4964.85, -4738.16, -4190.51, 0.000, 0.000, 0.000, 12:35:17.430
69, -4281.40, -4958.79, -4728.06, -4245.08, 0.000, 0.000, 0.000, 12:35:17.445
70, -4313.11, -4975.87, -4763.10, -4179.38, 0.000, 0.000, 0.000, 12:35:17.445
71, -4325.33, -4973.16, -4767.63, -4140.51, 0.000, 0.000, 0.000, 12:35:17.446
72, -4296.62, -4966.28, -4730.75, -4203.13, 0.000, 0.000, 0.000, 12:35:17.446
73, -4279.34, -4954.29, -4731.53, -4268.99, 0.000, 0.000, 0.000, 12:35:17.460
74, -4322.40, -4956.59, -4745.58, -4165.05, 0.000, 0.000, 0.000, 12:35:17.462
75, -4320.64, -4979.87, -4756.88, -4153.59, 0.000, 0.000, 0.000, 12:35:17.475
76, -4309.61, -4990.95, -4767.17, -4193.60, 0.000, 0.000, 0.000, 12:35:17.475
77, -4291.31, -4961.31, -4758.02, -4266.76, 0.000, 0.000, 0.000, 12:35:17.476
78, -4310.36, -4937.98, -4740.36, -4171.90, 0.000, 0.000, 0.000, 12:35:17.476
79, -4307.12, -4958.50, -4760.13, -4155.57, 0.000, 0.000, 0.000, 12:35:17.496
80, -4302.57, -4977.54, -4732.19, -4213.88, 0.000, 0.000, 0.000, 12:35:17.497
81, -4284.03, -4964.17, -4709.06, -4243.94, 0.000, 0.000, 0.000, 12:35:17.505
82, -4318.76, -4978.30, -4771.79, -4175.82, 0.000, 0.000, 0.000, 12:35:17.505
83, -4316.75, -4970.62, -4770.15, -4159.29, 0.000, 0.000, 0.000, 12:35:17.506
84, -4291.24, -4948.87, -4746.79, -4191.11, 0.000, 0.000, 0.000, 12:35:17.506
85, -4272.12, -4961.71, -4726.80, -4264.04, 0.000, 0.000, 0.000, 12:35:17.520
86, -4296.57, -4939.95, -4758.46, -4161.81, 0.000, 0.000, 0.000, 12:35:17.520
87, -4319.02, -4982.00, -4747.26, -4145.52, 0.000, 0.000, 0.000, 12:35:17.535
88, -4307.00, -4965.51, -4725.73, -4209.55, 0.000, 0.000, 0.000, 12:35:17.535
89, -4277.22, -4950.26, -4713.69, -4245.90, 0.000, 0.000, 0.000, 12:35:17.535
90, -4305.72, -4937.02, -4762.62, -4178.20, 0.000, 0.000, 0.000, 12:35:17.535
91, -4327.66, -4974.21, -4762.82, -4150.89, 0.000, 0.000, 0.000, 12:35:17.550
92, -4311.76, -4978.12, -4749.00, -4217.83, 0.000, 0.000, 0.000, 12:35:17.550
93, -4293.11, -4956.73, -4747.30, -4249.59, 0.000, 0.000, 0.000, 12:35:17.565
94, -4309.38, -4960.38, -4756.19, -4159.05, 0.000, 0.000, 0.000, 12:35:17.565
95, -4321.34, -4986.31, -4753.84, -4158.24, 0.000, 0.000, 0.000, 12:35:17.565
96, -4284.67, -4963.39, -4744.23, -4204.73, 0.000, 0.000, 0.000, 12:35:17.565
97, -4274.61, -4980.67, -4732.11, -4247.49, 0.000, 0.000, 0.000, 12:35:17.580
98, -4306.17, -4964.87, -4757.92, -4184.46, 0.000, 0.000, 0.000, 12:35:17.581
99, -4306.98, -4954.10, -4763.91, -4146.40, 0.000, 0.000, 0.000, 12:35:17.596
100, -4297.68, -4980.08, -4732.30, -4212.87, 0.000, 0.000, 0.000, 12:35:17.596
101, -4268.06, -4959.37, -4715.60, -4244.67, 0.000, 0.000, 0.000, 12:35:17.596
102, -4303.34, -4958.41, -4738.78, -4176.28, 0.000, 0.000, 0.000, 12:35:17.596
103, -4313.85, -4971.40, -4752.93, -4164.77, 0.000, 0.000, 0.000, 12:35:17.611
104, -4288.64, -4978.33, -4744.35, -4206.10, 0.000, 0.000, 0.000, 12:35:17.611
105, -4262.96, -4967.22, -4740.58, -4256.05, 0.000, 0.000, 0.000, 12:35:17.625
106, -4300.09, -4969.32, -4750.63, -4184.50, 0.000, 0.000, 0.000, 12:35:17.625
107, -4305.18, -4974.88, -4769.14, -4155.80, 0.000, 0.000, 0.000, 12:35:17.626
108, -4280.84, -4953.40, -4741.85, -4202.79, 0.000, 0.000, 0.000, 12:35:17.626
109, -4275.33, -4982.69, -4723.32, -4248.03, 0.000, 0.000, 0.000, 12:35:17.640
110, -4298.92, -4956.40, -4732.11, -4175.85, 0.000, 0.000, 0.000, 12:35:17.641
111, -4308.86, -4959.05, -4759.90, -4153.46, 0.000, 0.000, 0.000, 12:35:17.655
112, -4286.40, -4976.37, -4742.18, -4208.55, 0.000, 0.000, 0.000, 12:35:17.655
113, -4271.35, -4959.70, -4719.21, -4244.95, 0.000, 0.000, 0.000, 12:35:17.656
114, -4310.79, -4970.05, -4772.29, -4186.25, 0.000, 0.000, 0.000, 12:35:17.656
115, -4306.42, -4974.50, -4773.14, -4166.50, 0.000, 0.000, 0.000, 12:35:17.670
116, -4284.19, -4975.63, -4752.05, -4212.58, 0.000, 0.000, 0.000, 12:35:17.670
117, -4274.01, -4960.34, -4728.88, -4243.39, 0.000, 0.000, 0.000, 12:35:17.685
118, -4295.69, -4962.39, -4761.20, -4167.19, 0.000, 0.000, 0.000, 12:35:17.685
119, -4306.53, -4982.99, -4771.23, -4146.69, 0.000, 0.000, 0.000, 12:35:17.686
120, -4281.58, -4953.44, -4712.91, -4204.20, 0.000, 0.000, 0.000, 12:35:17.686
121, -4266.19, -4948.94, -4754.92, -4256.76, 0.000, 0.000, 0.000, 12:35:17.700
122, -4305.64, -4954.76, -4735.55, -4183.30, 0.000, 0.000, 0.000, 12:35:17.700
123, -4311.60, -4972.67, -4754.48, -4155.49, 0.000, 0.000, 0.000, 12:35:17.715
124, -4299.11, -4957.81, -4753.54, -4203.59, 0.000, 0.000, 0.000, 12:35:17.716
125, -4273.33, -4947.50, -4731.87, -4234.53, 0.000, 0.000, 0.000, 12:35:17.716
126, -4296.89, -4945.30, -4747.36, -4162.92, 0.000, 0.000, 0.000, 12:35:17.716
127, -4306.11, -4959.42, -4775.70, -4156.11, 0.000, 0.000, 0.000, 12:35:17.730
128, -4304.38, -4980.18, -4755.14, -4211.88, 0.000, 0.000, 0.000, 12:35:17.730
129, -4285.17, -4970.47, -4705.10, -4254.31, 0.000, 0.000, 0.000, 12:35:17.745
130, -4309.85, -4949.89, -4741.66, -4179.46, 0.000, 0.000, 0.000, 12:35:17.745
131, -4316.71, -4963.88, -4747.56, -4150.27, 0.000, 0.000, 0.000, 12:35:17.746
132, -4302.94, -4983.47, -4752.59, -4219.45, 0.000, 0.000, 0.000, 12:35:17.746
133, -4276.38, -4946.72, -4714.54, -4246.08, 0.000, 0.000, 0.000, 12:35:17.760
134, -4301.43, -4938.53, -4742.21, -4160.94, 0.000, 0.000, 0.000, 12:35:17.761
135, -4318.97, -4956.48, -4771.10, -4143.93, 0.000, 0.000, 0.000, 12:35:17.776
136, -4309.71, -4980.47, -4753.65, -4198.72, 0.000, 0.000, 0.000, 12:35:17.776
137, -4269.43, -4962.57, -4739.83, -4246.27, 0.000, 0.000, 0.000, 12:35:17.776
138, -4319.11, -4969.02, -4758.78, -4188.07, 0.000, 0.000, 0.000, 12:35:17.776
139, -4325.52, -4962.87, -4759.88, -4166.87, 0.000, 0.000, 0.000, 12:35:17.790
140, -4292.36, -4960.97, -4732.39, -4199.52, 0.000, 0.000, 0.000, 12:35:17.791
141, -4284.66, -4962.72, -4727.77, -4243.26, 0.000, 0.000, 0.000, 12:35:17.805
142, -4301.83, -4953.87, -4758.48, -4181.02, 0.000, 0.000, 0.000, 12:35:17.805
143, -4311.04, -4956.83, -4758.99, -4160.58, 0.000, 0.000, 0.000, 12:35:17.805
144, -4296.57, -4970.60, -4733.74, -4204.83, 0.000, 0.000, 0.000, 12:35:17.805
145, -4288.33, -4950.65, -4724.10, -4250.55, 0.000, 0.000, 0.000, 12:35:17.820
146, -4315.28, -4960.85, -4761.43, -4171.93, 0.000, 0.000, 0.000, 12:35:17.820
147, -4318.26, -4976.32, -4774.98, -4167.66, 0.000, 0.000, 0.000, 12:35:17.835
148, -4318.02, -4991.48, -4756.88, -4211.52, 0.000, 0.000, 0.000, 12:35:17.835
149, -4312.16, -4964.06, -4726.63, -4260.78, 0.000, 0.000, 0.000, 12:35:17.836
150, -4321.90, -4961.15, -4760.92, -4185.74, 0.000, 0.000, 0.000, 12:35:17.836
151, -4303.86, -4942.91, -4745.88, -4157.31, 0.000, 0.000, 0.000, 12:35:17.851
152, -4313.80, -4961.40, -4729.03, -4204.05, 0.000, 0.000, 0.000, 12:35:17.851
153, -4283.76, -4948.45, -4705.13, -4255.08, 0.000, 0.000, 0.000, 12:35:17.865
154, -4297.54, -4927.12, -4735.23, -4178.05, 0.000, 0.000, 0.000, 12:35:17.865
155, -4326.32, -4961.68, -4762.68, -4170.88, 0.000, 0.000, 0.000, 12:35:17.866
156, -4302.20, -4958.98, -4728.94, -4228.17, 0.000, 0.000, 0.000, 12:35:17.866
157, -4280.55, -4951.30, -4692.27, -4262.14, 0.000, 0.000, 0.000, 12:35:17.880
158, -4315.50, -4944.07, -4728.36, -4179.43, 0.000, 0.000, 0.000, 12:35:17.880
159, -4323.46, -4963.15, -4743.29, -4166.68, 0.000, 0.000, 0.000, 12:35:17.895
160, -4299.44, -4962.14, -4724.78, -4211.16, 0.000, 0.000, 0.000, 12:35:17.895
161, -4286.46, -4967.19, -4718.04, -4262.39, 0.000, 0.000, 0.000, 12:35:17.896
162, -4324.22, -4965.06, -4772.54, -4188.09, 0.000, 0.000, 0.000, 12:35:17.896
163, -4335.02, -4972.69, -4772.48, -4171.38, 0.000, 0.000, 0.000, 12:35:17.910
164, -4295.56, -4980.48, -4726.61, -4209.80, 0.000, 0.000, 0.000, 12:35:17.910
165, -4284.32, -4972.87, -4716.28, -4258.90, 0.000, 0.000, 0.000, 12:35:17.925
166, -4320.95, -4943.59, -4755.69, -4185.72, 0.000, 0.000, 0.000, 12:35:17.925
167, -4330.10, -4957.24, -4773.84, -4163.79, 0.000, 0.000, 0.000, 12:35:17.925
168, -4299.62, -4977.89, -4743.89, -4227.91, 0.000, 0.000, 0.000, 12:35:17.926
169, -4282.35, -4975.65, -4742.58, -4261.15, 0.000, 0.000, 0.000, 12:35:17.940
170, -4319.79, -4951.60, -4745.17, -4184.59, 0.000, 0.000, 0.000, 12:35:17.940
171, -4331.00, -4984.60, -4759.38, -4154.56, 0.000, 0.000, 0.000, 12:35:17.956
172, -4300.71, -4987.57, -4749.18, -4213.84, 0.000, 0.000, 0.000, 12:35:17.956
173, -4290.85, -4966.36, -4732.97, -4248.14, 0.000, 0.000, 0.000, 12:35:17.957
174, -4320.88, -4973.37, -4781.00, -4188.79, 0.000, 0.000, 0.000, 12:35:17.957
175, -4330.58, -4979.14, -4771.32, -4162.04, 0.000, 0.000, 0.000, 12:35:17.970
176, -4306.18, -4972.33, -4723.99, -4222.77, 0.000, 0.000, 0.000, 12:35:17.970
177, -4286.70, -4954.96, -4702.83, -4266.20, 0.000, 0.000, 0.000, 12:35:17.985
178, -4309.78, -4964.08, -4742.97, -4177.90, 0.000, 0.000, 0.000, 12:35:17.985
179, -4323.28, -4987.88, -4777.13, -4148.58, 0.000, 0.000, 0.000, 12:35:17.985
180, -4293.19, -4958.54, -4755.19, -4209.67, 0.000, 0.000, 0.000, 12:35:17.985
181, -4269.27, -4974.44, -4718.50, -4267.99, 0.000, 0.000, 0.000, 12:35:18.000
182, -4304.95, -4951.47, -4745.48, -4171.47, 0.000, 0.000, 0.000, 12:35:18.001
183, -4313.85, -4981.70, -4768.96, -4148.39, 0.000, 0.000, 0.000, 12:35:18.015
184, -4279.60, -4979.11, -4742.52, -4203.85, 0.000, 0.000, 0.000, 12:35:18.015
185, -4264.17, -4985.71, -4738.95, -4251.71, 0.000, 0.000, 0.000, 12:35:18.016
186, -4284.65, -4971.44, -4772.45, -4169.25, 0.000, 0.000, 0.000, 12:35:18.016
187, -4296.02, -4984.18, -4765.97, -4142.18, 0.000, 0.000, 0.000, 12:35:18.030
188, -4286.75, -4992.81, -4743.46, -4211.02, 0.000, 0.000, 0.000, 12:35:18.030
189, -4253.00, -4978.38, -4716.48, -4262.47, 0.000, 0.000, 0.000, 12:35:18.045
190, -4290.40, -4961.10, -4754.63, -4171.14, 0.000, 0.000, 0.000, 12:35:18.045
191, -4296.68, -4974.21, -4766.06, -4146.73, 0.000, 0.000, 0.000, 12:35:18.046
192, -4265.02, -4990.68, -4743.57, -4198.97, 0.000, 0.000, 0.000, 12:35:18.046
193, -4246.53, -4983.46, -4730.01, -4256.16, 0.000, 0.000, 0.000, 12:35:18.061
194, -4267.18, -4980.18, -4776.37, -4170.32, 0.000, 0.000, 0.000, 12:35:18.061
195, -4281.34, -4985.78, -4774.38, -4145.15, 0.000, 0.000, 0.000, 12:35:18.075
196, -4268.66, -5006.14, -4734.50, -4199.17, 0.000, 0.000, 0.000, 12:35:18.075
197, -4266.60, -5010.22, -4731.09, -4280.02, 0.000, 0.000, 0.000, 12:35:18.076
198, -4278.39, -4964.94, -4749.47, -4183.81, 0.000, 0.000, 0.000, 12:35:18.076
199, -4257.19, -4928.14, -4727.36, -4132.95, 0.000, 0.000, 0.000, 12:35:18.091
200, -4246.25, -4942.25, -4702.14, -4215.83, 0.000, 0.000, 0.000, 12:35:18.091
0, -4230.98, -4948.81, -4683.78, -4296.64, 0.000, 0.000, 0.000, 12:35:18.091
1, -4249.21, -4922.99, -4695.89, -4196.70, 0.000, 0.000, 0.000, 12:35:18.105
2, -4259.25, -4941.42, -4703.73, -4188.59, 0.000, 0.000, 0.000, 12:35:18.106
3, -4238.62, -4927.92, -4651.12, -4248.48, 0.000, 0.000, 0.000, 12:35:18.120
4, -4219.82, -4895.61, -4597.05, -4311.88, 0.000, 0.000, 0.000, 12:35:18.121
5, -4256.15, -4894.53, -4626.94, -4223.55, 0.000, 0.000, 0.000, 12:35:18.121
6, -4266.44, -4895.76, -4623.31, -4186.19, 0.000, 0.000, 0.000, 12:35:18.121
7, -4249.50, -4895.65, -4612.20, -4267.29, 0.000, 0.000, 0.000, 12:35:18.135
8, -4226.34, -4891.50, -4591.21, -4315.38, 0.000, 0.000, 0.000, 12:35:18.136
9, -4272.05, -4899.15, -4622.70, -4237.28, 0.000, 0.000, 0.000, 12:35:18.150
10, -4293.81, -4899.56, -4625.16, -4208.47, 0.000, 0.000, 0.000, 12:35:18.150
11, -4275.17, -4907.04, -4597.71, -4275.00, 0.000, 0.000, 0.000, 12:35:18.150
12, -4251.26, -4908.45, -4579.01, -4340.51, 0.000, 0.000, 0.000, 12:35:18.150
13, -4296.67, -4904.24, -4631.33, -4245.87, 0.000, 0.000, 0.000, 12:35:18.165
14, -4309.74, -4919.25, -4623.86, -4208.48, 0.000, 0.000, 0.000, 12:35:18.166
15, -4299.10, -4916.07, -4604.76, -4258.32, 0.000, 0.000, 0.000, 12:35:18.180
16, -4283.84, -4894.51, -4588.76, -4322.69, 0.000, 0.000, 0.000, 12:35:18.180
17, -4325.09, -4895.16, -4623.40, -4234.31, 0.000, 0.000, 0.000, 12:35:18.181
18, -4349.92, -4922.13, -4644.95, -4195.17, 0.000, 0.000, 0.000, 12:35:18.181
19, -4333.87, -4914.00, -4617.71, -4257.30, 0.000, 0.000, 0.000, 12:35:18.195
20, -4333.23, -4921.11, -4612.33, -4332.05, 0.000, 0.000, 0.000, 12:35:18.195
21, -4368.03, -4909.11, -4662.25, -4220.95, 0.000, 0.000, 0.000, 12:35:18.210
22, -4382.70, -4927.68, -4688.48, -4186.70, 0.000, 0.000, 0.000, 12:35:18.211
23, -4373.98, -4951.02, -4665.79, -4261.23, 0.000, 0.000, 0.000, 12:35:18.211
24, -4353.44, -4923.23, -4653.68, -4327.34, 0.000, 0.000, 0.000, 12:35:18.211
25, -4385.64, -4919.12, -4676.74, -4213.50, 0.000, 0.000, 0.000, 12:35:18.226
26, -4397.93, -4938.13, -4688.28, -4199.17, 0.000, 0.000, 0.000, 12:35:18.226
27, -4365.87, -4933.96, -4674.04, -4247.86, 0.000, 0.000, 0.000, 12:35:18.241
28, -4357.78, -4942.57, -4665.19, -4314.02, 0.000, 0.000, 0.000, 12:35:18.241
29, -4391.39, -4945.21, -4724.32, -4201.17, 0.000, 0.000, 0.000, 12:35:18.241
30, -4400.14, -4958.64, -4723.49, -4155.55, 0.000, 0.000, 0.000, 12:35:18.241
31, -4374.02, -4957.89, -4684.08, -4253.86, 0.000, 0.000, 0.000, 12:35:18.255
32, -4339.36, -4946.84, -4671.13, -4329.25, 0.000, 0.000, 0.000, 12:35:18.255
33, -4376.48, -4926.70, -4718.97, -4184.72, 0.000, 0.000, 0.000, 12:35:18.270
34, -4375.96, -4936.97, -4723.92, -4140.19, 0.000, 0.000, 0.000, 12:35:18.271
35, -4362.03, -4948.92, -4717.14, -4235.56, 0.000, 0.000, 0.000, 12:35:18.271
36, -4333.84, -4963.46, -4700.38, -4311.41, 0.000, 0.000, 0.000, 12:35:18.271
37, -4360.96, -4943.87, -4744.08, -4203.56, 0.000, 0.000, 0.000, 12:35:18.285
38, -4386.81, -4974.64, -4759.34, -4151.29, 0.000, 0.000, 0.000, 12:35:18.285
39, -4346.66, -4960.86, -4723.57, -4229.76, 0.000, 0.000, 0.000, 12:35:18.300
40, -4325.41, -4954.81, -4691.36, -4288.22, 0.000, 0.000, 0.000, 12:35:18.300
41, -4363.11, -4963.00, -4761.85, -4189.61, 0.000, 0.000, 0.000, 12:35:18.301
42, -4357.17, -4960.03, -4778.46, -4143.12, 0.000, 0.000, 0.000, 12:35:18.301
43, -4346.00, -4977.66, -4736.29, -4220.05, 0.000, 0.000, 0.000, 12:35:18.322
44, -4311.12, -4960.52, -4703.07, -4298.42, 0.000, 0.000, 0.000, 12:35:18.322
45, -4349.75, -4960.97, -4750.61, -4198.44, 0.000, 0.000, 0.000, 12:35:18.330
46, -4357.37, -4964.62, -4772.90, -4144.85, 0.000, 0.000, 0.000, 12:35:18.330
47, -4323.84, -4967.83, -4758.25, -4218.13, 0.000, 0.000, 0.000, 12:35:18.331
48, -4293.81, -4952.27, -4692.16, -4272.25, 0.000, 0.000, 0.000, 12:35:18.331
49, -4345.06, -4968.70, -4750.96, -4169.83, 0.000, 0.000, 0.000, 12:35:18.346
50, -4345.93, -4973.76, -4768.20, -4138.57, 0.000, 0.000, 0.000, 12:35:18.346
51, -4318.29, -4991.11, -4745.97, -4236.53, 0.000, 0.000, 0.000, 12:35:18.360
52, -4287.62, -4961.79, -4717.09, -4293.34, 0.000, 0.000, 0.000, 12:35:18.361
53, -4323.02, -4958.69, -4767.78, -4172.68, 0.000, 0.000, 0.000, 12:35:18.361
54, -4336.06, -4977.05, -4794.22, -4131.61, 0.000, 0.000, 0.000, 12:35:18.361
55, -4301.97, -4973.54, -4737.97, -4209.51, 0.000, 0.000, 0.000, 12:35:18.375
56, -4284.85, -4954.27, -4716.36, -4284.83, 0.000, 0.000, 0.000, 12:35:18.375
57, -4321.75, -4961.71, -4746.61, -4163.52, 0.000, 0.000, 0.000, 12:35:18.391
58, -4336.69, -4985.43, -4774.98, -4139.94, 0.000, 0.000, 0.000, 12:35:18.391
59, -4315.60, -4976.10, -4737.46, -4223.03, 0.000, 0.000, 0.000, 12:35:18.391
60, -4280.70, -4968.07, -4704.49, -4283.05, 0.000, 0.000, 0.000, 12:35:18.391
61, -4331.76, -4957.62, -4758.66, -4173.49, 0.000, 0.000, 0.000, 12:35:18.406
62, -4335.64, -4974.10, -4784.81, -4139.05, 0.000, 0.000, 0.000, 12:35:18.406
63, -4306.85, -4964.72, -4758.27, -4203.70, 0.000, 0.000, 0.000, 12:35:18.420
64, -4284.83, -4973.13, -4735.06, -4286.19, 0.000, 0.000, 0.000, 12:35:18.421
65, -4340.97, -4989.27, -4775.34, -4174.18, 0.000, 0.000, 0.000, 12:35:18.421
66, -4337.93, -4974.01, -4759.92, -4125.54, 0.000, 0.000, 0.000, 12:35:18.421
67, -4305.76, -4977.71, -4740.26, -4209.71, 0.000, 0.000, 0.000, 12:35:18.450
68, -4279.39, -4963.48, -4715.65, -4291.74, 0.000, 0.000, 0.000, 12:35:18.450
69, -4314.22, -4951.86, -4760.10, -4170.13, 0.000, 0.000, 0.000, 12:35:18.451
70, -4330.98, -4988.05, -4786.49, -4132.10, 0.000, 0.000, 0.000, 12:35:18.451
71, -4319.72, -4992.96, -4760.90, -4213.64, 0.000, 0.000, 0.000, 12:35:18.451
72, -4280.04, -4965.49, -4707.52, -4286.79, 0.000, 0.000, 0.000, 12:35:18.451
73, -4326.08, -4964.89, -4763.99, -4170.24, 0.000, 0.000, 0.000, 12:35:18.465
74, -4335.06, -4985.43, -4765.16, -4144.54, 0.000, 0.000, 0.000, 12:35:18.465
75, -4310.27, -4981.50, -4756.70, -4211.86, 0.000, 0.000, 0.000, 12:35:18.480
76, -4277.17, -4963.02, -4712.44, -4267.24, 0.000, 0.000, 0.000, 12:35:18.480
77, -4329.22, -4973.66, -4764.37, -4154.67, 0.000, 0.000, 0.000, 12:35:18.480
78, -4334.61, -4972.95, -4773.36, -4137.30, 0.000, 0.000, 0.000, 12:35:18.480
79, -4306.66, -4997.35, -4747.24, -4210.38, 0.000, 0.000, 0.000, 12:35:18.495
80, -4281.32, -4981.84, -4735.39, -4305.75, 0.000, 0.000, 0.000, 12:35:18.495
81, -4329.04, -4997.29, -4816.99, -4186.15, 0.000, 0.000, 0.000, 12:35:18.510
82, -4336.25, -5013.85, -4781.91, -4135.24, 0.000, 0.000, 0.000, 12:35:18.510
83, -4273.56, -4980.94, -4736.45, -4189.75, 0.000, 0.000, 0.000, 12:35:18.511
84, -4226.28, -4966.51, -4715.98, -4276.60, 0.000, 0.000, 0.000, 12:35:18.511
85, -4272.60, -4955.13, -4768.32, -4148.42, 0.000, 0.000, 0.000, 12:35:18.525
86, -4280.55, -4992.11, -4785.16, -4107.91, 0.000, 0.000, 0.000, 12:35:18.526
87, -4247.80, -4984.86, -4776.52, -4189.87, 0.000, 0.000, 0.000, 12:35:18.540
88, -4235.02, -4968.54, -4731.04, -4277.44, 0.000, 0.000, 0.000, 12:35:18.540
89, -4283.61, -4978.11, -4769.86, -4155.11, 0.000, 0.000, 0.000, 12:35:18.541
90, -4299.78, -5001.18, -4794.69, -4134.89, 0.000, 0.000, 0.000, 12:35:18.541
91, -4272.44, -4990.64, -4765.06, -4225.63, 0.000, 0.000, 0.000, 12:35:18.555
92, -4250.65, -4967.34, -4720.80, -4285.95, 0.000, 0.000, 0.000, 12:35:18.555
93, -4311.91, -4991.21, -4792.07, -4165.17, 0.000, 0.000, 0.000, 12:35:18.570
94, -4311.85, -4989.97, -4786.05, -4126.42, 0.000, 0.000, 0.000, 12:35:18.570
95, -4289.42, -4984.85, -4747.69, -4207.21, 0.000, 0.000, 0.000, 12:35:18.571
96, -4274.63, -4999.92, -4734.56, -4296.14, 0.000, 0.000, 0.000, 12:35:18.571
97, -4307.97, -4967.98, -4778.98, -4158.16, 0.000, 0.000, 0.000, 12:35:18.585
98, -4324.26, -4985.45, -4774.23, -4113.47, 0.000, 0.000, 0.000, 12:35:18.585
99, -4300.62, -4988.37, -4744.08, -4214.26, 0.000, 0.000, 0.000, 12:35:18.600
100, -4262.73, -4958.83, -4706.92, -4298.74, 0.000, 0.000, 0.000, 12:35:18.600
101, -4322.28, -4971.62, -4775.12, -4171.10, 0.000, 0.000, 0.000, 12:35:18.600
102, -4325.10, -4975.89, -4774.13, -4120.61, 0.000, 0.000, 0.000, 12:35:18.600
103, -4296.01, -4973.64, -4753.58, -4221.85, 0.000, 0.000, 0.000, 12:35:18.623
104, -4272.73, -4968.69, -4737.56, -4288.22, 0.000, 0.000, 0.000, 12:35:18.623
105, -4309.54, -4960.19, -4763.76, -4168.61, 0.000, 0.000, 0.000, 12:35:18.630
106, -4332.03, -5002.88, -4778.70, -4129.26, 0.000, 0.000, 0.000, 12:35:18.630
107, -4302.24, -4970.14, -4742.65, -4216.13, 0.000, 0.000, 0.000, 12:35:18.630
108, -4283.75, -4958.79, -4733.86, -4296.99, 0.000, 0.000, 0.000, 12:35:18.631
109, -4317.77, -4951.09, -4761.75, -4165.87, 0.000, 0.000, 0.000, 12:35:18.645
110, -4330.76, -4963.37, -4762.85, -4129.14, 0.000, 0.000, 0.000, 12:35:18.645
111, -4306.61, -4957.50, -4739.45, -4208.88, 0.000, 0.000, 0.000, 12:35:18.660
112, -4287.02, -4968.21, -4726.44, -4295.56, 0.000, 0.000, 0.000, 12:35:18.661
113, -4325.41, -4974.04, -4772.39, -4171.70, 0.000, 0.000, 0.000, 12:35:18.661
114, -4333.61, -4977.27, -4787.09, -4126.85, 0.000, 0.000, 0.000, 12:35:18.661
115, -4305.41, -4961.00, -4736.18, -4213.45, 0.000, 0.000, 0.000, 12:35:18.675
116, -4282.17, -4971.96, -4718.66, -4292.22, 0.000, 0.000, 0.000, 12:35:18.675
117, -4324.35, -4964.58, -4767.31, -4175.73, 0.000, 0.000, 0.000, 12:35:18.690
118, -4327.89, -4976.82, -4777.53, -4135.16, 0.000, 0.000, 0.000, 12:35:18.690
119, -4302.08, -4977.16, -4746.62, -4216.04, 0.000, 0.000, 0.000, 12:35:18.691
120, -4276.39, -4954.37, -4707.62, -4293.86, 0.000, 0.000, 0.000, 12:35:18.691
121, -4323.37, -4953.42, -4766.06, -4171.07, 0.000, 0.000, 0.000, 12:35:18.706
122, -4339.85, -4979.33, -4794.84, -4130.02, 0.000, 0.000, 0.000, 12:35:18.706
123, -4306.57, -4970.32, -4738.21, -4209.59, 0.000, 0.000, 0.000, 12:35:18.720
124, -4281.18, -4974.42, -4720.32, -4302.73, 0.000, 0.000, 0.000, 12:35:18.720
125, -4320.49, -4949.47, -4755.14, -4172.26, 0.000, 0.000, 0.000, 12:35:18.721
126, -4331.51, -4962.80, -4782.06, -4140.25, 0.000, 0.000, 0.000, 12:35:18.721
127, -4295.81, -4980.87, -4764.98, -4213.32, 0.000, 0.000, 0.000, 12:35:18.735
128, -4274.86, -4966.62, -4703.15, -4296.11, 0.000, 0.000, 0.000, 12:35:18.735
129, -4319.99, -4943.60, -4751.54, -4153.09, 0.000, 0.000, 0.000, 12:35:18.750
130, -4323.83, -4966.51, -4766.79, -4128.74, 0.000, 0.000, 0.000, 12:35:18.750
131, -4288.21, -4952.14, -4735.09, -4206.24, 0.000, 0.000, 0.000, 12:35:18.751
132, -4268.69, -4967.49, -4705.30, -4301.55, 0.000, 0.000, 0.000, 12:35:18.751
133, -4313.41, -4959.43, -4756.88, -4177.71, 0.000, 0.000, 0.000, 12:35:18.765
134, -4322.35, -4972.13, -4767.30, -4115.46, 0.000, 0.000, 0.000, 12:35:18.765
135, -4295.27, -4962.00, -4736.90, -4215.72, 0.000, 0.000, 0.000, 12:35:18.780
136, -4271.17, -4961.40, -4722.13, -4305.89, 0.000, 0.000, 0.000, 12:35:18.780
137, -4316.47, -4963.21, -4762.99, -4167.75, 0.000, 0.000, 0.000, 12:35:18.781
138, -4316.34, -4967.38, -4773.03, -4112.04, 0.000, 0.000, 0.000, 12:35:18.781
139, -4302.32, -4976.38, -4744.27, -4206.14, 0.000, 0.000, 0.000, 12:35:18.795
140, -4283.13, -4986.03, -4702.56, -4304.08, 0.000, 0.000, 0.000, 12:35:18.795
141, -4329.14, -4970.94, -4761.33, -4172.10, 0.000, 0.000, 0.000, 12:35:18.810
142, -4326.91, -4960.52, -4765.24, -4129.06, 0.000, 0.000, 0.000, 12:35:18.810
143, -4306.14, -4972.13, -4738.21, -4215.31, 0.000, 0.000, 0.000, 12:35:18.811
144, -4283.06, -4955.06, -4709.23, -4293.27, 0.000, 0.000, 0.000, 12:35:18.811
145, -4320.84, -4964.86, -4764.09, -4159.87, 0.000, 0.000, 0.000, 12:35:18.825
146, -4336.18, -4982.23, -4780.57, -4125.89, 0.000, 0.000, 0.000, 12:35:18.825
147, -4304.42, -4988.88, -4744.89, -4213.26, 0.000, 0.000, 0.000, 12:35:18.840
148, -4277.47, -4987.90, -4724.48, -4308.55, 0.000, 0.000, 0.000, 12:35:18.840
149, -4319.03, -4960.96, -4759.47, -4161.01, 0.000, 0.000, 0.000, 12:35:18.841
150, -4317.65, -4949.45, -4759.64, -4121.04, 0.000, 0.000, 0.000, 12:35:18.841
151, -4296.37, -4967.98, -4742.75, -4214.52, 0.000, 0.000, 0.000, 12:35:18.856
152, -4276.88, -4957.51, -4723.99, -4300.70, 0.000, 0.000, 0.000, 12:35:18.856
153, -4326.15, -4960.83, -4745.47, -4172.69, 0.000, 0.000, 0.000, 12:35:18.870
154, -4327.08, -4971.87, -4753.77, -4121.64, 0.000, 0.000, 0.000, 12:35:18.870
155, -4296.44, -4970.56, -4740.68, -4205.20, 0.000, 0.000, 0.000, 12:35:18.870
156, -4271.01, -4958.01, -4710.81, -4309.01, 0.000, 0.000, 0.000, 12:35:18.870
157, -4318.93, -4972.32, -4758.68, -4169.32, 0.000, 0.000, 0.000, 12:35:18.885
158, -4324.94, -4971.97, -4769.38, -4129.94, 0.000, 0.000, 0.000, 12:35:18.885
159, -4301.90, -4982.74, -4747.15, -4219.68, 0.000, 0.000, 0.000, 12:35:18.899
160, -4279.95, -4947.24, -4706.27, -4286.73, 0.000, 0.000, 0.000, 12:35:18.900
161, -4313.19, -4971.74, -4768.30, -4163.94, 0.000, 0.000, 0.000, 12:35:18.900
162, -4337.96, -4972.21, -4785.07, -4134.38, 0.000, 0.000, 0.000, 12:35:18.900
163, -4299.46, -4982.55, -4737.54, -4213.14, 0.000, 0.000, 0.000, 12:35:18.915
164, -4297.09, -4977.53, -4718.97, -4294.49, 0.000, 0.000, 0.000, 12:35:18.915
165, -4323.87, -4980.10, -4763.14, -4161.34, 0.000, 0.000, 0.000, 12:35:18.930
166, -4316.13, -4952.71, -4757.89, -4117.59, 0.000, 0.000, 0.000, 12:35:18.931
167, -4284.60, -4964.33, -4733.32, -4224.65, 0.000, 0.000, 0.000, 12:35:18.938
168, -4284.37, -4966.63, -4712.29, -4304.91, 0.000, 0.000, 0.000, 12:35:18.938
169, -4299.36, -4959.56, -4759.04, -4170.10, 0.000, 0.000, 0.000, 12:35:18.945
170, -4323.14, -4973.47, -4774.38, -4136.77, 0.000, 0.000, 0.000, 12:35:18.945
171, -4287.83, -4990.18, -4722.08, -4221.27, 0.000, 0.000, 0.000, 12:35:18.961
172, -4278.70, -4976.01, -4708.40, -4297.45, 0.000, 0.000, 0.000, 12:35:18.961
173, -4319.40, -4956.36, -4748.14, -4178.79, 0.000, 0.000, 0.000, 12:35:18.961
174, -4311.05, -4965.69, -4753.72, -4126.85, 0.000, 0.000, 0.000, 12:35:18.962
175, -4288.87, -4971.60, -4729.11, -4207.42, 0.000, 0.000, 0.000, 12:35:18.975
176, -4271.70, -4951.61, -4707.92, -4305.22, 0.000, 0.000, 0.000, 12:35:18.975
177, -4301.06, -4956.73, -4782.05, -4177.13, 0.000, 0.000, 0.000, 12:35:18.991
178, -4323.09, -4956.00, -4764.79, -4125.85, 0.000, 0.000, 0.000, 12:35:18.991
179, -4309.37, -4969.47, -4722.79, -4224.43, 0.000, 0.000, 0.000, 12:35:18.992
180, -4270.16, -4952.44, -4697.71, -4299.80, 0.000, 0.000, 0.000, 12:35:18.992
181, -4322.79, -4948.71, -4755.70, -4160.95, 0.000, 0.000, 0.000, 12:35:19.005
182, -4314.92, -4962.17, -4762.60, -4122.97, 0.000, 0.000, 0.000, 12:35:19.005
183, -4300.22, -4973.55, -4747.42, -4224.03, 0.000, 0.000, 0.000, 12:35:19.020
184, -4289.47, -4984.95, -4714.00, -4313.08, 0.000, 0.000, 0.000, 12:35:19.020
185, -4319.41, -4965.18, -4771.73, -4173.36, 0.000, 0.000, 0.000, 12:35:19.020
186, -4326.76, -4954.67, -4764.57, -4124.53, 0.000, 0.000, 0.000, 12:35:19.020
187, -4304.56, -4972.32, -4727.86, -4211.79, 0.000, 0.000, 0.000, 12:35:19.035
188, -4274.58, -4965.92, -4701.25, -4305.57, 0.000, 0.000, 0.000, 12:35:19.035
189, -4323.42, -4954.78, -4746.67, -4167.16, 0.000, 0.000, 0.000, 12:35:19.050
190, -4329.93, -4983.38, -4765.12, -4122.48, 0.000, 0.000, 0.000, 12:35:19.050
191, -4296.57, -4972.50, -4735.21, -4211.60, 0.000, 0.000, 0.000, 12:35:19.051
192, -4269.95, -4950.33, -4705.93, -4310.31, 0.000, 0.000, 0.000, 12:35:19.051
193, -4318.02, -4955.71, -4772.43, -4180.46, 0.000, 0.000, 0.000, 12:35:19.065
194, -4332.23, -4969.85, -4770.82, -4124.63, 0.000, 0.000, 0.000, 12:35:19.066
195, -4294.21, -4971.15, -4730.16, -4224.00, 0.000, 0.000, 0.000, 12:35:19.080
196, -4268.43, -4995.13, -4719.52, -4297.65, 0.000, 0.000, 0.000, 12:35:19.080
197, -4329.91, -4970.34, -4767.43, -4176.09, 0.000, 0.000, 0.000, 12:35:19.081
198, -4325.21, -4959.47, -4762.81, -4123.02, 0.000, 0.000, 0.000, 12:35:19.081
199, -4294.37, -4971.37, -4730.89, -4220.37, 0.000, 0.000, 0.000, 12:35:19.095
200, -4274.90, -4967.39, -4715.20, -4295.35, 0.000, 0.000, 0.000, 12:35:19.095
0, -4301.20, -4936.21, -4746.65, -4160.44, 0.000, 0.000, 0.000, 12:35:19.095
1, -4318.17, -4959.01, -4754.65, -4119.22, 0.000, 0.000, 0.000, 12:35:19.111
2, -4298.43, -4979.30, -4735.68, -4216.75, 0.000, 0.000, 0.000, 12:35:19.111
3, -4274.26, -4970.20, -4713.96, -4314.15, 0.000, 0.000, 0.000, 12:35:19.126
4, -4325.23, -4967.95, -4764.63, -4157.82, 0.000, 0.000, 0.000, 12:35:19.126
5, -4325.35, -4988.06, -4781.62, -4134.84, 0.000, 0.000, 0.000, 12:35:19.126
6, -4303.91, -4974.88, -4752.05, -4214.18, 0.000, 0.000, 0.000, 12:35:19.126
7, -4267.01, -4978.91, -4737.28, -4302.10, 0.000, 0.000, 0.000, 12:35:19.140
8, -4317.96, -4964.82, -4757.30, -4167.50, 0.000, 0.000, 0.000, 12:35:19.141
9, -4330.56, -4969.41, -4762.58, -4120.27, 0.000, 0.000, 0.000, 12:35:19.155
10, -4314.41, -4977.50, -4735.75, -4223.55, 0.000, 0.000, 0.000, 12:35:19.156
11, -4286.22, -4971.86, -4714.19, -4308.84, 0.000, 0.000, 0.000, 12:35:19.156
12, -4323.73, -4968.41, -4770.82, -4169.27, 0.000, 0.000, 0.000, 12:35:19.156
13, -4344.15, -4975.28, -4789.86, -4118.96, 0.000, 0.000, 0.000, 12:35:19.170
14, -4300.66, -4989.54, -4743.66, -4233.33, 0.000, 0.000, 0.000, 12:35:19.170
15, -4276.61, -4976.75, -4712.55, -4285.06, 0.000, 0.000, 0.000, 12:35:19.185
16, -4316.06, -4963.66, -4752.95, -4155.75, 0.000, 0.000, 0.000, 12:35:19.185
17, -4330.60, -4984.87, -4770.07, -4132.22, 0.000, 0.000, 0.000, 12:35:19.186
18, -4288.81, -4957.04, -4745.59, -4220.44, 0.000, 0.000, 0.000, 12:35:19.186
19, -4275.00, -4967.85, -4706.59, -4291.69, 0.000, 0.000, 0.000, 12:35:19.200
20, -4320.75, -4958.74, -4758.19, -4162.18, 0.000, 0.000, 0.000, 12:35:19.201
21, -4328.55, -4975.87, -4776.77, -4140.38, 0.000, 0.000, 0.000, 12:35:19.215
22, -4305.32, -4971.85, -4741.38, -4212.72, 0.000, 0.000, 0.000, 12:35:19.215
23, -4289.88, -4973.55, -4718.21, -4308.36, 0.000, 0.000, 0.000, 12:35:19.216
24, -4330.30, -4964.64, -4759.85, -4178.17, 0.000, 0.000, 0.000, 12:35:19.216
25, -4328.96, -4978.84, -4764.48, -4134.66, 0.000, 0.000, 0.000, 12:35:19.230
26, -4305.70, -4976.85, -4745.36, -4218.18, 0.000, 0.000, 0.000, 12:35:19.230
27, -4294.04, -4987.84, -4738.53, -4318.76, 0.000, 0.000, 0.000, 12:35:19.245
28, -4326.61, -4971.96, -4763.39, -4173.35, 0.000, 0.000, 0.000, 12:35:19.245
29, -4338.36, -4985.76, -4785.13, -4119.07, 0.000, 0.000, 0.000, 12:35:19.246
30, -4309.07, -4987.14, -4745.22, -4217.68, 0.000, 0.000, 0.000, 12:35:19.246
31, -4285.30, -4959.77, -4716.71, -4298.29, 0.000, 0.000, 0.000, 12:35:19.261
32, -4321.97, -4962.76, -4755.54, -4169.01, 0.000, 0.000, 0.000, 12:35:19.261
33, -4322.91, -4967.13, -4766.69, -4119.14, 0.000, 0.000, 0.000, 12:35:19.275
34, -4306.83, -4975.53, -4746.09, -4228.25, 0.000, 0.000, 0.000, 12:35:19.275
35, -4290.39, -4974.84, -4741.57, -4312.72, 0.000, 0.000, 0.000, 12:35:19.276
36, -4332.38, -4962.71, -4754.77, -4167.63, 0.000, 0.000, 0.000, 12:35:19.276
37, -4333.73, -4966.07, -4760.39, -4118.82, 0.000, 0.000, 0.000, 12:35:19.294
38, -4304.89, -4965.87, -4742.82, -4215.08, 0.000, 0.000, 0.000, 12:35:19.294
39, -4281.13, -4980.24, -4727.42, -4306.12, 0.000, 0.000, 0.000, 12:35:19.308
40, -4322.81, -4974.14, -4766.33, -4165.82, 0.000, 0.000, 0.000, 12:35:19.308
41, -4318.40, -4965.88, -4777.26, -4118.83, 0.000, 0.000, 0.000, 12:35:19.309
42, -4293.70, -4973.83, -4740.29, -4225.70, 0.000, 0.000, 0.000, 12:35:19.309
43, -4282.22, -4962.69, -4706.75, -4303.87, 0.000, 0.000, 0.000, 12:35:19.320
44, -4328.92, -4970.11, -4766.92, -4162.75, 0.000, 0.000, 0.000, 12:35:19.320
45, -4312.89, -4967.66, -4762.07, -4116.03, 0.000, 0.000, 0.000, 12:35:19.335
46, -4301.11, -4971.22, -4734.78, -4218.80, 0.000, 0.000, 0.000, 12:35:19.335
47, -4272.95, -4976.74, -4715.63, -4311.05, 0.000, 0.000, 0.000, 12:35:19.336
48, -4321.97, -4980.70, -4767.68, -4174.76, 0.000, 0.000, 0.000, 12:35:19.336
49, -4331.40, -4972.49, -4773.71, -4121.45, 0.000, 0.000, 0.000, 12:35:19.358
50, -4306.96, -4983.82, -4743.09, -4215.32, 0.000, 0.000, 0.000, 12:35:19.358
51, -4275.89, -4975.18, -4718.92, -4304.37, 0.000, 0.000, 0.000, 12:35:19.365
52, -4316.63, -4958.68, -4769.00, -4161.04, 0.000, 0.000, 0.000, 12:35:19.365
53, -4325.44, -4983.26, -4782.73, -4121.64, 0.000, 0.000, 0.000, 12:35:19.365
54, -4298.62, -4954.36, -4723.47, -4205.86, 0.000, 0.000, 0.000, 12:35:19.365
55, -4275.90, -4957.91, -4700.08, -4308.82, 0.000, 0.000, 0.000, 12:35:19.380
56, -4329.98, -4954.70, -4761.57, -4166.43, 0.000, 0.000, 0.000, 12:35:19.381
57, -4337.91, -4962.33, -4785.01, -4120.34, 0.000, 0.000, 0.000, 12:35:19.395
58, -4319.32, -5001.79, -4747.22, -4223.65, 0.000, 0.000, 0.000, 12:35:19.395
59, -4294.21, -4984.29, -4724.55, -4321.32, 0.000, 0.000, 0.000, 12:35:19.395
60, -4316.72, -4954.13, -4763.27, -4160.33, 0.000, 0.000, 0.000, 12:35:19.395
61, -4326.79, -4975.15, -4773.99, -4128.67, 0.000, 0.000, 0.000, 12:35:19.411
62, -4297.60, -4965.90, -4733.74, -4219.67, 0.000, 0.000, 0.000, 12:35:19.411
63, -4271.10, -4979.25, -4710.20, -4306.30, 0.000, 0.000, 0.000, 12:35:19.425
64, -4307.98, -4963.76, -4759.31, -4174.72, 0.000, 0.000, 0.000, 12:35:19.425
65, -4319.89, -4975.81, -4770.59, -4118.94, 0.000, 0.000, 0.000, 12:35:19.426
66, -4301.09, -4979.28, -4746.40, -4222.46, 0.000, 0.000, 0.000, 12:35:19.426
67, -4283.14, -4981.13, -4710.29, -4288.93, 0.000, 0.000, 0.000, 12:35:19.441
68, -4327.67, -4968.69, -4772.71, -4179.63, 0.000, 0.000, 0.000, 12:35:19.441
69, -4324.78, -4950.31, -4759.24, -4135.99, 0.000, 0.000, 0.000, 12:35:19.455
70, -4300.90, -4978.23, -4745.34, -4212.52, 0.000, 0.000, 0.000, 12:35:19.455
71, -4275.49, -4962.91, -4731.43, -4312.77, 0.000, 0.000, 0.000, 12:35:19.456
72, -4312.83, -4972.86, -4776.96, -4151.98, 0.000, 0.000, 0.000, 12:35:19.456
73, -4325.63, -4986.14, -4778.49, -4123.49, 0.000, 0.000, 0.000, 12:35:19.470
74, -4293.15, -4985.10, -4730.14, -4217.03, 0.000, 0.000, 0.000, 12:35:19.470
75, -4279.89, -4961.96, -4711.84, -4314.02, 0.000, 0.000, 0.000, 12:35:19.485
76, -4318.79, -4957.61, -4758.33, -4177.20, 0.000, 0.000, 0.000, 12:35:19.485
77, -4334.50, -4971.43, -4760.95, -4112.79, 0.000, 0.000, 0.000, 12:35:19.486
78, -4289.02, -4967.68, -4738.26, -4199.85, 0.000, 0.000, 0.000, 12:35:19.486
79, -4267.35, -4970.84, -4723.56, -4308.38, 0.000, 0.000, 0.000, 12:35:19.500
80, -4318.30, -4974.64, -4761.08, -4169.99, 0.000, 0.000, 0.000, 12:35:19.501
81, -4335.53, -4981.74, -4772.75, -4141.17, 0.000, 0.000, 0.000, 12:35:19.515
82, -4298.74, -4987.18, -4741.67, -4223.05, 0.000, 0.000, 0.000, 12:35:19.515
83, -4276.39, -4954.56, -4716.57, -4306.48, 0.000, 0.000, 0.000, 12:35:19.515
84, -4318.74, -4961.06, -4789.99, -4179.42, 0.000, 0.000, 0.000, 12:35:19.515
85, -4319.79, -4990.28, -4777.96, -4127.49, 0.000, 0.000, 0.000, 12:35:19.530
86, -4304.42, -4978.32, -4732.57, -4220.51, 0.000, 0.000, 0.000, 12:35:19.530
87, -4283.87, -4958.35, -4709.35, -4312.96, 0.000, 0.000, 0.000, 12:35:19.545
88, -4324.92, -4973.97, -4758.89, -4168.14, 0.000, 0.000, 0.000, 12:35:19.545
89, -4328.87, -4975.72, -4768.84, -4125.25, 0.000, 0.000, 0.000, 12:35:19.545
90, -4298.55, -4985.38, -4756.45, -4225.10, 0.000, 0.000, 0.000, 12:35:19.545
91, -4276.87, -4956.08, -4709.43, -4311.77, 0.000, 0.000, 0.000, 12:35:19.561
92, -4319.01, -4968.15, -4757.04, -4172.97, 0.000, 0.000, 0.000, 12:35:19.561
93, -4323.72, -4978.46, -4770.10, -4115.92, 0.000, 0.000, 0.000, 12:35:19.575
94, -4295.13, -4975.45, -4736.19, -4210.99, 0.000, 0.000, 0.000, 12:35:19.575
95, -4273.56, -4949.85, -4711.45, -4295.01, 0.000, 0.000, 0.000, 12:35:19.575
96, -4331.52, -4958.04, -4764.07, -4158.20, 0.000, 0.000, 0.000, 12:35:19.575
97, -4335.05, -4978.18, -4775.71, -4117.08, 0.000, 0.000, 0.000, 12:35:19.590
98, -4298.37, -4961.94, -4740.61, -4204.72, 0.000, 0.000, 0.000, 12:35:19.591
99, -4273.79, -4954.12, -4722.07, -4292.70, 0.000, 0.000, 0.000, 12:35:19.605
100, -4329.65, -4969.10, -4755.98, -4164.01, 0.000, 0.000, 0.000, 12:35:19.605
101, -4331.20, -4997.07, -4783.94, -4128.73, 0.000, 0.000, 0.000, 12:35:19.606
102, -4303.31, -4968.58, -4745.59, -4224.24, 0.000, 0.000, 0.000, 12:35:19.606
103, -4274.29, -4943.48, -4704.60, -4296.13, 0.000, 0.000, 0.000, 12:35:19.620
104, -4314.69, -4951.90, -4763.02, -4157.71, 0.000, 0.000, 0.000, 12:35:19.620
105, -4326.15, -4967.05, -4770.42, -4107.93, 0.000, 0.000, 0.000, 12:35:19.635
106, -4297.46, -4969.24, -4729.29, -4207.43, 0.000, 0.000, 0.000, 12:35:19.635
107, -4276.54, -4967.62, -4721.75, -4298.91, 0.000, 0.000, 0.000, 12:35:19.635
108, -4323.08, -4956.95, -4770.48, -4154.12, 0.000, 0.000, 0.000, 12:35:19.635
109, -4327.66, -4964.58, -4764.80, -4121.67, 0.000, 0.000, 0.000, 12:35:19.650
110, -4294.85, -4980.21, -4730.97, -4213.06, 0.000, 0.000, 0.000, 12:35:19.651
111, -4279.27, -4967.88, -4714.83, -4307.56, 0.000, 0.000, 0.000, 12:35:19.665
112, -4323.00, -4968.99, -4764.05, -4150.07, 0.000, 0.000, 0.000, 12:35:19.665
113, -4334.67, -4981.67, -4777.63, -4123.52, 0.000, 0.000, 0.000, 12:35:19.666
114, -4307.64, -4981.71, -4737.76, -4219.79, 0.000, 0.000, 0.000, 12:35:19.666
115, -4266.02, -4953.88, -4708.09, -4287.67, 0.000, 0.000, 0.000, 12:35:19.680
116, -4317.71, -4975.75, -4768.59, -4161.29, 0.000, 0.000, 0.000, 12:35:19.680
117, -4328.72, -4988.49, -4799.19, -4114.44, 0.000, 0.000, 0.000, 12:35:19.695
118, -4299.94, -4979.31, -4750.87, -4216.19, 0.000, 0.000, 0.000, 12:35:19.695
119, -4280.20, -4963.80, -4723.15, -4298.82, 0.000, 0.000, 0.000, 12:35:19.696
120, -4328.14, -4946.96, -4756.17, -4160.52, 0.000, 0.000, 0.000, 12:35:19.696
121, -4334.42, -4983.67, -4766.76, -4113.88, 0.000, 0.000, 0.000, 12:35:19.711
122, -4293.11, -4966.48, -4734.47, -4215.61, 0.000, 0.000, 0.000, 12:35:19.711
123, -4275.18, -4947.05, -4715.57, -4299.18, 0.000, 0.000, 0.000, 12:35:19.725
124, -4315.92, -4963.14, -4771.84, -4155.16, 0.000, 0.000, 0.000, 12:35:19.725
125, -4321.92, -4977.22, -4769.33, -4127.64, 0.000, 0.000, 0.000, 12:35:19.726
126, -4306.49, -4972.85, -4738.05, -4212.11, 0.000, 0.000, 0.000, 12:35:19.726
127, -4280.93, -4961.52, -4731.76, -4313.86, 0.000, 0.000, 0.000, 12:35:19.741
128, -4320.33, -4950.61, -4751.56, -4178.23, 0.000, 0.000, 0.000, 12:35:19.741
129, -4325.16, -4969.32, -4767.48, -4124.67, 0.000, 0.000, 0.000, 12:35:19.755
130, -4311.11, -4986.87, -4745.48, -4221.52, 0.000, 0.000, 0.000, 12:35:19.755
131, -4272.06, -4958.10, -4727.03, -4284.46, 0.000, 0.000, 0.000, 12:35:19.756
132, -4323.63, -4955.16, -4786.81, -4170.44, 0.000, 0.000, 0.000, 12:35:19.756
133, -4327.32, -4987.56, -4766.04, -4118.86, 0.000, 0.000, 0.000, 12:35:19.770
134, -4301.77, -4979.78, -4729.63, -4202.33, 0.000, 0.000, 0.000, 12:35:19.770
135, -4276.26, -4976.38, -4702.98, -4312.34, 0.000, 0.000, 0.000, 12:35:19.800
136, -4332.70, -4976.16, -4762.43, -4179.15, 0.000, 0.000, 0.000, 12:35:19.800
137, -4336.54, -4978.30, -4774.77, -4135.17, 0.000, 0.000, 0.000, 12:35:19.800
138, -4311.18, -4983.63, -4760.01, -4215.91, 0.000, 0.000, 0.000, 12:35:19.800
139, -4269.13, -4963.74, -4709.69, -4302.17, 0.000, 0.000, 0.000, 12:35:19.801
140, -4317.89, -4955.11, -4763.38, -4156.04, 0.000, 0.000, 0.000, 12:35:19.801
141, -4329.00, -4975.02, -4769.35, -4125.85, 0.000, 0.000, 0.000, 12:35:19.802
142, -4310.78, -4964.58, -4738.79, -4240.40, 0.000, 0.000, 0.000, 12:35:19.802
143, -4264.84, -4963.53, -4708.52, -4302.91, 0.000, 0.000, 0.000, 12:35:19.815
144, -4324.38, -4966.87, -4759.12, -4172.71, 0.000, 0.000, 0.000, 12:35:19.815
145, -4326.39, -4962.60, -4771.48, -4108.27, 0.000, 0.000, 0.000, 12:35:19.829
146, -4303.32, -4997.82, -4748.32, -4206.02, 0.000, 0.000, 0.000, 12:35:19.830
147, -4274.38, -4972.86, -4718.16, -4303.52, 0.000, 0.000, 0.000, 12:35:19.845
148, -4321.58, -4959.56, -4765.60, -4163.53, 0.000, 0.000, 0.000, 12:35:19.846
149, -4321.59, -4974.64, -4772.64, -4118.53, 0.000, 0.000, 0.000, 12:35:19.846
150, -4291.56, -4974.44, -4736.59, -4221.46, 0.000, 0.000, 0.000, 12:35:19.846
151, -4274.05, -4969.00, -4712.70, -4301.61, 0.000, 0.000, 0.000, 12:35:19.861
152, -4311.81, -4960.81, -4754.12, -4161.72, 0.000, 0.000, 0.000, 12:35:19.862
153, -4329.05, -4990.65, -4779.63, -4113.26, 0.000, 0.000, 0.000, 12:35:19.875
154, -4306.33, -4987.77, -4746.25, -4208.06, 0.000, 0.000, 0.000, 12:35:19.875
155, -4272.75, -4962.33, -4709.80, -4285.34, 0.000, 0.000, 0.000, 12:35:19.875
156, -4320.29, -4972.29, -4776.23, -4175.73, 0.000, 0.000, 0.000, 12:35:19.876
157, -4325.44, -4973.34, -4772.42, -4128.18, 0.000, 0.000, 0.000, 12:35:19.891
158, -4294.69, -4982.81, -4744.01, -4218.51, 0.000, 0.000, 0.000, 12:35:19.891
159, -4265.15, -4959.72, -4721.57, -4296.47, 0.000, 0.000, 0.000, 12:35:19.905
160, -4314.93, -4969.43, -4771.96, -4167.16, 0.000, 0.000, 0.000, 12:35:19.905
161, -4324.01, -4989.33, -4777.88, -4114.75, 0.000, 0.000, 0.000, 12:35:19.906
162, -4298.21, -4978.36, -4740.97, -4220.62, 0.000, 0.000, 0.000, 12:35:19.906
163, -4272.75, -4965.92, -4719.74, -4310.16, 0.000, 0.000, 0.000, 12:35:19.920
164, -4316.40, -4982.88, -4779.67, -4163.65, 0.000, 0.000, 0.000, 12:35:19.920
165, -4316.20, -4986.89, -4785.95, -4126.11, 0.000, 0.000, 0.000, 12:35:19.935
166, -4291.68, -4985.31, -4754.16, -4221.18, 0.000, 0.000, 0.000, 12:35:19.935
167, -4268.93, -4969.05, -4720.96, -4308.01, 0.000, 0.000, 0.000, 12:35:19.935
168, -4305.69, -4991.66, -4765.47, -4172.02, 0.000, 0.000, 0.000, 12:35:19.935
169, -4340.97, -5007.54, -4797.35, -4153.00, 0.000, 0.000, 0.000, 12:35:19.950
170, -4308.76, -5010.55, -4770.35, -4216.19, 0.000, 0.000, 0.000, 12:35:19.950
171, -4246.76, -4959.50, -4733.52, -4300.40, 0.000, 0.000, 0.000, 12:35:19.965
172, -4281.34, -4975.51, -4799.46, -4151.05, 0.000, 0.000, 0.000, 12:35:19.965
173, -4282.73, -5001.82, -4831.29, -4093.37, 0.000, 0.000, 0.000, 12:35:19.980
174, -4238.15, -4996.72, -4815.10, -4168.27, 0.000, 0.000, 0.000, 12:35:19.980
175, -4198.31, -5009.10, -4802.66, -4251.50, 0.000, 0.000, 0.000, 12:35:19.981
176, -4231.94, -5016.29, -4855.87, -4100.97, 0.000, 0.000, 0.000, 12:35:19.981
177, -4230.06, -5006.45, -4879.38, -4058.27, 0.000, 0.000, 0.000, 12:35:19.995
178, -4203.18, -5021.49, -4853.24, -4135.05, 0.000, 0.000, 0.000, 12:35:19.995
179, -4185.46, -5034.70, -4843.97, -4231.40, 0.000, 0.000, 0.000, 12:35:19.995
180, -4235.06, -5035.82, -4896.93, -4082.84, 0.000, 0.000, 0.000, 12:35:19.996
181, -4247.22, -5046.45, -4911.66, -4045.88, 0.000, 0.000, 0.000, 12:35:20.011
182, -4218.90, -5049.64, -4885.99, -4130.70, 0.000, 0.000, 0.000, 12:35:20.011
183, -4199.08, -5039.75, -4863.80, -4213.02, 0.000, 0.000, 0.000, 12:35:20.025
184, -4260.15, -5048.45, -4914.59, -4072.69, 0.000, 0.000, 0.000, 12:35:20.025
185, -4283.17, -5045.01, -4918.41, -4042.00, 0.000, 0.000, 0.000, 12:35:20.025
186, -4277.36, -5047.35, -4904.22, -4129.51, 0.000, 0.000, 0.000, 12:35:20.026
187, -4253.65, -5031.42, -4869.50, -4209.04, 0.000, 0.000, 0.000, 12:35:20.040
188, -4301.10, -5033.71, -4918.79, -4070.21, 0.000, 0.000, 0.000, 12:35:20.041
189, -4321.37, -5049.66, -4922.19, -4033.29, 0.000, 0.000, 0.000, 12:35:20.056
190, -4289.10, -5049.72, -4887.54, -4123.39, 0.000, 0.000, 0.000, 12:35:20.056
191, -4291.42, -5049.81, -4872.22, -4226.57, 0.000, 0.000, 0.000, 12:35:20.057
192, -4331.11, -5035.06, -4913.17, -4086.17, 0.000, 0.000, 0.000, 12:35:20.057
193, -4351.71, -5051.23, -4918.78, -4052.62, 0.000, 0.000, 0.000, 12:35:20.070
194, -4331.80, -5049.38, -4880.42, -4156.96, 0.000, 0.000, 0.000, 12:35:20.070
195, -4304.67, -5025.78, -4846.88, -4244.77, 0.000, 0.000, 0.000, 12:35:20.085
196, -4347.51, -5012.34, -4874.44, -4115.48, 0.000, 0.000, 0.000, 12:35:20.085
197, -4356.27, -5022.29, -4874.86, -4075.44, 0.000, 0.000, 0.000, 12:35:20.085
198, -4334.62, -5028.04, -4849.10, -4175.65, 0.000, 0.000, 0.000, 12:35:20.085
199, -4312.92, -5018.41, -4803.70, -4273.59, 0.000, 0.000, 0.000, 12:35:20.100
200, -4349.59, -5016.58, -4841.13, -4127.91, 0.000, 0.000, 0.000, 12:35:20.100
0, -4396.71, -5033.13, -4871.56, -4115.03, 0.000, 0.000, 0.000, 12:35:20.101
1, -4343.08, -5011.35, -4812.70, -4188.93, 0.000, 0.000, 0.000, 12:35:20.122
2, -4317.05, -4987.79, -4775.61, -4282.49, 0.000, 0.000, 0.000, 12:35:20.122
3, -4356.89, -4977.70, -4824.48, -4150.07, 0.000, 0.000, 0.000, 12:35:20.130
4, -4363.50, -4986.76, -4814.11, -4101.71, 0.000, 0.000, 0.000, 12:35:20.130
5, -4340.81, -4999.29, -4789.96, -4214.31, 0.000, 0.000, 0.000, 12:35:20.130
6, -4315.98, -4986.13, -4752.47, -4284.02, 0.000, 0.000, 0.000, 12:35:20.131
7, -4358.89, -4985.02, -4807.02, -4167.03, 0.000, 0.000, 0.000, 12:35:20.145
8, -4364.64, -4980.32, -4816.62, -4117.30, 0.000, 0.000, 0.000, 12:35:20.145
9, -4339.68, -4984.73, -4769.30, -4215.70, 0.000, 0.000, 0.000, 12:35:20.161
10, -4305.81, -4984.09, -4737.95, -4296.63, 0.000, 0.000, 0.000, 12:35:20.161
11, -4352.39, -4990.63, -4790.82, -4166.52, 0.000, 0.000, 0.000, 12:35:20.161
12, -4345.59, -4981.31, -4799.25, -4120.14, 0.000, 0.000, 0.000, 12:35:20.161
13, -4328.96, -4984.43, -4765.90, -4215.19, 0.000, 0.000, 0.000, 12:35:20.175
14, -4298.89, -4962.75, -4731.52, -4295.27, 0.000, 0.000, 0.000, 12:35:20.175
15, -4347.50, -4955.47, -4782.04, -4167.34, 0.000, 0.000, 0.000, 12:35:20.191
16, -4353.81, -4982.83, -4789.28, -4126.88, 0.000, 0.000, 0.000, 12:35:20.191
17, -4320.04, -4986.71, -4762.42, -4216.22, 0.000, 0.000, 0.000, 12:35:20.192
18, -4309.25, -4999.69, -4745.15, -4300.89, 0.000, 0.000, 0.000, 12:35:20.192
19, -4347.22, -4973.76, -4787.03, -4180.68, 0.000, 0.000, 0.000, 12:35:20.206
20, -4343.66, -4979.99, -4780.91, -4129.48, 0.000, 0.000, 0.000, 12:35:20.206
21, -4316.46, -4979.45, -4754.72, -4200.13, 0.000, 0.000, 0.000, 12:35:20.220
22, -4295.74, -4983.96, -4731.35, -4301.01, 0.000, 0.000, 0.000, 12:35:20.220
23, -4334.16, -4978.60, -4776.52, -4169.96, 0.000, 0.000, 0.000, 12:35:20.220
24, -4336.29, -4975.39, -4785.72, -4126.43, 0.000, 0.000, 0.000, 12:35:20.220
25, -4305.41, -4978.40, -4749.01, -4228.73, 0.000, 0.000, 0.000, 12:35:20.235
26, -4288.78, -4968.19, -4718.00, -4307.70, 0.000, 0.000, 0.000, 12:35:20.235
27, -4331.59, -4954.98, -4762.00, -4173.04, 0.000, 0.000, 0.000, 12:35:20.250
28, -4341.05, -4998.90, -4788.38, -4133.93, 0.000, 0.000, 0.000, 12:35:20.250
29, -4317.83, -4988.43, -4756.90, -4215.91, 0.000, 0.000, 0.000, 12:35:20.251
30, -4292.26, -4951.83, -4725.66, -4310.12, 0.000, 0.000, 0.000, 12:35:20.251
31, -4327.79, -4945.00, -4763.35, -4174.07, 0.000, 0.000, 0.000, 12:35:20.265
32, -4333.47, -4982.13, -4778.19, -4141.62, 0.000, 0.000, 0.000, 12:35:20.265
33, -4311.22, -4983.54, -4740.42, -4223.56, 0.000, 0.000, 0.000, 12:35:20.280
34, -4284.00, -4971.66, -4718.01, -4298.56, 0.000, 0.000, 0.000, 12:35:20.280
35, -4317.76, -4957.87, -4760.96, -4167.60, 0.000, 0.000, 0.000, 12:35:20.280
36, -4330.47, -4977.38, -4762.13, -4132.02, 0.000, 0.000, 0.000, 12:35:20.280
37, -4313.63, -4981.57, -4739.12, -4234.37, 0.000, 0.000, 0.000, 12:35:20.295
38, -4278.28, -4971.27, -4720.59, -4311.50, 0.000, 0.000, 0.000, 12:35:20.295
39, -4314.77, -4952.73, -4752.78, -4184.83, 0.000, 0.000, 0.000, 12:35:20.311
40, -4339.46, -4970.29, -4770.74, -4127.73, 0.000, 0.000, 0.000, 12:35:20.311
41, -4300.23, -4993.24, -4746.93, -4221.88, 0.000, 0.000, 0.000, 12:35:20.312
42, -4264.10, -4954.68, -4715.02, -4300.19, 0.000, 0.000, 0.000, 12:35:20.312
43, -4317.47, -4951.90, -4761.42, -4156.35, 0.000, 0.000, 0.000, 12:35:20.326
44, -4321.86, -4977.80, -4771.14, -4126.92, 0.000, 0.000, 0.000, 12:35:20.326
45, -4292.82, -4993.56, -4739.02, -4219.39, 0.000, 0.000, 0.000, 12:35:20.341
46, -4262.37, -4981.47, -4723.13, -4310.19, 0.000, 0.000, 0.000, 12:35:20.341
47, -4284.37, -4974.59, -4763.58, -4155.00, 0.000, 0.000, 0.000, 12:35:20.341
48, -4277.43, -4972.72, -4774.43, -4115.88, 0.000, 0.000, 0.000, 12:35:20.341
49, -4238.14, -4985.41, -4738.49, -4201.84, 0.000, 0.000, 0.000, 12:35:20.356
50, -4184.22, -4988.38, -4721.93, -4279.49, 0.000, 0.000, 0.000, 12:35:20.356
51, -4203.98, -4971.12, -4750.41, -4147.27, 0.000, 0.000, 0.000, 12:35:20.370
52, -4186.90, -5007.52, -4776.48, -4101.13, 0.000, 0.000, 0.000, 12:35:20.370
53, -4157.33, -5016.62, -4742.30, -4179.91, 0.000, 0.000, 0.000, 12:35:20.371
54, -4097.90, -5011.76, -4709.77, -4257.45, 0.000, 0.000, 0.000, 12:35:20.371
55, -4152.25, -5011.56, -4769.94, -4139.49, 0.000, 0.000, 0.000, 12:35:20.385
56, -4177.10, -5041.09, -4787.06, -4112.78, 0.000, 0.000, 0.000, 12:35:20.385
57, -4138.61, -5027.50, -4745.58, -4171.94, 0.000, 0.000, 0.000, 12:35:20.400
58, -4119.83, -5023.49, -4713.16, -4268.16, 0.000, 0.000, 0.000, 12:35:20.400
59, -4180.62, -5008.84, -4760.47, -4148.04, 0.000, 0.000, 0.000, 12:35:20.400
60, -4209.53, -5002.79, -4773.42, -4102.02, 0.000, 0.000, 0.000, 12:35:20.400
61, -4201.91, -4997.76, -4743.92, -4189.82, 0.000, 0.000, 0.000, 12:35:20.415
62, -4196.57, -4992.38, -4711.29, -4289.63, 0.000, 0.000, 0.000, 12:35:20.415
63, -4264.04, -4963.31, -4759.12, -4163.92, 0.000, 0.000, 0.000, 12:35:20.430
64, -4295.91, -4970.91, -4760.52, -4120.98, 0.000, 0.000, 0.000, 12:35:20.430
65, -4287.39, -4976.41, -4748.16, -4220.89, 0.000, 0.000, 0.000, 12:35:20.430
66, -4280.54, -4989.94, -4718.16, -4314.30, 0.000, 0.000, 0.000, 12:35:20.430
67, -4323.42, -4934.23, -4750.13, -4171.25, 0.000, 0.000, 0.000, 12:35:20.445
68, -4354.77, -4953.15, -4764.41, -4132.80, 0.000, 0.000, 0.000, 12:35:20.445
69, -4338.33, -4947.99, -4734.12, -4227.22, 0.000, 0.000, 0.000, 12:35:20.461
70, -4321.51, -4953.66, -4719.35, -4315.95, 0.000, 0.000, 0.000, 12:35:20.461
71, -4374.49, -4939.51, -4761.76, -4180.80, 0.000, 0.000, 0.000, 12:35:20.461
72, -4392.08, -4962.37, -4759.35, -4135.27, 0.000, 0.000, 0.000, 12:35:20.461
73, -4357.12, -4954.45, -4734.86, -4230.63, 0.000, 0.000, 0.000, 12:35:20.475
74, -4341.86, -4957.26, -4716.62, -4321.14, 0.000, 0.000, 0.000, 12:35:20.475
75, -4365.38, -4927.00, -4750.24, -4186.52, 0.000, 0.000, 0.000, 12:35:20.491
76, -4383.68, -4941.07, -4766.20, -4137.82, 0.000, 0.000, 0.000, 12:35:20.491
77, -4368.27, -4949.03, -4747.28, -4234.23, 0.000, 0.000, 0.000, 12:35:20.491
78, -4344.83, -4955.60, -4713.69, -4323.28, 0.000, 0.000, 0.000, 12:35:20.491
79, -4384.82, -4954.75, -4763.07, -4187.92, 0.000, 0.000, 0.000, 12:35:20.505
80, -4397.85, -4950.35, -4779.89, -4153.00, 0.000, 0.000, 0.000, 12:35:20.505
81, -4367.23, -4963.34, -4748.41, -4231.70, 0.000, 0.000, 0.000, 12:35:20.520
82, -4328.82, -4958.80, -4715.99, -4311.93, 0.000, 0.000, 0.000, 12:35:20.521
83, -4379.49, -4957.39, -4758.69, -4171.20, 0.000, 0.000, 0.000, 12:35:20.521
84, -4388.88, -4955.68, -4781.73, -4137.28, 0.000, 0.000, 0.000, 12:35:20.521
85, -4353.06, -4963.58, -4747.12, -4232.84, 0.000, 0.000, 0.000, 12:35:20.536
86, -4334.49, -4956.99, -4724.82, -4307.93, 0.000, 0.000, 0.000, 12:35:20.536
87, -4362.05, -4937.13, -4756.15, -4165.05, 0.000, 0.000, 0.000, 12:35:20.550
88, -4372.18, -4964.57, -4789.40, -4131.95, 0.000, 0.000, 0.000, 12:35:20.551
89, -4354.27, -4972.42, -4749.85, -4231.95, 0.000, 0.000, 0.000, 12:35:20.551
90, -4327.64, -4985.83, -4732.74, -4316.68, 0.000, 0.000, 0.000, 12:35:20.551
91, -4350.94, -4946.26, -4764.74, -4176.74, 0.000, 0.000, 0.000, 12:35:20.565
92, -4366.94, -4960.84, -4770.63, -4133.35, 0.000, 0.000, 0.000, 12:35:20.565
93, -4342.00, -4985.07, -4758.23, -4207.99, 0.000, 0.000, 0.000, 12:35:20.580
94, -4298.89, -4975.68, -4716.74, -4304.45, 0.000, 0.000, 0.000, 12:35:20.580
95, -4344.53, -4957.74, -4768.44, -4175.05, 0.000, 0.000, 0.000, 12:35:20.580
96, -4345.03, -4987.03, -4783.05, -4120.12, 0.000, 0.000, 0.000, 12:35:20.580
97, -4314.38, -5004.64, -4757.29, -4244.39, 0.000, 0.000, 0.000, 12:35:20.595
98, -4285.01, -4977.29, -4733.59, -4299.41, 0.000, 0.000, 0.000, 12:35:20.595
99, -4302.40, -4991.47, -4772.44, -4174.28, 0.000, 0.000, 0.000, 12:35:20.611
100, -4287.40, -4988.39, -4793.00, -4121.95, 0.000, 0.000, 0.000, 12:35:20.611
101, -4218.29, -4990.93, -4750.75, -4201.94, 0.000, 0.000, 0.000, 12:35:20.611
102, -4160.88, -4991.24, -4718.05, -4292.44, 0.000, 0.000, 0.000, 12:35:20.611
103, -4187.84, -5003.26, -4764.17, -4158.01, 0.000, 0.000, 0.000, 12:35:20.625
104, -4183.03, -5038.81, -4790.31, -4112.47, 0.000, 0.000, 0.000, 12:35:20.625
105, -4124.75, -5035.31, -4751.80, -4184.39, 0.000, 0.000, 0.000, 12:35:20.640
106, -4097.14, -5033.46, -4719.92, -4264.56, 0.000, 0.000, 0.000, 12:35:20.640
107, -4144.94, -5014.00, -4763.52, -4143.76, 0.000, 0.000, 0.000, 12:35:20.641
108, -4173.41, -5026.83, -4779.14, -4109.41, 0.000, 0.000, 0.000, 12:35:20.641
109, -4148.91, -5008.55, -4735.65, -4194.77, 0.000, 0.000, 0.000, 12:35:20.655
110, -4123.46, -5003.02, -4712.10, -4277.66, 0.000, 0.000, 0.000, 12:35:20.656
111, -4214.09, -5004.92, -4763.31, -4151.89, 0.000, 0.000, 0.000, 12:35:20.670
112, -4234.37, -5007.91, -4781.99, -4127.42, 0.000, 0.000, 0.000, 12:35:20.670
113, -4237.13, -5012.30, -4745.65, -4209.94, 0.000, 0.000, 0.000, 12:35:20.671
114, -4221.94, -4993.44, -4721.60, -4278.80, 0.000, 0.000, 0.000, 12:35:20.671
115, -4280.63, -4945.74, -4763.47, -4165.31, 0.000, 0.000, 0.000, 12:35:20.685
116, -4316.03, -4963.64, -4762.00, -4126.60, 0.000, 0.000, 0.000, 12:35:20.685
117, -4315.28, -4971.24, -4743.19, -4218.30, 0.000, 0.000, 0.000, 12:35:20.700
118, -4293.70, -4942.21, -4713.89, -4308.39, 0.000, 0.000, 0.000, 12:35:20.700
119, -4348.14, -4934.52, -4754.54, -4174.79, 0.000, 0.000, 0.000, 12:35:20.701
120, -4385.63, -4976.75, -4780.03, -4143.71, 0.000, 0.000, 0.000, 12:35:20.701
121, -4356.06, -4968.86, -4744.78, -4224.46, 0.000, 0.000, 0.000, 12:35:20.715
122, -4327.22, -4944.00, -4707.55, -4304.28, 0.000, 0.000, 0.000, 12:35:20.715
123, -4386.46, -4951.47, -4765.30, -4186.79, 0.000, 0.000, 0.000, 12:35:20.730
124, -4400.48, -4943.70, -4780.68, -4140.67, 0.000, 0.000, 0.000, 12:35:20.731
125, -4382.02, -4939.24, -4757.04, -4235.97, 0.000, 0.000, 0.000, 12:35:20.731
126, -4363.34, -4955.30, -4716.54, -4303.50, 0.000, 0.000, 0.000, 12:35:20.731
127, -4402.00, -4945.86, -4772.87, -4187.94, 0.000, 0.000, 0.000, 12:35:20.745
128, -4416.54, -4975.05, -4797.02, -4144.79, 0.000, 0.000, 0.000, 12:35:20.745
129, -4379.98, -4968.05, -4746.07, -4216.58, 0.000, 0.000, 0.000, 12:35:20.761
130, -4336.97, -4938.98, -4721.79, -4293.21, 0.000, 0.000, 0.000, 12:35:20.761
131, -4384.08, -4935.34, -4761.20, -4164.98, 0.000, 0.000, 0.000, 12:35:20.767
132, -4399.52, -4950.34, -4780.90, -4137.63, 0.000, 0.000, 0.000, 12:35:20.767
133, -4368.19, -4960.47, -4748.97, -4223.13, 0.000, 0.000, 0.000, 12:35:20.775
134, -4338.54, -4949.82, -4712.11, -4303.50, 0.000, 0.000, 0.000, 12:35:20.775
135, -4368.54, -4947.49, -4762.00, -4172.18, 0.000, 0.000, 0.000, 12:35:20.791
136, -4384.86, -4966.33, -4786.41, -4140.93, 0.000, 0.000, 0.000, 12:35:20.791
137, -4368.86, -4976.33, -4762.82, -4230.91, 0.000, 0.000, 0.000, 12:35:20.791
138, -4315.72, -4967.45, -4716.34, -4301.81, 0.000, 0.000, 0.000, 12:35:20.791
139, -4347.55, -4945.17, -4765.93, -4176.44, 0.000, 0.000, 0.000, 12:35:20.805
140, -4368.70, -4976.95, -4789.99, -4141.64, 0.000, 0.000, 0.000, 12:35:20.805
141, -4326.40, -4991.52, -4747.46, -4204.58, 0.000, 0.000, 0.000, 12:35:20.820
142, -4278.51, -4973.24, -4716.64, -4289.41, 0.000, 0.000, 0.000, 12:35:20.820
143, -4305.84, -4948.33, -4768.18, -4177.78, 0.000, 0.000, 0.000, 12:35:20.821
144, -4282.20, -4964.10, -4776.41, -4135.35, 0.000, 0.000, 0.000, 12:35:20.821
145, -4210.33, -4989.66, -4746.13, -4184.28, 0.000, 0.000, 0.000, 12:35:20.835
146, -4147.10, -4990.16, -4693.25, -4249.68, 0.000, 0.000, 0.000, 12:35:20.835
147, -4159.05, -5008.49, -4760.85, -4132.43, 0.000, 0.000, 0.000, 12:35:20.850
148, -4140.58, -5029.42, -4784.70, -4109.63, 0.000, 0.000, 0.000, 12:35:20.850
149, -4095.48, -5038.59, -4744.36, -4169.62, 0.000, 0.000, 0.000, 12:35:20.851
150, -4038.26, -5023.80, -4700.18, -4241.83, 0.000, 0.000, 0.000, 12:35:20.851
151, -4104.03, -5033.71, -4765.52, -4130.29, 0.000, 0.000, 0.000, 12:35:20.865
152, -4124.87, -5077.10, -4787.50, -4096.57, 0.000, 0.000, 0.000, 12:35:20.865
153, -4098.66, -5074.06, -4755.55, -4165.15, 0.000, 0.000, 0.000, 12:35:20.880
154, -4078.43, -5016.16, -4719.20, -4253.24, 0.000, 0.000, 0.000, 12:35:20.880
155, -4172.36, -5005.15, -4772.02, -4147.39, 0.000, 0.000, 0.000, 12:35:20.881
156, -4220.22, -5027.85, -4791.46, -4127.96, 0.000, 0.000, 0.000, 12:35:20.881
157, -4215.05, -4996.50, -4745.28, -4206.02, 0.000, 0.000, 0.000, 12:35:20.895
158, -4222.17, -4989.19, -4721.62, -4278.71, 0.000, 0.000, 0.000, 12:35:20.895
159, -4315.59, -5006.17, -4800.46, -4186.03, 0.000, 0.000, 0.000, 12:35:20.911
160, -4332.10, -4998.86, -4813.95, -4155.39, 0.000, 0.000, 0.000, 12:35:20.911
161, -4336.11, -4967.12, -4767.14, -4219.33, 0.000, 0.000, 0.000, 12:35:20.911
162, -4306.97, -4940.03, -4717.78, -4277.97, 0.000, 0.000, 0.000, 12:35:20.911
163, -4378.66, -4957.88, -4779.46, -4189.42, 0.000, 0.000, 0.000, 12:35:20.925
164, -4410.02, -4977.64, -4806.34, -4158.67, 0.000, 0.000, 0.000, 12:35:20.925
165, -4369.68, -4969.24, -4759.02, -4219.12, 0.000, 0.000, 0.000, 12:35:20.941
166, -4346.01, -4939.32, -4716.13, -4281.03, 0.000, 0.000, 0.000, 12:35:20.941
167, -4409.52, -4927.59, -4784.37, -4194.01, 0.000, 0.000, 0.000, 12:35:20.941
168, -4439.18, -4957.79, -4812.53, -4164.60, 0.000, 0.000, 0.000, 12:35:20.941
169, -4404.40, -4972.32, -4767.20, -4227.32, 0.000, 0.000, 0.000, 12:35:20.955
170, -4368.92, -4958.43, -4718.81, -4275.42, 0.000, 0.000, 0.000, 12:35:20.955
171, -4432.12, -4951.92, -4793.89, -4195.93, 0.000, 0.000, 0.000, 12:35:20.972
172, -4439.94, -4962.13, -4806.00, -4172.61, 0.000, 0.000, 0.000, 12:35:20.972
173, -4391.83, -4949.20, -4754.84, -4214.11, 0.000, 0.000, 0.000, 12:35:20.973
174, -4356.22, -4943.29, -4725.27, -4273.57, 0.000, 0.000, 0.000, 12:35:20.973
175, -4408.63, -4959.03, -4779.63, -4181.62, 0.000, 0.000, 0.000, 12:35:20.986
176, -4423.39, -4963.71, -4796.49, -4171.70, 0.000, 0.000, 0.000, 12:35:20.986
177, -4376.82, -4947.12, -4737.04, -4212.77, 0.000, 0.000, 0.000, 12:35:21.000
178, -4331.88, -4922.17, -4699.96, -4258.68, 0.000, 0.000, 0.000, 12:35:21.000
179, -4410.27, -4952.51, -4787.73, -4188.52, 0.000, 0.000, 0.000, 12:35:21.000
180, -4434.30, -4970.83, -4828.40, -4172.91, 0.000, 0.000, 0.000, 12:35:21.000
181, -4368.41, -4958.89, -4751.89, -4211.78, 0.000, 0.000, 0.000, 12:35:21.015
182, -4330.62, -4932.96, -4682.83, -4250.73, 0.000, 0.000, 0.000, 12:35:21.016
183, -4389.49, -4963.00, -4765.32, -4182.38, 0.000, 0.000, 0.000, 12:35:21.029
184, -4416.35, -4978.25, -4799.92, -4167.82, 0.000, 0.000, 0.000, 12:35:21.030
185, -4371.10, -4950.75, -4756.51, -4226.95, 0.000, 0.000, 0.000, 12:35:21.030
186, -4333.40, -4935.63, -4708.03, -4270.99, 0.000, 0.000, 0.000, 12:35:21.030
187, -4389.97, -4954.56, -4786.40, -4189.18, 0.000, 0.000, 0.000, 12:35:21.045
188, -4406.87, -4973.94, -4814.14, -4169.35, 0.000, 0.000, 0.000, 12:35:21.045
189, -4340.44, -4970.75, -4744.46, -4223.71, 0.000, 0.000, 0.000, 12:35:21.061
190, -4311.42, -4938.47, -4696.19, -4259.76, 0.000, 0.000, 0.000, 12:35:21.061
191, -4364.17, -4949.66, -4762.93, -4184.14, 0.000, 0.000, 0.000, 12:35:21.061
192, -4388.32, -4970.75, -4784.55, -4155.01, 0.000, 0.000, 0.000, 12:35:21.061
193, -4339.21, -4972.05, -4736.71, -4203.13, 0.000, 0.000, 0.000, 12:35:21.075
194, -4294.08, -4947.13, -4707.90, -4257.37, 0.000, 0.000, 0.000, 12:35:21.075
195, -4354.04, -4982.34, -4788.79, -4198.25, 0.000, 0.000, 0.000, 12:35:21.090
196, -4372.01, -4978.90, -4805.42, -4164.77, 0.000, 0.000, 0.000, 12:35:21.090
197, -4313.68, -4941.20, -4735.02, -4202.53, 0.000, 0.000, 0.000, 12:35:21.090
198, -4283.49, -4930.58, -4711.00, -4270.24, 0.000, 0.000, 0.000, 12:35:21.091
199, -4346.86, -4964.73, -4765.84, -4180.42, 0.000, 0.000, 0.000, 12:35:21.105
200, -4367.77, -4984.62, -4782.75, -4164.13, 0.000, 0.000, 0.000, 12:35:21.105
0, -4310.69, -4965.73, -4761.29, -4207.46, 0.000, 0.000, 0.000, 12:35:21.105
1, -4276.31, -4965.97, -4714.39, -4273.34, 0.000, 0.000, 0.000, 12:35:21.120
2, -4333.89, -4958.08, -4778.52, -4171.71, 0.000, 0.000, 0.000, 12:35:21.121
3, -4354.37, -4970.75, -4781.15, -4147.75, 0.000, 0.000, 0.000, 12:35:21.135
4, -4306.11, -4957.52, -4738.55, -4203.22, 0.000, 0.000, 0.000, 12:35:21.135
5, -4266.35, -4931.24, -4695.59, -4254.71, 0.000, 0.000, 0.000, 12:35:21.135
6, -4350.82, -4963.39, -4783.25, -4190.92, 0.000, 0.000, 0.000, 12:35:21.136
7, -4356.86, -4991.29, -4787.58, -4162.89, 0.000, 0.000, 0.000, 12:35:21.150
8, -4297.97, -4964.79, -4734.26, -4205.72, 0.000, 0.000, 0.000, 12:35:21.150
9, -4253.23, -4949.89, -4694.47, -4249.69, 0.000, 0.000, 0.000, 12:35:21.165
10, -4332.03, -4980.62, -4781.24, -4193.78, 0.000, 0.000, 0.000, 12:35:21.165
11, -4340.61, -5005.96, -4808.87, -4164.68, 0.000, 0.000, 0.000, 12:35:21.166
12, -4263.23, -4961.85, -4728.31, -4179.72, 0.000, 0.000, 0.000, 12:35:21.166
13, -4240.74, -4938.83, -4697.43, -4246.74, 0.000, 0.000, 0.000, 12:35:21.187
14, -4308.65, -4981.18, -4779.38, -4172.59, 0.000, 0.000, 0.000, 12:35:21.187
15, -4310.85, -5003.17, -4792.14, -4143.14, 0.000, 0.000, 0.000, 12:35:21.195
16, -4267.53, -4970.08, -4747.26, -4176.42, 0.000, 0.000, 0.000, 12:35:21.195
17, -4222.38, -4947.64, -4709.03, -4242.40, 0.000, 0.000, 0.000, 12:35:21.196
18, -4303.45, -4990.73, -4779.45, -4171.22, 0.000, 0.000, 0.000, 12:35:21.196
19, -4321.38, -5007.82, -4795.22, -4148.85, 0.000, 0.000, 0.000, 12:35:21.211
20, -4299.81, -4990.66, -4754.73, -4197.34, 0.000, 0.000, 0.000, 12:35:21.211
21, -4251.99, -4956.40, -4711.01, -4241.96, 0.000, 0.000, 0.000, 12:35:21.225
22, -4316.79, -4972.92, -4786.17, -4172.51, 0.000, 0.000, 0.000, 12:35:21.225
23, -4339.19, -4988.17, -4810.62, -4140.74, 0.000, 0.000, 0.000, 12:35:21.226
24, -4293.79, -4975.64, -4772.02, -4206.62, 0.000, 0.000, 0.000, 12:35:21.226
25, -4249.67, -4934.60, -4696.20, -4252.17, 0.000, 0.000, 0.000, 12:35:21.240
26, -4337.08, -4975.59, -4781.98, -4181.61, 0.000, 0.000, 0.000, 12:35:21.241
27, -4352.41, -5005.88, -4806.04, -4144.92, 0.000, 0.000, 0.000, 12:35:21.255
28, -4297.55, -4983.69, -4754.47, -4214.83, 0.000, 0.000, 0.000, 12:35:21.256
29, -4256.67, -4956.45, -4713.73, -4268.69, 0.000, 0.000, 0.000, 12:35:21.256
30, -4333.86, -4979.06, -4802.23, -4182.08, 0.000, 0.000, 0.000, 12:35:21.256
31, -4338.06, -4999.79, -4797.10, -4150.23, 0.000, 0.000, 0.000, 12:35:21.271
32, -4305.33, -4990.41, -4746.13, -4200.95, 0.000, 0.000, 0.000, 12:35:21.272
33, -4263.66, -4942.42, -4703.59, -4272.39, 0.000, 0.000, 0.000, 12:35:21.285
34, -4333.36, -4986.93, -4785.05, -4175.32, 0.000, 0.000, 0.000, 12:35:21.285
35, -4353.16, -5004.10, -4809.74, -4156.51, 0.000, 0.000, 0.000, 12:35:21.285
36, -4307.59, -4986.05, -4751.47, -4211.43, 0.000, 0.000, 0.000, 12:35:21.286
37, -4256.11, -4954.54, -4711.19, -4271.57, 0.000, 0.000, 0.000, 12:35:21.300
38, -4325.33, -4994.14, -4783.55, -4179.09, 0.000, 0.000, 0.000, 12:35:21.300
39, -4336.93, -5000.77, -4813.84, -4149.38, 0.000, 0.000, 0.000, 12:35:21.315
40, -4264.75, -4998.25, -4760.92, -4192.53, 0.000, 0.000, 0.000, 12:35:21.315
41, -4208.63, -4961.19, -4710.11, -4258.47, 0.000, 0.000, 0.000, 12:35:21.316
42, -4240.84, -4988.16, -4788.86, -4162.49, 0.000, 0.000, 0.000, 12:35:21.316
43, -4267.30, -5019.70, -4802.72, -4138.73, 0.000, 0.000, 0.000, 12:35:21.331
44, -4181.18, -5015.78, -4743.99, -4188.08, 0.000, 0.000, 0.000, 12:35:21.331
45, -4095.37, -4991.54, -4692.24, -4237.69, 0.000, 0.000, 0.000, 12:35:21.345
46, -4156.98, -5040.30, -4784.13, -4148.06, 0.000, 0.000, 0.000, 12:35:21.345
47, -4160.60, -5061.69, -4814.44, -4116.96, 0.000, 0.000, 0.000, 12:35:21.345
48, -4074.08, -5053.16, -4750.47, -4159.79, 0.000, 0.000, 0.000, 12:35:21.345
49, -4014.39, -5000.76, -4708.12, -4220.65, 0.000, 0.000, 0.000, 12:35:21.361
50, -4117.75, -5070.08, -4798.49, -4148.46, 0.000, 0.000, 0.000, 12:35:21.361
51, -4132.35, -5065.02, -4808.64, -4110.42, 0.000, 0.000, 0.000, 12:35:21.375
52, -4081.34, -5054.97, -4762.71, -4187.64, 0.000, 0.000, 0.000, 12:35:21.375
53, -4075.22, -5022.01, -4703.13, -4254.06, 0.000, 0.000, 0.000, 12:35:21.376
54, -4169.32, -5021.95, -4774.98, -4158.76, 0.000, 0.000, 0.000, 12:35:21.377
55, -4211.43, -5035.03, -4792.00, -4149.12, 0.000, 0.000, 0.000, 12:35:21.405
56, -4200.06, -4990.63, -4735.45, -4220.20, 0.000, 0.000, 0.000, 12:35:21.405
57, -4173.32, -4955.83, -4683.47, -4280.25, 0.000, 0.000, 0.000, 12:35:21.406
58, -4292.38, -4974.20, -4792.41, -4188.73, 0.000, 0.000, 0.000, 12:35:21.406
59, -4325.19, -4996.79, -4791.08, -4156.32, 0.000, 0.000, 0.000, 12:35:21.420
60, -4306.42, -4971.35, -4742.01, -4225.03, 0.000, 0.000, 0.000, 12:35:21.421
61, -4292.11, -4942.13, -4712.00, -4309.49, 0.000, 0.000, 0.000, 12:35:21.421
62, -4385.38, -4973.08, -4784.56, -4205.00, 0.000, 0.000, 0.000, 12:35:21.421
63, -4429.45, -4997.06, -4794.15, -4162.02, 0.000, 0.000, 0.000, 12:35:21.435
64, -4390.86, -4940.71, -4739.22, -4233.70, 0.000, 0.000, 0.000, 12:35:21.435
65, -4343.13, -4890.90, -4692.45, -4291.64, 0.000, 0.000, 0.000, 12:35:21.436
66, -4425.00, -4949.68, -4792.33, -4200.94, 0.000, 0.000, 0.000, 12:35:21.436
67, -4450.46, -4981.69, -4800.55, -4171.84, 0.000, 0.000, 0.000, 12:35:21.450
68, -4403.20, -4926.53, -4743.41, -4213.58, 0.000, 0.000, 0.000, 12:35:21.450
69, -4369.43, -4920.65, -4694.20, -4290.48, 0.000, 0.000, 0.000, 12:35:21.465
70, -4424.51, -4937.11, -4772.76, -4188.27, 0.000, 0.000, 0.000, 12:35:21.465
71, -4437.22, -4961.15, -4801.16, -4149.05, 0.000, 0.000, 0.000, 12:35:21.465
72, -4396.82, -4955.81, -4754.51, -4227.29, 0.000, 0.000, 0.000, 12:35:21.465
73, -4356.28, -4940.94, -4698.47, -4288.78, 0.000, 0.000, 0.000, 12:35:21.480
74, -4412.83, -4934.09, -4793.81, -4191.24, 0.000, 0.000, 0.000, 12:35:21.480
75, -4429.90, -4959.43, -4792.79, -4161.01, 0.000, 0.000, 0.000, 12:35:21.495
76, -4378.79, -4942.46, -4745.87, -4225.17, 0.000, 0.000, 0.000, 12:35:21.495
77, -4342.15, -4929.60, -4705.66, -4296.15, 0.000, 0.000, 0.000, 12:35:21.496
78, -4408.15, -4932.69, -4788.67, -4190.17, 0.000, 0.000, 0.000, 12:35:21.496
79, -4424.73, -4965.54, -4798.76, -4158.16, 0.000, 0.000, 0.000, 12:35:21.511
80, -4373.66, -4951.87, -4733.69, -4224.98, 0.000, 0.000, 0.000, 12:35:21.511
81, -4327.16, -4933.42, -4690.26, -4288.06, 0.000, 0.000, 0.000, 12:35:21.525
82, -4400.79, -4962.73, -4810.59, -4186.42, 0.000, 0.000, 0.000, 12:35:21.525
83, -4414.44, -4993.15, -4817.52, -4143.92, 0.000, 0.000, 0.000, 12:35:21.526
84, -4362.94, -4959.93, -4731.22, -4216.86, 0.000, 0.000, 0.000, 12:35:21.526
85, -4311.82, -4916.36, -4678.95, -4292.92, 0.000, 0.000, 0.000, 12:35:21.547
86, -4382.14, -4952.24, -4777.35, -4192.88, 0.000, 0.000, 0.000, 12:35:21.547
87, -4396.38, -4974.97, -4794.09, -4153.25, 0.000, 0.000, 0.000, 12:35:21.556
88, -4342.34, -4946.41, -4741.56, -4206.36, 0.000, 0.000, 0.000, 12:35:21.556
89, -4304.58, -4962.84, -4703.67, -4292.37, 0.000, 0.000, 0.000, 12:35:21.556
90, -4365.94, -4959.87, -4792.61, -4176.96, 0.000, 0.000, 0.000, 12:35:21.556
91, -4380.74, -4972.71, -4794.64, -4147.47, 0.000, 0.000, 0.000, 12:35:21.570
92, -4336.75, -4952.00, -4731.70, -4217.56, 0.000, 0.000, 0.000, 12:35:21.570
93, -4282.87, -4943.49, -4704.23, -4272.56, 0.000, 0.000, 0.000, 12:35:21.586
94, -4345.67, -4974.21, -4772.31, -4181.28, 0.000, 0.000, 0.000, 12:35:21.586
95, -4366.30, -4987.97, -4816.62, -4138.72, 0.000, 0.000, 0.000, 12:35:21.586
96, -4319.28, -4965.13, -4758.96, -4207.04, 0.000, 0.000, 0.000, 12:35:21.586
97, -4283.78, -4949.33, -4688.18, -4291.37, 0.000, 0.000, 0.000, 12:35:21.600
98, -4345.40, -4949.35, -4767.21, -4174.12, 0.000, 0.000, 0.000, 12:35:21.600
99, -4364.18, -4984.62, -4794.11, -4141.52, 0.000, 0.000, 0.000, 12:35:21.615
100, -4318.31, -4967.51, -4779.72, -4220.14, 0.000, 0.000, 0.000, 12:35:21.615
101, -4276.68, -4953.12, -4695.42, -4273.94, 0.000, 0.000, 0.000, 12:35:21.616
102, -4336.11, -4953.73, -4764.09, -4169.49, 0.000, 0.000, 0.000, 12:35:21.616
103, -4359.93, -4979.46, -4774.52, -4147.87, 0.000, 0.000, 0.000, 12:35:21.630
104, -4302.76, -4971.52, -4740.13, -4206.27, 0.000, 0.000, 0.000, 12:35:21.630
105, -4274.11, -4967.42, -4715.63, -4276.48, 0.000, 0.000, 0.000, 12:35:21.645
106, -4334.02, -4950.64, -4771.45, -4169.44, 0.000, 0.000, 0.000, 12:35:21.645
107, -4352.29, -4990.26, -4794.99, -4148.44, 0.000, 0.000, 0.000, 12:35:21.646
108, -4294.59, -4958.35, -4749.61, -4219.76, 0.000, 0.000, 0.000, 12:35:21.646
109, -4254.85, -4940.56, -4720.95, -4279.01, 0.000, 0.000, 0.000, 12:35:21.661
110, -4320.85, -4970.02, -4778.48, -4183.67, 0.000, 0.000, 0.000, 12:35:21.661
111, -4340.81, -4991.25, -4771.00, -4148.67, 0.000, 0.000, 0.000, 12:35:21.675
112, -4300.29, -4965.46, -4743.44, -4201.29, 0.000, 0.000, 0.000, 12:35:21.675
113, -4256.66, -4953.60, -4691.38, -4273.68, 0.000, 0.000, 0.000, 12:35:21.676
114, -4330.48, -4982.23, -4800.02, -4189.30, 0.000, 0.000, 0.000, 12:35:21.677
115, -4347.07, -4985.25, -4815.43, -4155.41, 0.000, 0.000, 0.000, 12:35:21.691
116, -4298.41, -4983.24, -4724.20, -4202.97, 0.000, 0.000, 0.000, 12:35:21.691
117, -4255.53, -4945.82, -4683.91, -4275.23, 0.000, 0.000, 0.000, 12:35:21.705
118, -4318.54, -4957.15, -4766.61, -4174.03, 0.000, 0.000, 0.000, 12:35:21.705
119, -4338.03, -4977.23, -4785.77, -4150.75, 0.000, 0.000, 0.000, 12:35:21.705
120, -4298.69, -4989.43, -4758.90, -4219.99, 0.000, 0.000, 0.000, 12:35:21.705
121, -4257.08, -4959.22, -4711.65, -4261.28, 0.000, 0.000, 0.000, 12:35:21.720
122, -4316.34, -4951.85, -4778.43, -4174.01, 0.000, 0.000, 0.000, 12:35:21.720
123, -4336.22, -5009.03, -4799.40, -4153.08, 0.000, 0.000, 0.000, 12:35:21.735
124, -4295.31, -4988.99, -4725.07, -4206.66, 0.000, 0.000, 0.000, 12:35:21.735
125, -4257.78, -4949.23, -4702.06, -4269.85, 0.000, 0.000, 0.000, 12:35:21.735
126, -4322.47, -4963.73, -4774.66, -4176.11, 0.000, 0.000, 0.000, 12:35:21.735
127, -4340.89, -4986.99, -4789.59, -4150.03, 0.000, 0.000, 0.000, 12:35:21.751
128, -4288.26, -4971.02, -4750.05, -4208.87, 0.000, 0.000, 0.000, 12:35:21.751
129, -4259.66, -4969.28, -4712.79, -4265.64, 0.000, 0.000, 0.000, 12:35:21.765
130, -4320.02, -4974.16, -4761.42, -4170.87, 0.000, 0.000, 0.000, 12:35:21.765
131, -4348.63, -4986.15, -4796.85, -4153.10, 0.000, 0.000, 0.000, 12:35:21.765
132, -4303.21, -5000.49, -4747.44, -4213.63, 0.000, 0.000, 0.000, 12:35:21.765
133, -4255.98, -4963.37, -4723.00, -4269.45, 0.000, 0.000, 0.000, 12:35:21.796
134, -4318.92, -4973.56, -4772.45, -4180.82, 0.000, 0.000, 0.000, 12:35:21.796
135, -4338.84, -4982.71, -4790.54, -4152.35, 0.000, 0.000, 0.000, 12:35:21.796
136, -4303.05, -4967.87, -4737.00, -4209.25, 0.000, 0.000, 0.000, 12:35:21.796
137, -4262.47, -4951.00, -4702.00, -4257.59, 0.000, 0.000, 0.000, 12:35:21.797
138, -4327.42, -4978.35, -4783.62, -4186.79, 0.000, 0.000, 0.000, 12:35:21.797
139, -4346.26, -4984.20, -4795.15, -4146.71, 0.000, 0.000, 0.000, 12:35:21.810
140, -4289.04, -4976.76, -4742.12, -4205.04, 0.000, 0.000, 0.000, 12:35:21.810
141, -4255.07, -4949.17, -4699.69, -4256.52, 0.000, 0.000, 0.000, 12:35:21.826
142, -4326.64, -4992.73, -4787.85, -4190.61, 0.000, 0.000, 0.000, 12:35:21.826
143, -4344.50, -5005.36, -4804.35, -4153.74, 0.000, 0.000, 0.000, 12:35:21.833
144, -4293.41, -4971.94, -4759.88, -4202.65, 0.000, 0.000, 0.000, 12:35:21.833
145, -4241.41, -4952.12, -4696.61, -4263.95, 0.000, 0.000, 0.000, 12:35:21.841
146, -4313.52, -4952.30, -4762.99, -4179.93, 0.000, 0.000, 0.000, 12:35:21.841
147, -4345.00, -4986.70, -4789.18, -4156.68, 0.000, 0.000, 0.000, 12:35:21.857
148, -4298.81, -4969.88, -4743.59, -4204.18, 0.000, 0.000, 0.000, 12:35:21.857
149, -4268.03, -4935.83, -4707.66, -4257.37, 0.000, 0.000, 0.000, 12:35:21.858
150, -4326.18, -4980.14, -4794.87, -4182.20, 0.000, 0.000, 0.000, 12:35:21.858
151, -4343.24, -4983.58, -4801.96, -4162.13, 0.000, 0.000, 0.000, 12:35:21.870
152, -4293.31, -4991.52, -4772.27, -4212.62, 0.000, 0.000, 0.000, 12:35:21.870
153, -4252.04, -4964.79, -4698.63, -4268.18, 0.000, 0.000, 0.000, 12:35:21.885
154, -4322.40, -4978.67, -4753.57, -4182.70, 0.000, 0.000, 0.000, 12:35:21.885
155, -4337.30, -4977.68, -4782.82, -4144.76, 0.000, 0.000, 0.000, 12:35:21.885
156, -4286.09, -4970.38, -4741.93, -4199.47, 0.000, 0.000, 0.000, 12:35:21.885
157, -4244.61, -4965.92, -4696.34, -4243.21, 0.000, 0.000, 0.000, 12:35:21.900
158, -4322.94, -4984.90, -4779.00, -4193.24, 0.000, 0.000, 0.000, 12:35:21.900
159, -4337.04, -4979.31, -4820.07, -4160.33, 0.000, 0.000, 0.000, 12:35:21.915
160, -4306.69, -4965.22, -4753.53, -4223.31, 0.000, 0.000, 0.000, 12:35:21.915
161, -4245.12, -4938.56, -4692.87, -4257.32, 0.000, 0.000, 0.000, 12:35:21.915
162, -4334.39, -4985.41, -4767.31, -4186.96, 0.000, 0.000, 0.000, 12:35:21.915
163, -4348.68, -4981.63, -4790.74, -4165.15, 0.000, 0.000, 0.000, 12:35:21.930
164, -4304.75, -4973.19, -4744.42, -4205.81, 0.000, 0.000, 0.000, 12:35:21.930
165, -4252.26, -4947.21, -4713.07, -4253.32, 0.000, 0.000, 0.000, 12:35:21.945
166, -4333.38, -4991.41, -4809.95, -4201.09, 0.000, 0.000, 0.000, 12:35:21.945
167, -4341.38, -4999.73, -4813.38, -4169.14, 0.000, 0.000, 0.000, 12:35:21.945
168, -4306.18, -4985.53, -4756.60, -4203.42, 0.000, 0.000, 0.000, 12:35:21.945
169, -4261.02, -4960.74, -4699.11, -4256.26, 0.000, 0.000, 0.000, 12:35:21.976
170, -4337.40, -4993.01, -4800.27, -4189.88, 0.000, 0.000, 0.000, 12:35:21.976
171, -4351.14, -5024.91, -4838.54, -4173.74, 0.000, 0.000, 0.000, 12:35:21.976
172, -4285.79, -4969.38, -4736.34, -4200.61, 0.000, 0.000, 0.000, 12:35:21.976
173, -4245.97, -4933.20, -4677.63, -4250.78, 0.000, 0.000, 0.000, 12:35:21.977
174, -4320.58, -4979.63, -4795.87, -4189.64, 0.000, 0.000, 0.000, 12:35:21.977
175, -4338.14, -4990.99, -4797.77, -4156.23, 0.000, 0.000, 0.000, 12:35:21.991
176, -4291.69, -4970.46, -4733.96, -4193.42, 0.000, 0.000, 0.000, 12:35:21.992
177, -4254.48, -4954.01, -4701.39, -4247.12, 0.000, 0.000, 0.000, 12:35:22.006
178, -4313.60, -5002.19, -4794.21, -4185.80, 0.000, 0.000, 0.000, 12:35:22.006
179, -4326.83, -5004.31, -4807.08, -4157.42, 0.000, 0.000, 0.000, 12:35:22.006
180, -4280.75, -4955.42, -4726.52, -4205.53, 0.000, 0.000, 0.000, 12:35:22.006
181, -4240.02, -4933.00, -4683.61, -4251.38, 0.000, 0.000, 0.000, 12:35:22.020
182, -4313.48, -4960.31, -4769.49, -4181.19, 0.000, 0.000, 0.000, 12:35:22.021
183, -4349.01, -4993.83, -4800.93, -4157.94, 0.000, 0.000, 0.000, 12:35:22.035
184, -4296.10, -4975.07, -4752.82, -4208.87, 0.000, 0.000, 0.000, 12:35:22.035
185, -4246.50, -4951.26, -4708.80, -4252.63, 0.000, 0.000, 0.000, 12:35:22.036
186, -4325.70, -4981.01, -4801.10, -4188.24, 0.000, 0.000, 0.000, 12:35:22.036
187, -4330.40, -4994.68, -4802.57, -4160.84, 0.000, 0.000, 0.000, 12:35:22.050
188, -4288.61, -4983.42, -4740.10, -4213.96, 0.000, 0.000, 0.000, 12:35:22.050
189, -4252.49, -4968.05, -4714.21, -4253.62, 0.000, 0.000, 0.000, 12:35:22.065
190, -4330.21, -4978.34, -4795.42, -4195.08, 0.000, 0.000, 0.000, 12:35:22.065
191, -4350.92, -5016.96, -4824.70, -4164.81, 0.000, 0.000, 0.000, 12:35:22.066
192, -4290.99, -4986.68, -4736.50, -4212.65, 0.000, 0.000, 0.000, 12:35:22.066
193, -4249.18, -4919.56, -4697.97, -4255.31, 0.000, 0.000, 0.000, 12:35:22.080
194, -4308.30, -4962.61, -4771.39, -4190.07, 0.000, 0.000, 0.000, 12:35:22.080
195, -4334.48, -4998.52, -4804.36, -4162.82, 0.000, 0.000, 0.000, 12:35:22.095
196, -4287.12, -4976.03, -4749.99, -4209.23, 0.000, 0.000, 0.000, 12:35:22.095
197, -4250.96, -4963.61, -4712.88, -4251.88, 0.000, 0.000, 0.000, 12:35:22.096
198, -4318.11, -4971.24, -4781.31, -4170.07, 0.000, 0.000, 0.000, 12:35:22.096
199, -4344.24, -5001.81, -4811.72, -4159.70, 0.000, 0.000, 0.000, 12:35:22.125
200, -4303.09, -5001.11, -4741.28, -4219.03, 0.000, 0.000, 0.000, 12:35:22.125
0, -4254.14, -4946.56, -4691.60, -4252.26, 0.000, 0.000, 0.000, 12:35:22.126
1, -4340.04, -4988.73, -4801.01, -4191.43, 0.000, 0.000, 0.000, 12:35:22.126
2, -4343.87, -4996.75, -4802.44, -4173.38, 0.000, 0.000, 0.000, 12:35:22.127
3, -4303.79, -4978.07, -4759.09, -4217.02, 0.000, 0.000, 0.000, 12:35:22.127
4, -4256.87, -4963.08, -4708.96, -4265.33, 0.000, 0.000, 0.000, 12:35:22.127
5, -4332.80, -4979.07, -4783.35, -4200.95, 0.000, 0.000, 0.000, 12:35:22.140
6, -4352.12, -5002.35, -4807.30, -4168.29, 0.000, 0.000, 0.000, 12:35:22.140
7, -4299.13, -4977.93, -4756.95, -4204.49, 0.000, 0.000, 0.000, 12:35:22.155
8, -4259.71, -4960.18, -4705.28, -4243.87, 0.000, 0.000, 0.000, 12:35:22.156
9, -4330.19, -4992.50, -4798.73, -4193.65, 0.000, 0.000, 0.000, 12:35:22.170
10, -4355.18, -5009.00, -4806.86, -4158.98, 0.000, 0.000, 0.000, 12:35:22.170
11, -4295.11, -4965.55, -4749.41, -4202.89, 0.000, 0.000, 0.000, 12:35:22.171
12, -4247.60, -4948.50, -4703.91, -4255.58, 0.000, 0.000, 0.000, 12:35:22.171
13, -4333.36, -4974.75, -4793.67, -4191.87, 0.000, 0.000, 0.000, 12:35:22.185
14, -4346.31, -4999.49, -4809.25, -4160.80, 0.000, 0.000, 0.000, 12:35:22.185
15, -4306.73, -4998.61, -4762.81, -4216.14, 0.000, 0.000, 0.000, 12:35:22.200
16, -4246.90, -4935.24, -4696.58, -4241.29, 0.000, 0.000, 0.000, 12:35:22.200
17, -4313.06, -4949.10, -4763.82, -4180.44, 0.000, 0.000, 0.000, 12:35:22.201
18, -4350.81, -4998.16, -4805.27, -4159.25, 0.000, 0.000, 0.000, 12:35:22.201
19, -4291.90, -4970.26, -4755.17, -4192.44, 0.000, 0.000, 0.000, 12:35:22.215
20, -4254.99, -4956.66, -4698.07, -4246.16, 0.000, 0.000, 0.000, 12:35:22.216
21, -4335.15, -4989.06, -4773.86, -4203.75, 0.000, 0.000, 0.000, 12:35:22.230
22, -4354.19, -4994.80, -4805.62, -4170.69, 0.000, 0.000, 0.000, 12:35:22.230
23, -4304.93, -4980.42, -4760.33, -4201.07, 0.000, 0.000, 0.000, 12:35:22.231
24, -4272.00, -4943.74, -4705.12, -4241.10, 0.000, 0.000, 0.000, 12:35:22.231
25, -4334.48, -4975.00, -4780.94, -4195.30, 0.000, 0.000, 0.000, 12:35:22.245
26, -4347.11, -4988.05, -4822.80, -4169.92, 0.000, 0.000, 0.000, 12:35:22.245
27, -4294.02, -4975.41, -4730.53, -4209.17, 0.000, 0.000, 0.000, 12:35:22.260
28, -4260.91, -4954.60, -4705.35, -4246.88, 0.000, 0.000, 0.000, 12:35:22.261
29, -4331.80, -4973.35, -4781.49, -4194.00, 0.000, 0.000, 0.000, 12:35:22.262
30, -4350.29, -4992.95, -4807.60, -4167.66, 0.000, 0.000, 0.000, 12:35:22.262
31, -4293.40, -4965.65, -4748.91, -4206.95, 0.000, 0.000, 0.000, 12:35:22.276
32, -4251.62, -4937.29, -4694.82, -4245.16, 0.000, 0.000, 0.000, 12:35:22.276
33, -4338.99, -4987.05, -4792.15, -4195.11, 0.000, 0.000, 0.000, 12:35:22.290
34, -4351.36, -4998.08, -4787.58, -4166.14, 0.000, 0.000, 0.000, 12:35:22.291
35, -4301.97, -4975.18, -4748.86, -4202.36, 0.000, 0.000, 0.000, 12:35:22.291
36, -4266.24, -4948.08, -4699.48, -4248.13, 0.000, 0.000, 0.000, 12:35:22.291
37, -4333.82, -4977.39, -4799.08, -4198.89, 0.000, 0.000, 0.000, 12:35:22.306
38, -4339.68, -4981.21, -4804.51, -4152.88, 0.000, 0.000, 0.000, 12:35:22.306
39, -4300.88, -4972.94, -4748.77, -4194.53, 0.000, 0.000, 0.000, 12:35:22.320
40, -4247.03, -4933.64, -4698.08, -4238.18, 0.000, 0.000, 0.000, 12:35:22.320
41, -4326.58, -4968.45, -4772.27, -4199.98, 0.000, 0.000, 0.000, 12:35:22.327
42, -4351.20, -4994.05, -4808.48, -4171.03, 0.000, 0.000, 0.000, 12:35:22.327
43, -4290.39, -4976.66, -4742.66, -4197.52, 0.000, 0.000, 0.000, 12:35:22.335
44, -4246.67, -4934.77, -4698.91, -4230.08, 0.000, 0.000, 0.000, 12:35:22.335
45, -4331.21, -4988.47, -4799.91, -4182.74, 0.000, 0.000, 0.000, 12:35:22.350
46, -4360.02, -4997.63, -4810.05, -4186.80, 0.000, 0.000, 0.000, 12:35:22.350
47, -4299.49, -4967.34, -4751.64, -4203.50, 0.000, 0.000, 0.000, 12:35:22.351
48, -4244.67, -4943.03, -4694.32, -4236.69, 0.000, 0.000, 0.000, 12:35:22.351
49, -4329.68, -4973.98, -4778.05, -4189.90, 0.000, 0.000, 0.000, 12:35:22.365
50, -4348.74, -4998.02, -4808.87, -4175.61, 0.000, 0.000, 0.000, 12:35:22.365
51, -4308.51, -4973.00, -4758.65, -4206.17, 0.000, 0.000, 0.000, 12:35:22.380
52, -4275.88, -4965.63, -4719.88, -4251.80, 0.000, 0.000, 0.000, 12:35:22.380
53, -4334.23, -5008.14, -4807.18, -4202.76, 0.000, 0.000, 0.000, 12:35:22.380
54, -4359.75, -5001.41, -4815.74, -4176.83, 0.000, 0.000, 0.000, 12:35:22.380
55, -4301.89, -4963.58, -4762.01, -4196.09, 0.000, 0.000, 0.000, 12:35:22.395
56, -4257.38, -4931.18, -4699.65, -4243.59, 0.000, 0.000, 0.000, 12:35:22.395
57, -4335.12, -4970.19, -4781.16, -4202.26, 0.000, 0.000, 0.000, 12:35:22.411
58, -4352.52, -4988.99, -4804.11, -4167.62, 0.000, 0.000, 0.000, 12:35:22.411
59, -4306.74, -4959.26, -4753.18, -4208.05, 0.000, 0.000, 0.000, 12:35:22.411
60, -4272.45, -4961.87, -4722.01, -4252.18, 0.000, 0.000, 0.000, 12:35:22.411
61, -4334.19, -4987.35, -4803.72, -4201.79, 0.000, 0.000, 0.000, 12:35:22.425
62, -4341.18, -5005.79, -4826.08, -4178.71, 0.000, 0.000, 0.000, 12:35:22.426
63, -4296.83, -4966.45, -4730.66, -4200.95, 0.000, 0.000, 0.000, 12:35:22.441
64, -4257.64, -4930.37, -4688.17, -4235.55, 0.000, 0.000, 0.000, 12:35:22.441
65, -4321.19, -4980.13, -4778.19, -4193.65, 0.000, 0.000, 0.000, 12:35:22.441
66, -4347.16, -5003.11, -4804.03, -4174.67, 0.000, 0.000, 0.000, 12:35:22.441
67, -4299.46, -4963.40, -4747.40, -4207.33, 0.000, 0.000, 0.000, 12:35:22.470
68, -4261.39, -4945.09, -4705.47, -4246.64, 0.000, 0.000, 0.000, 12:35:22.471
69, -4335.74, -4975.73, -4797.64, -4195.42, 0.000, 0.000, 0.000, 12:35:22.471
70, -4339.28, -4998.65, -4811.72, -4172.12, 0.000, 0.000, 0.000, 12:35:22.471
71, -4296.94, -4978.73, -4731.82, -4204.83, 0.000, 0.000, 0.000, 12:35:22.472
72, -4257.63, -4946.55, -4692.74, -4244.95, 0.000, 0.000, 0.000, 12:35:22.472
73, -4326.21, -4964.53, -4766.30, -4195.94, 0.000, 0.000, 0.000, 12:35:22.485
74, -4344.28, -4986.29, -4806.89, -4167.03, 0.000, 0.000, 0.000, 12:35:22.485
75, -4291.09, -4959.26, -4746.40, -4196.93, 0.000, 0.000, 0.000, 12:35:22.500
76, -4261.00, -4961.36, -4696.83, -4242.65, 0.000, 0.000, 0.000, 12:35:22.500
77, -4333.35, -4990.03, -4789.20, -4196.96, 0.000, 0.000, 0.000, 12:35:22.501
78, -4336.04, -5004.15, -4802.71, -4164.90, 0.000, 0.000, 0.000, 12:35:22.501
79, -4300.48, -4988.36, -4763.84, -4220.73, 0.000, 0.000, 0.000, 12:35:22.515
80, -4244.13, -4956.73, -4702.40, -4240.57, 0.000, 0.000, 0.000, 12:35:22.515
81, -4322.81, -4970.36, -4772.08, -4175.39, 0.000, 0.000, 0.000, 12:35:22.530
82, -4346.16, -5001.25, -4805.36, -4165.76, 0.000, 0.000, 0.000, 12:35:22.530
83, -4302.75, -4976.77, -4749.89, -4202.50, 0.000, 0.000, 0.000, 12:35:22.531
84, -4255.92, -4948.66, -4709.68, -4240.64, 0.000, 0.000, 0.000, 12:35:22.531
85, -4328.91, -4983.37, -4791.56, -4196.85, 0.000, 0.000, 0.000, 12:35:22.545
86, -4349.37, -4994.72, -4803.03, -4160.64, 0.000, 0.000, 0.000, 12:35:22.545
87, -4304.08, -4980.05, -4741.65, -4206.06, 0.000, 0.000, 0.000, 12:35:22.560
88, -4253.98, -4933.41, -4712.12, -4248.06, 0.000, 0.000, 0.000, 12:35:22.560
89, -4315.53, -4970.35, -4779.67, -4184.11, 0.000, 0.000, 0.000, 12:35:22.560
90, -4339.12, -5012.51, -4815.28, -4169.69, 0.000, 0.000, 0.000, 12:35:22.560
91, -4292.96, -4966.07, -4736.81, -4195.33, 0.000, 0.000, 0.000, 12:35:22.575
92, -4249.18, -4941.61, -4697.48, -4250.47, 0.000, 0.000, 0.000, 12:35:22.575
93, -4326.80, -4977.69, -4784.49, -4180.87, 0.000, 0.000, 0.000, 12:35:22.591
94, -4343.42, -5010.98, -4811.78, -4166.96, 0.000, 0.000, 0.000, 12:35:22.591
95, -4302.35, -4978.16, -4766.45, -4218.60, 0.000, 0.000, 0.000, 12:35:22.592
96, -4267.06, -4959.70, -4709.56, -4247.84, 0.000, 0.000, 0.000, 12:35:22.592
97, -4324.96, -4988.97, -4782.10, -4194.99, 0.000, 0.000, 0.000, 12:35:22.605
98, -4337.16, -5008.61, -4794.94, -4162.84, 0.000, 0.000, 0.000, 12:35:22.606
99, -4291.15, -4964.94, -4751.13, -4203.19, 0.000, 0.000, 0.000, 12:35:22.620
100, -4250.79, -4936.52, -4704.46, -4236.06, 0.000, 0.000, 0.000, 12:35:22.620
101, -4321.63, -4973.22, -4788.23, -4189.15, 0.000, 0.000, 0.000, 12:35:22.621
102, -4335.70, -4987.54, -4804.57, -4172.72, 0.000, 0.000, 0.000, 12:35:22.621
103, -4286.56, -4974.55, -4742.29, -4200.16, 0.000, 0.000, 0.000, 12:35:22.635
104, -4265.58, -4964.91, -4715.36, -4256.45, 0.000, 0.000, 0.000, 12:35:22.635
105, -4342.72, -4986.77, -4793.75, -4192.13, 0.000, 0.000, 0.000, 12:35:22.650
106, -4349.99, -5006.90, -4797.50, -4169.25, 0.000, 0.000, 0.000, 12:35:22.650
107, -4279.60, -4965.23, -4738.30, -4201.78, 0.000, 0.000, 0.000, 12:35:22.650
108, -4234.68, -4920.26, -4674.90, -4235.75, 0.000, 0.000, 0.000, 12:35:22.651
109, -4296.76, -4965.22, -4749.51, -4188.40, 0.000, 0.000, 0.000, 12:35:22.665
110, -4317.92, -4973.62, -4777.90, -4172.61, 0.000, 0.000, 0.000, 12:35:22.666
111, -4293.10, -4955.48, -4719.70, -4225.54, 0.000, 0.000, 0.000, 12:35:22.680
112, -4245.64, -4920.10, -4672.85, -4258.38, 0.000, 0.000, 0.000, 12:35:22.680
113, -4317.70, -4948.84, -4753.19, -4206.43, 0.000, 0.000, 0.000, 12:35:22.680
114, -4339.28, -4985.76, -4778.95, -4174.44, 0.000, 0.000, 0.000, 12:35:22.681
115, -4287.44, -4959.85, -4729.04, -4217.45, 0.000, 0.000, 0.000, 12:35:22.696
116, -4258.67, -4944.63, -4694.13, -4252.69, 0.000, 0.000, 0.000, 12:35:22.696
117, -4315.96, -4970.06, -4761.32, -4190.13, 0.000, 0.000, 0.000, 12:35:22.711
118, -4341.37, -4995.19, -4788.73, -4174.00, 0.000, 0.000, 0.000, 12:35:22.711
119, -4296.54, -4973.63, -4732.01, -4216.33, 0.000, 0.000, 0.000, 12:35:22.711
120, -4264.65, -4953.32, -4692.16, -4262.63, 0.000, 0.000, 0.000, 12:35:22.711
121, -4328.52, -4960.36, -4774.32, -4200.32, 0.000, 0.000, 0.000, 12:35:22.732
122, -4340.59, -4971.08, -4781.54, -4167.93, 0.000, 0.000, 0.000, 12:35:22.732
123, -4298.75, -4980.70, -4741.28, -4203.38, 0.000, 0.000, 0.000, 12:35:22.740
124, -4264.06, -4940.31, -4697.52, -4251.94, 0.000, 0.000, 0.000, 12:35:22.740
125, -4336.89, -4994.38, -4776.08, -4206.37, 0.000, 0.000, 0.000, 12:35:22.741
126, -4347.13, -4999.76, -4807.41, -4171.90, 0.000, 0.000, 0.000, 12:35:22.741
127, -4302.08, -4983.08, -4748.40, -4221.89, 0.000, 0.000, 0.000, 12:35:22.756
128, -4264.86, -4948.90, -4696.33, -4260.29, 0.000, 0.000, 0.000, 12:35:22.756
129, -4325.29, -4974.09, -4764.94, -4195.58, 0.000, 0.000, 0.000, 12:35:22.770
130, -4341.18, -5000.72, -4801.06, -4178.82, 0.000, 0.000, 0.000, 12:35:22.771
131, -4297.83, -4971.94, -4741.24, -4218.64, 0.000, 0.000, 0.000, 12:35:22.771
132, -4273.17, -4945.27, -4713.13, -4270.79, 0.000, 0.000, 0.000, 12:35:22.771
133, -4330.98, -4990.28, -4786.14, -4201.74, 0.000, 0.000, 0.000, 12:35:22.785
134, -4343.23, -5015.43, -4806.11, -4181.04, 0.000, 0.000, 0.000, 12:35:22.785
135, -4306.78, -4982.51, -4748.13, -4216.47, 0.000, 0.000, 0.000, 12:35:22.799
136, -4256.58, -4940.63, -4688.46, -4246.70, 0.000, 0.000, 0.000, 12:35:22.800
137, -4326.77, -4972.01, -4778.56, -4198.55, 0.000, 0.000, 0.000, 12:35:22.800
138, -4360.28, -4992.67, -4797.69, -4177.82, 0.000, 0.000, 0.000, 12:35:22.800
139, -4302.47, -4972.39, -4747.39, -4216.39, 0.000, 0.000, 0.000, 12:35:22.815
140, -4270.73, -4959.78, -4714.71, -4250.44, 0.000, 0.000, 0.000, 12:35:22.815
141, -4337.41, -4986.02, -4794.72, -4193.68, 0.000, 0.000, 0.000, 12:35:22.830
142, -4343.97, -4986.32, -4799.39, -4174.09, 0.000, 0.000, 0.000, 12:35:22.830
143, -4293.48, -4993.44, -4742.80, -4215.31, 0.000, 0.000, 0.000, 12:35:22.831
144, -4263.09, -4960.96, -4710.68, -4257.07, 0.000, 0.000, 0.000, 12:35:22.831
145, -4345.38, -4983.77, -4796.27, -4209.62, 0.000, 0.000, 0.000, 12:35:22.845
146, -4370.23, -5010.81, -4811.71, -4192.47, 0.000, 0.000, 0.000, 12:35:22.845
147, -4284.87, -4968.40, -4739.22, -4190.31, 0.000, 0.000, 0.000, 12:35:22.862
148, -4244.32, -4955.38, -4708.22, -4232.41, 0.000, 0.000, 0.000, 12:35:22.862
149, -4331.13, -4978.65, -4806.45, -4179.37, 0.000, 0.000, 0.000, 12:35:22.862
150, -4344.73, -5010.57, -4816.45, -4154.03, 0.000, 0.000, 0.000, 12:35:22.862
151, -4300.29, -4975.53, -4765.65, -4205.30, 0.000, 0.000, 0.000, 12:35:22.876
152, -4262.07, -4958.54, -4729.47, -4239.57, 0.000, 0.000, 0.000, 12:35:22.876
153, -4333.60, -4991.73, -4802.10, -4190.02, 0.000, 0.000, 0.000, 12:35:22.891
154, -4356.00, -4999.74, -4821.54, -4158.43, 0.000, 0.000, 0.000, 12:35:22.891
155, -4309.86, -4979.84, -4759.52, -4201.12, 0.000, 0.000, 0.000, 12:35:22.891
156, -4274.27, -4953.99, -4717.94, -4246.21, 0.000, 0.000, 0.000, 12:35:22.891
157, -4331.62, -4986.33, -4795.13, -4178.87, 0.000, 0.000, 0.000, 12:35:22.906
158, -4347.49, -4992.09, -4804.03, -4162.38, 0.000, 0.000, 0.000, 12:35:22.906
159, -4311.66, -4990.44, -4766.45, -4213.00, 0.000, 0.000, 0.000, 12:35:22.920
160, -4264.98, -4958.50, -4709.34, -4239.07, 0.000, 0.000, 0.000, 12:35:22.920
161, -4335.43, -4981.83, -4793.15, -4192.22, 0.000, 0.000, 0.000, 12:35:22.920
162, -4355.86, -5007.60, -4814.56, -4158.43, 0.000, 0.000, 0.000, 12:35:22.921
163, -4308.11, -4972.63, -4758.83, -4205.41, 0.000, 0.000, 0.000, 12:35:22.935
164, -4261.78, -4961.78, -4712.72, -4249.04, 0.000, 0.000, 0.000, 12:35:22.935
165, -4327.68, -4972.62, -4787.45, -4185.98, 0.000, 0.000, 0.000, 12:35:22.950
166, -4352.45, -5008.32, -4809.12, -4167.07, 0.000, 0.000, 0.000, 12:35:22.950
167, -4309.73, -4986.59, -4760.56, -4212.61, 0.000, 0.000, 0.000, 12:35:22.950
168, -4276.90, -4948.61, -4720.74, -4246.65, 0.000, 0.000, 0.000, 12:35:22.950
169, -4343.20, -4983.67, -4798.13, -4193.17, 0.000, 0.000, 0.000, 12:35:22.965
170, -4352.09, -4988.08, -4805.09, -4161.07, 0.000, 0.000, 0.000, 12:35:22.965
171, -4301.04, -4969.17, -4742.65, -4202.86, 0.000, 0.000, 0.000, 12:35:22.980
172, -4259.10, -4957.86, -4707.13, -4248.01, 0.000, 0.000, 0.000, 12:35:22.980
173, -4334.19, -4981.95, -4787.90, -4184.12, 0.000, 0.000, 0.000, 12:35:22.981
174, -4355.98, -4992.78, -4800.41, -4169.05, 0.000, 0.000, 0.000, 12:35:22.981
175, -4302.15, -4967.79, -4743.03, -4197.39, 0.000, 0.000, 0.000, 12:35:22.995
176, -4261.31, -4955.77, -4701.15, -4243.01, 0.000, 0.000, 0.000, 12:35:22.995
177, -4330.14, -4990.26, -4780.87, -4186.40, 0.000, 0.000, 0.000, 12:35:23.010
178, -4354.39, -4994.22, -4805.19, -4181.44, 0.000, 0.000, 0.000, 12:35:23.011
179, -4315.13, -4977.09, -4759.02, -4209.45, 0.000, 0.000, 0.000, 12:35:23.011
180, -4270.41, -4941.69, -4713.14, -4251.03, 0.000, 0.000, 0.000, 12:35:23.011
181, -4331.43, -4965.39, -4788.41, -4188.87, 0.000, 0.000, 0.000, 12:35:23.025
182, -4347.85, -4994.16, -4797.82, -4162.84, 0.000, 0.000, 0.000, 12:35:23.025
183, -4311.38, -4984.83, -4746.97, -4211.16, 0.000, 0.000, 0.000, 12:35:23.040
184, -4253.61, -4956.34, -4702.40, -4245.30, 0.000, 0.000, 0.000, 12:35:23.040
185, -4322.21, -5004.29, -4786.76, -4190.89, 0.000, 0.000, 0.000, 12:35:23.041
186, -4345.06, -4999.41, -4803.59, -4166.36, 0.000, 0.000, 0.000, 12:35:23.041
187, -4297.87, -4969.98, -4747.02, -4203.66, 0.000, 0.000, 0.000, 12:35:23.055
188, -4271.73, -4944.73, -4710.26, -4254.09, 0.000, 0.000, 0.000, 12:35:23.055
189, -4336.75, -4977.44, -4792.73, -4202.24, 0.000, 0.000, 0.000, 12:35:23.070
190, -4341.79, -4999.98, -4802.17, -4160.18, 0.000, 0.000, 0.000, 12:35:23.070
191, -4311.67, -4984.54, -4759.25, -4208.27, 0.000, 0.000, 0.000, 12:35:23.072
192, -4266.85, -4958.49, -4713.17, -4252.22, 0.000, 0.000, 0.000, 12:35:23.072
193, -4323.15, -4986.25, -4790.85, -4190.59, 0.000, 0.000, 0.000, 12:35:23.086
194, -4353.02, -4981.70, -4805.99, -4162.34, 0.000, 0.000, 0.000, 12:35:23.086
195, -4308.57, -4988.94, -4750.51, -4198.45, 0.000, 0.000, 0.000, 12:35:23.100
196, -4274.55, -4958.11, -4703.66, -4252.21, 0.000, 0.000, 0.000, 12:35:23.100
197, -4326.15, -4971.63, -4782.62, -4192.23, 0.000, 0.000, 0.000, 12:35:23.101
198, -4347.62, -4998.81, -4803.44, -4162.78, 0.000, 0.000, 0.000, 12:35:23.101
199, -4294.75, -4998.91, -4748.29, -4202.09, 0.000, 0.000, 0.000, 12:35:23.115
200, -4267.03, -4964.21, -4708.24, -4259.15, 0.000, 0.000, 0.000, 12:35:23.115
0, -4329.42, -4967.55, -4793.28, -4195.80, 0.000, 0.000, 0.000, 12:35:23.115
1, -4345.00, -4988.87, -4788.34, -4164.38, 0.000, 0.000, 0.000, 12:35:23.130
2, -4279.18, -4972.68, -4734.44, -4191.55, 0.000, 0.000, 0.000, 12:35:23.131
3, -4253.41, -4948.84, -4705.88, -4255.76, 0.000, 0.000, 0.000, 12:35:23.145
4, -4316.47, -4967.40, -4769.01, -4189.98, 0.000, 0.000, 0.000, 12:35:23.146
5, -4345.88, -4996.34, -4799.63, -4173.90, 0.000, 0.000, 0.000, 12:35:23.146
6, -4288.94, -4973.74, -4739.07, -4203.15, 0.000, 0.000, 0.000, 12:35:23.146
7, -4253.40, -4948.92, -4706.98, -4254.48, 0.000, 0.000, 0.000, 12:35:23.160
8, -4313.23, -4981.06, -4786.25, -4190.59, 0.000, 0.000, 0.000, 12:35:23.160
9, -4335.71, -4979.70, -4794.61, -4163.38, 0.000, 0.000, 0.000, 12:35:23.175
10, -4295.78, -4969.33, -4743.48, -4197.19, 0.000, 0.000, 0.000, 12:35:23.175
11, -4263.83, -4948.70, -4697.09, -4247.50, 0.000, 0.000, 0.000, 12:35:23.177
12, -4323.02, -4977.81, -4773.21, -4191.59, 0.000, 0.000, 0.000, 12:35:23.177
13, -4337.23, -4992.68, -4791.55, -4159.59, 0.000, 0.000, 0.000, 12:35:23.190
14, -4287.79, -4957.46, -4739.35, -4200.23, 0.000, 0.000, 0.000, 12:35:23.190
15, -4255.08, -4941.64, -4699.29, -4243.34, 0.000, 0.000, 0.000, 12:35:23.205
16, -4315.95, -4959.48, -4774.12, -4183.88, 0.000, 0.000, 0.000, 12:35:23.206
17, -4334.16, -5007.39, -4802.30, -4157.04, 0.000, 0.000, 0.000, 12:35:23.206
18, -4303.80, -4983.92, -4748.96, -4216.03, 0.000, 0.000, 0.000, 12:35:23.206
19, -4261.04, -4939.38, -4696.97, -4250.43, 0.000, 0.000, 0.000, 12:35:23.221
20, -4318.23, -4970.58, -4770.98, -4181.53, 0.000, 0.000, 0.000, 12:35:23.221
21, -4347.53, -5009.08, -4795.36, -4169.62, 0.000, 0.000, 0.000, 12:35:23.235
22, -4292.90, -4975.91, -4752.03, -4202.09, 0.000, 0.000, 0.000, 12:35:23.235
23, -4251.67, -4960.14, -4708.74, -4244.95, 0.000, 0.000, 0.000, 12:35:23.250
24, -4325.86, -4988.66, -4781.96, -4189.96, 0.000, 0.000, 0.000, 12:35:23.250
25, -4344.99, -5008.88, -4803.44, -4174.95, 0.000, 0.000, 0.000, 12:35:23.251
26, -4304.79, -4965.56, -4744.74, -4212.74, 0.000, 0.000, 0.000, 12:35:23.251
27, -4272.10, -4955.28, -4711.77, -4258.46, 0.000, 0.000, 0.000, 12:35:23.265
28, -4329.76, -4974.02, -4782.42, -4198.28, 0.000, 0.000, 0.000, 12:35:23.265
29, -4345.76, -5004.29, -4802.22, -4166.73, 0.000, 0.000, 0.000, 12:35:23.265
30, -4296.65, -4973.78, -4750.05, -4206.42, 0.000, 0.000, 0.000, 12:35:23.265
31, -4263.63, -4960.04, -4707.07, -4253.21, 0.000, 0.000, 0.000, 12:35:23.286
32, -4316.28, -4965.95, -4770.41, -4180.78, 0.000, 0.000, 0.000, 12:35:23.286
33, -4340.04, -4989.35, -4802.69, -4172.66, 0.000, 0.000, 0.000, 12:35:23.295
34, -4292.38, -4977.54, -4749.80, -4206.41, 0.000, 0.000, 0.000, 12:35:23.295
35, -4248.92, -4941.09, -4702.97, -4233.20, 0.000, 0.000, 0.000, 12:35:23.295
36, -4332.28, -4957.31, -4778.73, -4184.77, 0.000, 0.000, 0.000, 12:35:23.295
37, -4344.67, -4997.13, -4810.23, -4158.78, 0.000, 0.000, 0.000, 12:35:23.310
38, -4306.69, -5000.36, -4759.18, -4209.16, 0.000, 0.000, 0.000, 12:35:23.310
39, -4266.13, -4966.52, -4711.58, -4260.25, 0.000, 0.000, 0.000, 12:35:23.325
40, -4328.38, -4977.77, -4795.22, -4195.38, 0.000, 0.000, 0.000, 12:35:23.325
41, -4343.91, -5007.35, -4809.21, -4169.28, 0.000, 0.000, 0.000, 12:35:23.327
42, -4296.04, -4979.89, -4751.32, -4203.84, 0.000, 0.000, 0.000, 12:35:23.327
43, -4264.41, -4966.32, -4707.88, -4244.49, 0.000, 0.000, 0.000, 12:35:23.341
44, -4330.79, -4991.57, -4789.81, -4193.42, 0.000, 0.000, 0.000, 12:35:23.341
45, -4348.73, -5016.48, -4805.62, -4162.79, 0.000, 0.000, 0.000, 12:35:23.356
46, -4299.40, -4986.31, -4751.16, -4218.46, 0.000, 0.000, 0.000, 12:35:23.356
47, -4258.69, -4938.37, -4703.04, -4250.39, 0.000, 0.000, 0.000, 12:35:23.356
48, -4333.98, -4987.15, -4790.36, -4192.60, 0.000, 0.000, 0.000, 12:35:23.356
49, -4349.95, -5003.96, -4812.60, -4178.64, 0.000, 0.000, 0.000, 12:35:23.370
50, -4300.71, -4976.04, -4752.20, -4207.64, 0.000, 0.000, 0.000, 12:35:23.370
51, -4269.72, -4963.02, -4715.30, -4249.27, 0.000, 0.000, 0.000, 12:35:23.385
52, -4332.92, -4989.02, -4782.28, -4193.00, 0.000, 0.000, 0.000, 12:35:23.385
53, -4355.21, -5007.03, -4811.44, -4161.82, 0.000, 0.000, 0.000, 12:35:23.386
54, -4301.48, -4975.70, -4748.13, -4207.40, 0.000, 0.000, 0.000, 12:35:23.386
55, -4253.86, -4954.23, -4707.09, -4242.36, 0.000, 0.000, 0.000, 12:35:23.400
56, -4325.61, -4967.01, -4779.03, -4193.44, 0.000, 0.000, 0.000, 12:35:23.400
57, -4338.09, -5004.86, -4801.90, -4164.19, 0.000, 0.000, 0.000, 12:35:23.415
58, -4288.49, -4982.76, -4743.93, -4201.06, 0.000, 0.000, 0.000, 12:35:23.415
59, -4253.02, -4945.33, -4701.16, -4244.81, 0.000, 0.000, 0.000, 12:35:23.416
60, -4306.82, -4964.87, -4779.84, -4183.24, 0.000, 0.000, 0.000, 12:35:23.416
61, -4344.44, -5007.16, -4794.76, -4176.49, 0.000, 0.000, 0.000, 12:35:23.430
62, -4293.75, -4973.90, -4745.96, -4207.52, 0.000, 0.000, 0.000, 12:35:23.430
63, -4267.06, -4958.07, -4707.19, -4248.59, 0.000, 0.000, 0.000, 12:35:23.445
64, -4334.02, -4987.78, -4784.62, -4203.29, 0.000, 0.000, 0.000, 12:35:23.445
65, -4342.61, -5002.15, -4790.93, -4169.23, 0.000, 0.000, 0.000, 12:35:23.445
66, -4305.39, -4977.31, -4749.38, -4215.56, 0.000, 0.000, 0.000, 12:35:23.446
67, -4257.30, -4939.31, -4704.04, -4254.93, 0.000, 0.000, 0.000, 12:35:23.460
68, -4332.93, -4989.53, -4794.00, -4198.22, 0.000, 0.000, 0.000, 12:35:23.460
69, -4346.93, -4997.08, -4805.63, -4168.88, 0.000, 0.000, 0.000, 12:35:23.475
70, -4306.79, -5014.24, -4751.82, -4216.32, 0.000, 0.000, 0.000, 12:35:23.475
71, -4268.37, -4965.48, -4710.34, -4252.27, 0.000, 0.000, 0.000, 12:35:23.476
72, -4332.23, -4977.45, -4788.37, -4198.87, 0.000, 0.000, 0.000, 12:35:23.476
73, -4353.29, -4989.25, -4810.59, -4175.84, 0.000, 0.000, 0.000, 12:35:23.490
74, -4309.36, -4989.01, -4759.30, -4220.87, 0.000, 0.000, 0.000, 12:35:23.490
75, -4256.86, -4955.19, -4700.38, -4248.34, 0.000, 0.000, 0.000, 12:35:23.505
76, -4327.42, -4978.47, -4786.67, -4198.24, 0.000, 0.000, 0.000, 12:35:23.505
77, -4346.28, -5003.84, -4799.00, -4162.27, 0.000, 0.000, 0.000, 12:35:23.506
78, -4309.54, -4986.00, -4758.04, -4218.30, 0.000, 0.000, 0.000, 12:35:23.506
79, -4253.30, -4942.27, -4688.15, -4238.97, 0.000, 0.000, 0.000, 12:35:23.520
80, -4317.46, -4969.08, -4775.76, -4190.44, 0.000, 0.000, 0.000, 12:35:23.521
81, -4343.53, -5001.65, -4803.82, -4153.76, 0.000, 0.000, 0.000, 12:35:23.535
82, -4292.73, -4975.14, -4747.04, -4205.52, 0.000, 0.000, 0.000, 12:35:23.535
83, -4256.00, -4956.01, -4715.13, -4248.65, 0.000, 0.000, 0.000, 12:35:23.536
84, -4322.68, -4977.42, -4782.64, -4187.20, 0.000, 0.000, 0.000, 12:35:23.536
85, -4346.74, -4993.14, -4809.61, -4173.08, 0.000, 0.000, 0.000, 12:35:23.550
86, -4304.72, -4986.92, -4750.44, -4202.76, 0.000, 0.000, 0.000, 12:35:23.550
87, -4268.22, -4942.62, -4715.64, -4252.00, 0.000, 0.000, 0.000, 12:35:23.565
88, -4332.90, -4981.08, -4797.36, -4198.41, 0.000, 0.000, 0.000, 12:35:23.565
89, -4352.32, -5007.30, -4801.60, -4173.96, 0.000, 0.000, 0.000, 12:35:23.566
90, -4304.69, -4978.25, -4753.76, -4203.43, 0.000, 0.000, 0.000, 12:35:23.566
91, -4255.23, -4931.38, -4705.15, -4246.30, 0.000, 0.000, 0.000, 12:35:23.580
92, -4325.80, -4984.92, -4795.35, -4195.25, 0.000, 0.000, 0.000, 12:35:23.581
93, -4348.48, -5017.72, -4810.23, -4172.12, 0.000, 0.000, 0.000, 12:35:23.595
94, -4291.83, -4964.37, -4744.77, -4193.82, 0.000, 0.000, 0.000, 12:35:23.595
95, -4257.27, -4965.11, -4705.55, -4250.74, 0.000, 0.000, 0.000, 12:35:23.595
96, -4321.97, -4977.41, -4792.72, -4204.20, 0.000, 0.000, 0.000, 12:35:23.596
97, -4352.39, -4995.93, -4804.03, -4164.11, 0.000, 0.000, 0.000, 12:35:23.610
98, -4299.97, -4983.07, -4746.25, -4199.80, 0.000, 0.000, 0.000, 12:35:23.610
99, -4259.90, -4928.12, -4697.35, -4245.91, 0.000, 0.000, 0.000, 12:35:23.625
100, -4337.76, -4966.73, -4792.76, -4186.50, 0.000, 0.000, 0.000, 12:35:23.625
101, -4355.86, -4999.77, -4813.17, -4178.80, 0.000, 0.000, 0.000, 12:35:23.626
