%OpenBCI Raw EEG Data
%
%Sample Rate = 200.0 Hz
%First Column = SampleIndex
%Last Column = Timestamp 
%Other Columns = EEG data in microvolts followed by Accel Data (in G) interleaved with Aux Data
0, -4712.85, -5434.99, -5239.06, -4838.94, 0.000, 0.000, 0.000, 12:44:32.764
1, -4762.16, -5409.57, -5351.37, -4730.36, 0.000, 0.000, 0.000, 12:44:32.779
2, -4742.22, -5444.64, -5348.33, -4748.46, 0.000, 0.000, 0.000, 12:44:32.779
3, -4684.12, -5376.01, -5255.28, -4798.65, 0.000, 0.000, 0.000, 12:44:32.808
4, -4689.76, -5419.43, -5244.52, -4803.74, 0.000, 0.000, 0.000, 12:44:32.809
5, -4712.60, -5364.81, -5314.01, -4669.88, 0.000, 0.000, 0.000, 12:44:32.809
6, -4706.65, -5407.38, -5319.55, -4713.84, 0.000, 0.000, 0.000, 12:44:32.810
7, -4665.16, -5390.40, -5229.18, -4773.25, 0.000, 0.000, 0.000, 12:44:32.811
8, -4646.67, -5361.43, -5232.62, -4781.80, 0.000, 0.000, 0.000, 12:44:32.811
9, -4676.34, -5384.28, -5265.30, -4649.39, 0.000, 0.000, 0.000, 12:44:32.811
10, -4643.28, -5307.34, -5260.29, -4682.75, 0.000, 0.000, 0.000, 12:44:32.811
11, -4631.33, -5311.85, -5209.41, -4720.69, 0.000, 0.000, 0.000, 12:44:32.824
12, -4613.71, -5329.09, -5154.90, -4769.86, 0.000, 0.000, 0.000, 12:44:32.824
13, -4652.16, -5321.34, -5245.95, -4639.37, 0.000, 0.000, 0.000, 12:44:32.845
14, -4644.74, -5362.82, -5264.87, -4635.94, 0.000, 0.000, 0.000, 12:44:32.846
15, -4631.00, -5386.72, -5235.62, -4751.42, 0.000, 0.000, 0.000, 12:44:32.854
16, -4589.46, -5322.78, -5149.65, -4732.49, 0.000, 0.000, 0.000, 12:44:32.854
17, -4632.89, -5287.16, -5255.92, -4613.18, 0.000, 0.000, 0.000, 12:44:32.854
18, -4655.77, -5368.92, -5239.32, -4642.48, 0.000, 0.000, 0.000, 12:44:32.854
19, -4618.21, -5364.88, -5216.44, -4735.38, 0.000, 0.000, 0.000, 12:44:32.868
20, -4591.13, -5262.05, -5141.23, -4732.62, 0.000, 0.000, 0.000, 12:44:32.868
21, -4624.56, -5306.66, -5221.55, -4608.85, 0.000, 0.000, 0.000, 12:44:32.883
22, -4623.77, -5368.48, -5212.85, -4639.93, 0.000, 0.000, 0.000, 12:44:32.883
23, -4594.69, -5305.90, -5204.65, -4727.24, 0.000, 0.000, 0.000, 12:44:32.884
24, -4568.09, -5304.68, -5190.73, -4732.06, 0.000, 0.000, 0.000, 12:44:32.884
25, -4624.51, -5298.45, -5236.74, -4582.64, 0.000, 0.000, 0.000, 12:44:32.899
26, -4621.34, -5326.91, -5222.85, -4624.59, 0.000, 0.000, 0.000, 12:44:32.900
27, -4593.81, -5330.75, -5174.63, -4688.84, 0.000, 0.000, 0.000, 12:44:32.915
28, -4568.15, -5329.59, -5169.50, -4733.50, 0.000, 0.000, 0.000, 12:44:32.915
29, -4625.43, -5298.48, -5262.58, -4632.46, 0.000, 0.000, 0.000, 12:44:32.916
30, -4624.73, -5351.77, -5271.83, -4621.64, 0.000, 0.000, 0.000, 12:44:32.916
31, -4604.77, -5310.78, -5146.43, -4702.03, 0.000, 0.000, 0.000, 12:44:32.932
32, -4577.81, -5291.05, -5131.89, -4694.59, 0.000, 0.000, 0.000, 12:44:32.932
33, -4617.42, -5292.09, -5257.04, -4582.19, 0.000, 0.000, 0.000, 12:44:32.943
34, -4624.41, -5370.14, -5297.48, -4630.85, 0.000, 0.000, 0.000, 12:44:32.944
35, -4586.98, -5322.04, -5146.90, -4708.15, 0.000, 0.000, 0.000, 12:44:32.944
36, -4590.51, -5302.22, -5191.33, -4742.02, 0.000, 0.000, 0.000, 12:44:32.944
37, -4617.34, -5304.45, -5220.05, -4605.54, 0.000, 0.000, 0.000, 12:44:32.959
38, -4621.35, -5340.79, -5248.12, -4623.03, 0.000, 0.000, 0.000, 12:44:32.959
39, -4595.29, -5317.77, -5168.10, -4683.88, 0.000, 0.000, 0.000, 12:44:32.973
40, -4581.03, -5325.12, -5132.86, -4736.30, 0.000, 0.000, 0.000, 12:44:32.973
41, -4629.63, -5268.36, -5214.04, -4575.46, 0.000, 0.000, 0.000, 12:44:32.974
42, -4625.60, -5325.75, -5246.98, -4628.98, 0.000, 0.000, 0.000, 12:44:32.974
43, -4596.25, -5348.12, -5202.31, -4689.39, 0.000, 0.000, 0.000, 12:44:32.989
44, -4553.95, -5326.86, -5216.85, -4724.31, 0.000, 0.000, 0.000, 12:44:32.989
45, -4625.10, -5333.07, -5257.86, -4617.21, 0.000, 0.000, 0.000, 12:44:33.004
46, -4628.60, -5294.46, -5198.58, -4622.14, 0.000, 0.000, 0.000, 12:44:33.004
47, -4579.48, -5299.58, -5146.33, -4689.03, 0.000, 0.000, 0.000, 12:44:33.004
48, -4583.98, -5301.80, -5175.81, -4738.39, 0.000, 0.000, 0.000, 12:44:33.004
49, -4622.58, -5299.50, -5254.67, -4609.80, 0.000, 0.000, 0.000, 12:44:33.019
50, -4617.19, -5349.87, -5280.38, -4607.49, 0.000, 0.000, 0.000, 12:44:33.019
51, -4597.52, -5350.57, -5227.08, -4707.92, 0.000, 0.000, 0.000, 12:44:33.034
52, -4576.16, -5308.36, -5177.58, -4728.67, 0.000, 0.000, 0.000, 12:44:33.034
53, -4626.25, -5302.61, -5221.26, -4616.93, 0.000, 0.000, 0.000, 12:44:33.035
54, -4630.88, -5330.38, -5232.54, -4629.41, 0.000, 0.000, 0.000, 12:44:33.035
55, -4596.67, -5324.23, -5201.50, -4698.82, 0.000, 0.000, 0.000, 12:44:33.050
56, -4581.95, -5353.12, -5227.59, -4727.01, 0.000, 0.000, 0.000, 12:44:33.050
57, -4633.30, -5338.57, -5254.95, -4604.58, 0.000, 0.000, 0.000, 12:44:33.064
58, -4622.43, -5322.14, -5279.32, -4647.19, 0.000, 0.000, 0.000, 12:44:33.064
59, -4606.70, -5347.89, -5186.08, -4725.12, 0.000, 0.000, 0.000, 12:44:33.065
60, -4535.01, -5245.91, -5143.27, -4696.46, 0.000, 0.000, 0.000, 12:44:33.065
61, -4624.18, -5349.74, -5275.64, -4612.30, 0.000, 0.000, 0.000, 12:44:33.079
62, -4585.53, -5330.89, -5230.53, -4615.95, 0.000, 0.000, 0.000, 12:44:33.079
63, -4585.10, -5278.58, -5190.67, -4698.23, 0.000, 0.000, 0.000, 12:44:33.094
64, -4570.56, -5289.42, -5163.00, -4720.56, 0.000, 0.000, 0.000, 12:44:33.094
65, -4609.84, -5270.21, -5230.23, -4603.61, 0.000, 0.000, 0.000, 12:44:33.095
66, -4633.97, -5378.66, -5270.74, -4632.02, 0.000, 0.000, 0.000, 12:44:33.095
67, -4599.55, -5393.04, -5226.62, -4696.12, 0.000, 0.000, 0.000, 12:44:33.108
68, -4561.81, -5285.46, -5163.65, -4701.37, 0.000, 0.000, 0.000, 12:44:33.108
69, -4608.97, -5262.27, -5210.22, -4600.69, 0.000, 0.000, 0.000, 12:44:33.123
70, -4622.78, -5285.36, -5208.07, -4605.06, 0.000, 0.000, 0.000, 12:44:33.123
71, -4594.03, -5335.59, -5267.67, -4715.72, 0.000, 0.000, 0.000, 12:44:33.124
72, -4575.50, -5316.24, -5151.85, -4711.40, 0.000, 0.000, 0.000, 12:44:33.124
73, -4608.04, -5304.64, -5200.31, -4578.69, 0.000, 0.000, 0.000, 12:44:33.139
74, -4612.69, -5298.97, -5217.55, -4606.31, 0.000, 0.000, 0.000, 12:44:33.139
75, -4590.81, -5314.04, -5175.55, -4687.80, 0.000, 0.000, 0.000, 12:44:33.154
76, -4556.86, -5297.31, -5190.41, -4695.04, 0.000, 0.000, 0.000, 12:44:33.154
77, -4607.91, -5301.12, -5220.04, -4605.61, 0.000, 0.000, 0.000, 12:44:33.154
78, -4616.77, -5313.72, -5218.53, -4639.80, 0.000, 0.000, 0.000, 12:44:33.154
79, -4582.42, -5415.08, -5307.62, -4693.55, 0.000, 0.000, 0.000, 12:44:33.168
80, -4575.86, -5330.05, -5118.44, -4712.46, 0.000, 0.000, 0.000, 12:44:33.168
81, -4605.61, -5224.14, -5192.75, -4591.44, 0.000, 0.000, 0.000, 12:44:33.183
82, -4614.14, -5276.61, -5199.39, -4627.19, 0.000, 0.000, 0.000, 12:44:33.183
83, -4581.18, -5316.18, -5215.12, -4693.13, 0.000, 0.000, 0.000, 12:44:33.184
84, -4567.74, -5285.53, -5165.84, -4716.74, 0.000, 0.000, 0.000, 12:44:33.184
85, -4604.91, -5309.25, -5194.81, -4599.16, 0.000, 0.000, 0.000, 12:44:33.199
86, -4617.75, -5361.86, -5253.72, -4623.70, 0.000, 0.000, 0.000, 12:44:33.199
87, -4595.21, -5324.51, -5184.68, -4708.43, 0.000, 0.000, 0.000, 12:44:33.214
88, -4580.01, -5300.73, -5173.35, -4721.48, 0.000, 0.000, 0.000, 12:44:33.214
89, -4611.22, -5287.32, -5272.47, -4601.13, 0.000, 0.000, 0.000, 12:44:33.214
90, -4611.58, -5325.02, -5224.08, -4620.20, 0.000, 0.000, 0.000, 12:44:33.214
91, -4584.27, -5321.62, -5166.82, -4703.80, 0.000, 0.000, 0.000, 12:44:33.229
92, -4572.17, -5299.31, -5200.60, -4705.46, 0.000, 0.000, 0.000, 12:44:33.230
93, -4620.79, -5353.08, -5226.45, -4606.47, 0.000, 0.000, 0.000, 12:44:33.244
94, -4624.22, -5326.49, -5222.74, -4619.11, 0.000, 0.000, 0.000, 12:44:33.244
95, -4590.53, -5309.61, -5196.61, -4716.69, 0.000, 0.000, 0.000, 12:44:33.245
96, -4557.91, -5260.95, -5174.50, -4706.87, 0.000, 0.000, 0.000, 12:44:33.245
97, -4615.48, -5298.76, -5233.01, -4591.47, 0.000, 0.000, 0.000, 12:44:33.259
98, -4627.67, -5338.37, -5195.01, -4623.92, 0.000, 0.000, 0.000, 12:44:33.259
99, -4604.06, -5325.59, -5191.99, -4705.14, 0.000, 0.000, 0.000, 12:44:33.273
100, -4577.13, -5300.06, -5157.19, -4706.18, 0.000, 0.000, 0.000, 12:44:33.273
101, -4618.78, -5282.56, -5222.88, -4601.62, 0.000, 0.000, 0.000, 12:44:33.274
102, -4611.69, -5352.76, -5262.09, -4627.61, 0.000, 0.000, 0.000, 12:44:33.274
103, -4591.58, -5314.56, -5183.96, -4695.98, 0.000, 0.000, 0.000, 12:44:33.289
104, -4572.48, -5298.40, -5203.25, -4727.70, 0.000, 0.000, 0.000, 12:44:33.289
105, -4618.78, -5300.47, -5205.09, -4580.05, 0.000, 0.000, 0.000, 12:44:33.304
106, -4621.01, -5320.82, -5208.36, -4621.43, 0.000, 0.000, 0.000, 12:44:33.304
107, -4577.44, -5311.09, -5158.72, -4699.04, 0.000, 0.000, 0.000, 12:44:33.304
108, -4569.71, -5312.78, -5193.58, -4739.13, 0.000, 0.000, 0.000, 12:44:33.304
109, -4623.05, -5290.85, -5223.38, -4592.45, 0.000, 0.000, 0.000, 12:44:33.325
110, -4624.04, -5384.87, -5260.67, -4617.03, 0.000, 0.000, 0.000, 12:44:33.326
111, -4591.33, -5299.50, -5152.58, -4706.95, 0.000, 0.000, 0.000, 12:44:33.334
112, -4587.61, -5334.63, -5180.75, -4713.79, 0.000, 0.000, 0.000, 12:44:33.334
113, -4605.47, -5269.85, -5249.42, -4596.50, 0.000, 0.000, 0.000, 12:44:33.334
114, -4614.65, -5309.63, -5243.22, -4625.78, 0.000, 0.000, 0.000, 12:44:33.334
115, -4602.87, -5318.13, -5153.95, -4707.71, 0.000, 0.000, 0.000, 12:44:33.350
116, -4571.19, -5285.17, -5142.18, -4709.62, 0.000, 0.000, 0.000, 12:44:33.350
117, -4621.19, -5302.13, -5235.37, -4586.92, 0.000, 0.000, 0.000, 12:44:33.364
118, -4623.66, -5342.61, -5227.37, -4623.43, 0.000, 0.000, 0.000, 12:44:33.364
119, -4591.10, -5350.30, -5241.08, -4722.27, 0.000, 0.000, 0.000, 12:44:33.365
120, -4565.74, -5318.47, -5250.79, -4703.19, 0.000, 0.000, 0.000, 12:44:33.365
121, -4609.23, -5338.40, -5198.07, -4598.60, 0.000, 0.000, 0.000, 12:44:33.379
122, -4606.33, -5277.38, -5166.72, -4622.48, 0.000, 0.000, 0.000, 12:44:33.380
123, -4579.23, -5303.15, -5175.05, -4690.27, 0.000, 0.000, 0.000, 12:44:33.394
124, -4573.06, -5291.46, -5217.45, -4720.63, 0.000, 0.000, 0.000, 12:44:33.394
125, -4612.80, -5291.06, -5207.27, -4581.70, 0.000, 0.000, 0.000, 12:44:33.395
126, -4632.17, -5372.41, -5251.92, -4652.07, 0.000, 0.000, 0.000, 12:44:33.395
127, -4597.87, -5333.91, -5203.51, -4717.27, 0.000, 0.000, 0.000, 12:44:33.424
128, -4569.20, -5291.31, -5182.49, -4714.90, 0.000, 0.000, 0.000, 12:44:33.424
129, -4601.54, -5283.29, -5229.11, -4576.91, 0.000, 0.000, 0.000, 12:44:33.424
130, -4623.93, -5336.96, -5231.31, -4645.01, 0.000, 0.000, 0.000, 12:44:33.424
131, -4591.12, -5326.89, -5207.90, -4697.48, 0.000, 0.000, 0.000, 12:44:33.425
132, -4567.65, -5315.96, -5202.67, -4725.15, 0.000, 0.000, 0.000, 12:44:33.425
133, -4602.05, -5292.16, -5223.32, -4616.21, 0.000, 0.000, 0.000, 12:44:33.439
134, -4622.86, -5332.71, -5225.50, -4633.81, 0.000, 0.000, 0.000, 12:44:33.439
135, -4580.72, -5354.13, -5210.04, -4675.19, 0.000, 0.000, 0.000, 12:44:33.454
136, -4566.61, -5331.49, -5192.18, -4709.81, 0.000, 0.000, 0.000, 12:44:33.454
137, -4610.74, -5354.77, -5277.75, -4606.19, 0.000, 0.000, 0.000, 12:44:33.454
138, -4585.91, -5316.55, -5216.95, -4626.45, 0.000, 0.000, 0.000, 12:44:33.454
139, -4560.89, -5316.41, -5156.67, -4700.05, 0.000, 0.000, 0.000, 12:44:33.469
140, -4526.67, -5275.55, -5140.12, -4691.32, 0.000, 0.000, 0.000, 12:44:33.469
141, -4582.62, -5288.84, -5239.46, -4591.57, 0.000, 0.000, 0.000, 12:44:33.484
142, -4596.79, -5377.13, -5311.73, -4615.92, 0.000, 0.000, 0.000, 12:44:33.484
143, -4561.70, -5360.81, -5229.96, -4720.37, 0.000, 0.000, 0.000, 12:44:33.484
144, -4532.93, -5314.92, -5175.34, -4697.55, 0.000, 0.000, 0.000, 12:44:33.484
145, -4594.41, -5345.16, -5229.61, -4560.60, 0.000, 0.000, 0.000, 12:44:33.499
146, -4599.90, -5393.02, -5215.58, -4600.05, 0.000, 0.000, 0.000, 12:44:33.499
147, -4561.91, -5334.23, -5198.01, -4690.72, 0.000, 0.000, 0.000, 12:44:33.514
148, -4541.01, -5277.21, -5211.71, -4698.43, 0.000, 0.000, 0.000, 12:44:33.514
149, -4594.10, -5368.49, -5251.91, -4616.09, 0.000, 0.000, 0.000, 12:44:33.514
150, -4627.49, -5361.55, -5202.14, -4626.41, 0.000, 0.000, 0.000, 12:44:33.515
151, -4587.33, -5323.16, -5201.09, -4697.70, 0.000, 0.000, 0.000, 12:44:33.529
152, -4560.27, -5344.62, -5214.55, -4696.07, 0.000, 0.000, 0.000, 12:44:33.529
153, -4608.88, -5255.39, -5191.36, -4588.86, 0.000, 0.000, 0.000, 12:44:33.543
154, -4621.11, -5313.18, -5230.23, -4640.23, 0.000, 0.000, 0.000, 12:44:33.544
155, -4579.24, -5360.21, -5246.02, -4691.07, 0.000, 0.000, 0.000, 12:44:33.544
156, -4581.98, -5333.77, -5161.99, -4703.99, 0.000, 0.000, 0.000, 12:44:33.544
157, -4620.02, -5312.37, -5249.80, -4579.07, 0.000, 0.000, 0.000, 12:44:33.558
158, -4608.19, -5282.29, -5220.93, -4636.10, 0.000, 0.000, 0.000, 12:44:33.558
159, -4579.74, -5307.91, -5192.58, -4706.94, 0.000, 0.000, 0.000, 12:44:33.573
160, -4577.95, -5322.95, -5205.38, -4713.24, 0.000, 0.000, 0.000, 12:44:33.573
161, -4621.56, -5324.13, -5242.22, -4602.02, 0.000, 0.000, 0.000, 12:44:33.574
162, -4638.17, -5381.76, -5234.80, -4625.21, 0.000, 0.000, 0.000, 12:44:33.574
163, -4604.38, -5358.16, -5218.65, -4707.23, 0.000, 0.000, 0.000, 12:44:33.588
164, -4577.28, -5286.84, -5154.68, -4712.26, 0.000, 0.000, 0.000, 12:44:33.588
165, -4608.61, -5277.14, -5239.30, -4594.81, 0.000, 0.000, 0.000, 12:44:33.603
166, -4637.33, -5357.13, -5269.75, -4650.55, 0.000, 0.000, 0.000, 12:44:33.603
167, -4606.90, -5332.03, -5185.93, -4689.77, 0.000, 0.000, 0.000, 12:44:33.603
168, -4589.14, -5317.52, -5168.78, -4722.72, 0.000, 0.000, 0.000, 12:44:33.604
169, -4640.24, -5314.84, -5250.05, -4579.48, 0.000, 0.000, 0.000, 12:44:33.626
170, -4623.64, -5324.88, -5214.46, -4622.08, 0.000, 0.000, 0.000, 12:44:33.626
171, -4603.17, -5324.87, -5256.50, -4723.82, 0.000, 0.000, 0.000, 12:44:33.634
172, -4599.20, -5347.05, -5212.78, -4725.57, 0.000, 0.000, 0.000, 12:44:33.634
173, -4631.99, -5332.96, -5207.58, -4590.81, 0.000, 0.000, 0.000, 12:44:33.634
174, -4631.32, -5289.86, -5231.71, -4620.68, 0.000, 0.000, 0.000, 12:44:33.634
175, -4583.98, -5303.98, -5165.88, -4680.36, 0.000, 0.000, 0.000, 12:44:33.650
176, -4607.25, -5368.68, -5181.54, -4712.17, 0.000, 0.000, 0.000, 12:44:33.650
177, -4628.91, -5290.39, -5262.87, -4601.65, 0.000, 0.000, 0.000, 12:44:33.664
178, -4629.87, -5355.65, -5277.82, -4650.23, 0.000, 0.000, 0.000, 12:44:33.664
179, -4590.50, -5294.59, -5183.23, -4714.05, 0.000, 0.000, 0.000, 12:44:33.664
180, -4571.34, -5305.06, -5124.74, -4692.71, 0.000, 0.000, 0.000, 12:44:33.664
181, -4630.75, -5310.72, -5229.66, -4578.71, 0.000, 0.000, 0.000, 12:44:33.680
182, -4614.74, -5304.16, -5217.60, -4617.33, 0.000, 0.000, 0.000, 12:44:33.680
183, -4610.54, -5342.37, -5209.76, -4712.82, 0.000, 0.000, 0.000, 12:44:33.694
184, -4560.27, -5297.92, -5171.01, -4705.54, 0.000, 0.000, 0.000, 12:44:33.694
185, -4629.14, -5311.47, -5259.42, -4605.09, 0.000, 0.000, 0.000, 12:44:33.694
186, -4641.13, -5381.91, -5257.42, -4643.95, 0.000, 0.000, 0.000, 12:44:33.694
187, -4575.58, -5326.96, -5165.53, -4706.24, 0.000, 0.000, 0.000, 12:44:33.709
188, -4511.76, -5268.36, -5148.10, -4688.34, 0.000, 0.000, 0.000, 12:44:33.709
189, -4556.85, -5326.72, -5241.93, -4582.00, 0.000, 0.000, 0.000, 12:44:33.723
190, -4543.56, -5372.79, -5224.11, -4645.63, 0.000, 0.000, 0.000, 12:44:33.723
191, -4506.49, -5398.03, -5233.86, -4699.68, 0.000, 0.000, 0.000, 12:44:33.724
192, -4469.55, -5372.58, -5188.19, -4669.58, 0.000, 0.000, 0.000, 12:44:33.724
193, -4494.01, -5358.23, -5231.22, -4551.26, 0.000, 0.000, 0.000, 12:44:33.738
194, -4503.27, -5444.69, -5292.49, -4610.41, 0.000, 0.000, 0.000, 12:44:33.738
195, -4480.61, -5437.32, -5231.27, -4680.02, 0.000, 0.000, 0.000, 12:44:33.753
196, -4449.43, -5396.27, -5195.47, -4684.90, 0.000, 0.000, 0.000, 12:44:33.753
197, -4510.02, -5401.82, -5274.09, -4583.15, 0.000, 0.000, 0.000, 12:44:33.754
198, -4509.93, -5419.50, -5264.31, -4597.09, 0.000, 0.000, 0.000, 12:44:33.754
199, -4514.81, -5477.63, -5324.74, -4677.28, 0.000, 0.000, 0.000, 12:44:33.769
200, -4507.64, -5435.15, -5266.19, -4665.15, 0.000, 0.000, 0.000, 12:44:33.769
0, -4555.24, -5415.37, -5292.01, -4561.84, 0.000, 0.000, 0.000, 12:44:33.769
1, -4589.52, -5440.55, -5277.97, -4610.17, 0.000, 0.000, 0.000, 12:44:33.783
2, -4552.50, -5404.29, -5225.65, -4685.14, 0.000, 0.000, 0.000, 12:44:33.783
3, -4556.84, -5376.99, -5242.03, -4690.95, 0.000, 0.000, 0.000, 12:44:33.799
4, -4609.72, -5359.30, -5270.60, -4569.54, 0.000, 0.000, 0.000, 12:44:33.799
5, -4612.17, -5347.84, -5239.82, -4600.59, 0.000, 0.000, 0.000, 12:44:33.799
6, -4603.04, -5382.99, -5223.13, -4686.09, 0.000, 0.000, 0.000, 12:44:33.799
7, -4600.59, -5415.53, -5229.15, -4705.39, 0.000, 0.000, 0.000, 12:44:33.814
8, -4630.02, -5338.32, -5277.17, -4572.68, 0.000, 0.000, 0.000, 12:44:33.815
9, -4648.49, -5322.19, -5222.67, -4623.45, 0.000, 0.000, 0.000, 12:44:33.830
10, -4605.86, -5360.77, -5199.95, -4705.51, 0.000, 0.000, 0.000, 12:44:33.830
11, -4599.41, -5338.86, -5172.32, -4719.51, 0.000, 0.000, 0.000, 12:44:33.830
12, -4645.09, -5302.82, -5227.45, -4565.61, 0.000, 0.000, 0.000, 12:44:33.830
13, -4649.07, -5333.83, -5244.71, -4619.88, 0.000, 0.000, 0.000, 12:44:33.844
14, -4625.94, -5319.22, -5191.46, -4703.51, 0.000, 0.000, 0.000, 12:44:33.844
15, -4614.58, -5339.06, -5248.45, -4693.49, 0.000, 0.000, 0.000, 12:44:33.858
16, -4658.57, -5379.38, -5308.31, -4607.86, 0.000, 0.000, 0.000, 12:44:33.858
17, -4635.04, -5361.21, -5239.46, -4628.22, 0.000, 0.000, 0.000, 12:44:33.859
18, -4625.60, -5360.82, -5188.82, -4729.27, 0.000, 0.000, 0.000, 12:44:33.859
19, -4600.71, -5291.91, -5162.54, -4698.46, 0.000, 0.000, 0.000, 12:44:33.873
20, -4649.45, -5310.82, -5206.17, -4606.69, 0.000, 0.000, 0.000, 12:44:33.873
21, -4643.14, -5315.15, -5220.37, -4626.09, 0.000, 0.000, 0.000, 12:44:33.889
22, -4616.45, -5337.01, -5183.31, -4716.09, 0.000, 0.000, 0.000, 12:44:33.889
23, -4591.51, -5335.86, -5211.93, -4704.54, 0.000, 0.000, 0.000, 12:44:33.889
24, -4645.82, -5329.20, -5256.80, -4578.41, 0.000, 0.000, 0.000, 12:44:33.889
25, -4627.69, -5386.06, -5276.39, -4597.05, 0.000, 0.000, 0.000, 12:44:33.904
26, -4615.11, -5358.32, -5179.33, -4679.26, 0.000, 0.000, 0.000, 12:44:33.904
27, -4575.27, -5292.14, -5212.50, -4652.51, 0.000, 0.000, 0.000, 12:44:33.918
28, -4627.78, -5276.31, -5247.08, -4541.66, 0.000, 0.000, 0.000, 12:44:33.918
29, -4637.87, -5346.71, -5271.43, -4544.95, 0.000, 0.000, 0.000, 12:44:33.919
30, -4614.26, -5374.17, -5279.66, -4621.88, 0.000, 0.000, 0.000, 12:44:33.919
31, -4600.88, -5309.08, -5257.74, -4636.87, 0.000, 0.000, 0.000, 12:44:33.934
32, -4665.50, -5355.78, -5317.96, -4533.78, 0.000, 0.000, 0.000, 12:44:33.934
33, -4670.67, -5417.78, -5321.35, -4561.54, 0.000, 0.000, 0.000, 12:44:33.949
34, -4623.99, -5366.29, -5280.40, -4640.49, 0.000, 0.000, 0.000, 12:44:33.949
35, -4606.71, -5276.22, -5218.24, -4661.53, 0.000, 0.000, 0.000, 12:44:33.949
36, -4648.76, -5329.53, -5339.54, -4551.69, 0.000, 0.000, 0.000, 12:44:33.950
37, -4664.36, -5432.26, -5291.99, -4569.98, 0.000, 0.000, 0.000, 12:44:33.963
38, -4622.16, -5247.13, -5139.24, -4662.13, 0.000, 0.000, 0.000, 12:44:33.963
39, -4619.11, -5264.12, -5205.51, -4657.01, 0.000, 0.000, 0.000, 12:44:33.978
40, -4648.54, -5285.61, -5294.71, -4562.55, 0.000, 0.000, 0.000, 12:44:33.979
41, -4650.63, -5341.53, -5277.57, -4606.17, 0.000, 0.000, 0.000, 12:44:33.979
42, -4623.88, -5339.76, -5258.22, -4695.97, 0.000, 0.000, 0.000, 12:44:33.979
43, -4603.42, -5321.48, -5156.83, -4664.49, 0.000, 0.000, 0.000, 12:44:34.000
44, -4666.00, -5390.10, -5252.58, -4546.87, 0.000, 0.000, 0.000, 12:44:34.000
45, -4654.52, -5286.48, -5257.24, -4612.60, 0.000, 0.000, 0.000, 12:44:34.010
46, -4600.15, -5343.71, -5204.20, -4687.60, 0.000, 0.000, 0.000, 12:44:34.010
47, -4583.57, -5297.03, -5206.56, -4700.81, 0.000, 0.000, 0.000, 12:44:34.010
48, -4642.51, -5351.11, -5359.25, -4600.58, 0.000, 0.000, 0.000, 12:44:34.010
49, -4638.24, -5352.75, -5193.78, -4626.96, 0.000, 0.000, 0.000, 12:44:34.023
50, -4622.51, -5356.51, -5198.59, -4697.01, 0.000, 0.000, 0.000, 12:44:34.023
51, -4586.92, -5316.32, -5178.18, -4695.65, 0.000, 0.000, 0.000, 12:44:34.038
52, -4636.34, -5295.38, -5238.72, -4579.69, 0.000, 0.000, 0.000, 12:44:34.038
53, -4625.60, -5347.02, -5269.60, -4627.25, 0.000, 0.000, 0.000, 12:44:34.039
54, -4606.96, -5360.23, -5237.02, -4700.45, 0.000, 0.000, 0.000, 12:44:34.039
55, -4604.08, -5349.40, -5216.17, -4711.91, 0.000, 0.000, 0.000, 12:44:34.054
56, -4649.88, -5316.19, -5247.46, -4589.45, 0.000, 0.000, 0.000, 12:44:34.054
57, -4630.00, -5351.50, -5269.59, -4648.39, 0.000, 0.000, 0.000, 12:44:34.068
58, -4598.50, -5349.69, -5170.79, -4689.47, 0.000, 0.000, 0.000, 12:44:34.068
59, -4596.28, -5319.32, -5221.12, -4705.67, 0.000, 0.000, 0.000, 12:44:34.069
60, -4617.75, -5277.23, -5197.37, -4585.24, 0.000, 0.000, 0.000, 12:44:34.069
61, -4642.88, -5316.30, -5222.51, -4660.22, 0.000, 0.000, 0.000, 12:44:34.084
62, -4638.69, -5397.06, -5246.88, -4738.48, 0.000, 0.000, 0.000, 12:44:34.084
63, -4607.02, -5397.40, -5278.50, -4740.19, 0.000, 0.000, 0.000, 12:44:34.099
64, -4604.68, -5286.24, -5204.53, -4597.05, 0.000, 0.000, 0.000, 12:44:34.099
65, -4594.42, -5282.24, -5189.73, -4648.21, 0.000, 0.000, 0.000, 12:44:34.099
66, -4575.26, -5261.79, -5108.03, -4745.22, 0.000, 0.000, 0.000, 12:44:34.099
67, -4543.70, -5243.15, -5074.06, -4734.72, 0.000, 0.000, 0.000, 12:44:34.114
68, -4551.89, -5185.46, -5135.97, -4635.42, 0.000, 0.000, 0.000, 12:44:34.114
69, -4541.56, -5234.92, -5138.21, -4675.79, 0.000, 0.000, 0.000, 12:44:34.129
70, -4516.05, -5266.82, -5111.05, -4767.50, 0.000, 0.000, 0.000, 12:44:34.129
71, -4489.70, -5221.77, -5086.32, -4744.74, 0.000, 0.000, 0.000, 12:44:34.130
72, -4518.09, -5200.11, -5128.91, -4634.82, 0.000, 0.000, 0.000, 12:44:34.130
73, -4513.01, -5269.23, -5121.65, -4689.26, 0.000, 0.000, 0.000, 12:44:34.144
74, -4500.69, -5208.60, -5062.89, -4769.95, 0.000, 0.000, 0.000, 12:44:34.144
75, -4503.85, -5172.68, -5021.17, -4754.97, 0.000, 0.000, 0.000, 12:44:34.162
76, -4572.79, -5215.30, -5139.53, -4628.67, 0.000, 0.000, 0.000, 12:44:34.162
77, -4586.52, -5201.90, -5104.59, -4675.56, 0.000, 0.000, 0.000, 12:44:34.162
78, -4581.97, -5199.14, -5072.92, -4759.44, 0.000, 0.000, 0.000, 12:44:34.162
79, -4594.03, -5173.67, -5069.43, -4731.74, 0.000, 0.000, 0.000, 12:44:34.188
80, -4661.20, -5182.46, -5142.57, -4652.29, 0.000, 0.000, 0.000, 12:44:34.188
81, -4668.15, -5212.15, -5137.72, -4693.67, 0.000, 0.000, 0.000, 12:44:34.188
82, -4657.42, -5252.22, -5129.36, -4753.84, 0.000, 0.000, 0.000, 12:44:34.189
83, -4635.11, -5217.84, -5142.00, -4753.20, 0.000, 0.000, 0.000, 12:44:34.189
84, -4669.73, -5195.77, -5135.70, -4631.23, 0.000, 0.000, 0.000, 12:44:34.189
85, -4697.90, -5252.97, -5139.45, -4678.10, 0.000, 0.000, 0.000, 12:44:34.204
86, -4655.93, -5189.17, -5086.48, -4750.18, 0.000, 0.000, 0.000, 12:44:34.204
87, -4650.93, -5207.66, -5104.32, -4734.32, 0.000, 0.000, 0.000, 12:44:34.219
88, -4694.57, -5198.20, -5195.52, -4626.00, 0.000, 0.000, 0.000, 12:44:34.219
89, -4684.92, -5241.00, -5183.25, -4659.43, 0.000, 0.000, 0.000, 12:44:34.219
90, -4652.02, -5258.09, -5155.05, -4732.38, 0.000, 0.000, 0.000, 12:44:34.219
91, -4636.11, -5237.34, -5134.32, -4723.77, 0.000, 0.000, 0.000, 12:44:34.234
92, -4666.28, -5260.99, -5205.16, -4615.42, 0.000, 0.000, 0.000, 12:44:34.234
93, -4678.34, -5318.62, -5224.20, -4668.00, 0.000, 0.000, 0.000, 12:44:34.249
94, -4628.78, -5257.10, -5131.12, -4724.84, 0.000, 0.000, 0.000, 12:44:34.249
95, -4613.41, -5226.03, -5096.16, -4705.70, 0.000, 0.000, 0.000, 12:44:34.249
96, -4646.97, -5265.35, -5175.07, -4593.77, 0.000, 0.000, 0.000, 12:44:34.249
97, -4659.05, -5299.59, -5201.39, -4645.53, 0.000, 0.000, 0.000, 12:44:34.264
98, -4624.28, -5284.41, -5149.57, -4720.64, 0.000, 0.000, 0.000, 12:44:34.264
99, -4599.64, -5280.60, -5138.60, -4702.61, 0.000, 0.000, 0.000, 12:44:34.279
100, -4653.33, -5291.52, -5211.05, -4598.67, 0.000, 0.000, 0.000, 12:44:34.279
101, -4613.28, -5282.81, -5179.48, -4628.10, 0.000, 0.000, 0.000, 12:44:34.279
102, -4612.27, -5333.20, -5137.66, -4705.18, 0.000, 0.000, 0.000, 12:44:34.279
103, -4597.30, -5304.09, -5160.67, -4686.85, 0.000, 0.000, 0.000, 12:44:34.295
104, -4637.73, -5287.32, -5200.97, -4588.99, 0.000, 0.000, 0.000, 12:44:34.295
105, -4633.81, -5338.78, -5179.07, -4632.71, 0.000, 0.000, 0.000, 12:44:34.309
106, -4618.03, -5320.11, -5143.09, -4710.92, 0.000, 0.000, 0.000, 12:44:34.309
107, -4592.85, -5290.59, -5117.52, -4690.35, 0.000, 0.000, 0.000, 12:44:34.309
108, -4630.28, -5298.71, -5206.90, -4576.58, 0.000, 0.000, 0.000, 12:44:34.309
109, -4632.85, -5352.10, -5184.76, -4619.62, 0.000, 0.000, 0.000, 12:44:34.324
110, -4612.19, -5327.59, -5146.67, -4704.88, 0.000, 0.000, 0.000, 12:44:34.324
111, -4579.21, -5286.93, -5129.76, -4672.87, 0.000, 0.000, 0.000, 12:44:34.339
112, -4625.40, -5317.24, -5201.97, -4556.95, 0.000, 0.000, 0.000, 12:44:34.339
113, -4626.39, -5351.95, -5214.97, -4632.43, 0.000, 0.000, 0.000, 12:44:34.339
114, -4598.70, -5354.73, -5170.18, -4700.65, 0.000, 0.000, 0.000, 12:44:34.339
115, -4584.06, -5320.01, -5166.27, -4694.52, 0.000, 0.000, 0.000, 12:44:34.354
116, -4624.46, -5307.84, -5187.31, -4567.39, 0.000, 0.000, 0.000, 12:44:34.354
117, -4630.64, -5359.40, -5175.51, -4628.30, 0.000, 0.000, 0.000, 12:44:34.368
118, -4595.53, -5322.70, -5134.77, -4693.31, 0.000, 0.000, 0.000, 12:44:34.368
119, -4576.13, -5277.44, -5150.90, -4678.93, 0.000, 0.000, 0.000, 12:44:34.369
120, -4621.22, -5300.45, -5204.58, -4574.82, 0.000, 0.000, 0.000, 12:44:34.369
121, -4621.44, -5338.81, -5222.26, -4628.46, 0.000, 0.000, 0.000, 12:44:34.383
122, -4612.26, -5361.91, -5135.48, -4699.07, 0.000, 0.000, 0.000, 12:44:34.384
123, -4610.20, -5325.63, -5127.91, -4697.25, 0.000, 0.000, 0.000, 12:44:34.399
124, -4634.65, -5316.65, -5178.21, -4567.16, 0.000, 0.000, 0.000, 12:44:34.399
125, -4636.11, -5320.87, -5193.71, -4629.16, 0.000, 0.000, 0.000, 12:44:34.399
126, -4606.69, -5341.23, -5181.64, -4711.33, 0.000, 0.000, 0.000, 12:44:34.399
127, -4585.73, -5328.77, -5156.93, -4687.45, 0.000, 0.000, 0.000, 12:44:34.414
128, -4635.23, -5334.65, -5239.63, -4581.78, 0.000, 0.000, 0.000, 12:44:34.414
129, -4624.46, -5333.09, -5216.00, -4627.96, 0.000, 0.000, 0.000, 12:44:34.429
130, -4591.74, -5311.16, -5125.40, -4705.20, 0.000, 0.000, 0.000, 12:44:34.429
131, -4578.54, -5295.05, -5142.17, -4676.93, 0.000, 0.000, 0.000, 12:44:34.429
132, -4632.31, -5322.18, -5214.04, -4574.15, 0.000, 0.000, 0.000, 12:44:34.429
133, -4630.31, -5329.12, -5199.90, -4635.51, 0.000, 0.000, 0.000, 12:44:34.444
134, -4602.24, -5328.12, -5128.96, -4697.65, 0.000, 0.000, 0.000, 12:44:34.445
135, -4593.15, -5319.41, -5134.69, -4693.53, 0.000, 0.000, 0.000, 12:44:34.459
136, -4637.74, -5328.91, -5219.91, -4602.39, 0.000, 0.000, 0.000, 12:44:34.459
137, -4641.29, -5360.95, -5215.85, -4647.46, 0.000, 0.000, 0.000, 12:44:34.459
138, -4597.97, -5359.56, -5162.06, -4712.41, 0.000, 0.000, 0.000, 12:44:34.459
139, -4582.74, -5292.13, -5208.12, -4684.96, 0.000, 0.000, 0.000, 12:44:34.474
140, -4630.39, -5286.07, -5186.81, -4585.38, 0.000, 0.000, 0.000, 12:44:34.474
141, -4612.27, -5324.42, -5184.26, -4641.00, 0.000, 0.000, 0.000, 12:44:34.489
142, -4583.71, -5347.53, -5147.00, -4717.32, 0.000, 0.000, 0.000, 12:44:34.489
143, -4576.35, -5308.70, -5144.54, -4699.94, 0.000, 0.000, 0.000, 12:44:34.489
144, -4624.22, -5321.37, -5221.20, -4595.63, 0.000, 0.000, 0.000, 12:44:34.489
145, -4626.75, -5320.32, -5207.60, -4628.70, 0.000, 0.000, 0.000, 12:44:34.503
146, -4585.78, -5302.64, -5097.13, -4708.30, 0.000, 0.000, 0.000, 12:44:34.504
147, -4584.17, -5306.13, -5129.47, -4694.76, 0.000, 0.000, 0.000, 12:44:34.518
148, -4634.56, -5321.67, -5199.22, -4610.61, 0.000, 0.000, 0.000, 12:44:34.519
149, -4632.71, -5326.67, -5173.09, -4646.92, 0.000, 0.000, 0.000, 12:44:34.519
150, -4595.24, -5350.28, -5169.08, -4717.15, 0.000, 0.000, 0.000, 12:44:34.519
151, -4600.19, -5344.49, -5165.31, -4722.68, 0.000, 0.000, 0.000, 12:44:34.549
152, -4617.36, -5307.48, -5180.29, -4577.78, 0.000, 0.000, 0.000, 12:44:34.549
153, -4608.23, -5311.63, -5181.74, -4625.41, 0.000, 0.000, 0.000, 12:44:34.549
154, -4600.31, -5340.30, -5192.82, -4706.33, 0.000, 0.000, 0.000, 12:44:34.549
155, -4574.47, -5329.67, -5129.88, -4688.30, 0.000, 0.000, 0.000, 12:44:34.550
156, -4615.02, -5296.52, -5197.30, -4590.59, 0.000, 0.000, 0.000, 12:44:34.550
157, -4608.01, -5315.80, -5208.89, -4624.60, 0.000, 0.000, 0.000, 12:44:34.564
158, -4598.06, -5361.57, -5158.69, -4705.92, 0.000, 0.000, 0.000, 12:44:34.564
159, -4597.31, -5337.28, -5136.89, -4686.89, 0.000, 0.000, 0.000, 12:44:34.579
160, -4632.32, -5340.06, -5211.43, -4597.15, 0.000, 0.000, 0.000, 12:44:34.579
161, -4617.91, -5308.58, -5181.62, -4651.60, 0.000, 0.000, 0.000, 12:44:34.580
162, -4593.89, -5338.16, -5199.24, -4706.45, 0.000, 0.000, 0.000, 12:44:34.580
163, -4591.60, -5317.28, -5141.56, -4689.43, 0.000, 0.000, 0.000, 12:44:34.594
164, -4628.01, -5333.02, -5193.32, -4596.01, 0.000, 0.000, 0.000, 12:44:34.594
165, -4636.59, -5321.29, -5190.94, -4645.27, 0.000, 0.000, 0.000, 12:44:34.609
166, -4581.92, -5326.07, -5146.40, -4713.45, 0.000, 0.000, 0.000, 12:44:34.609
167, -4580.06, -5306.82, -5176.69, -4702.63, 0.000, 0.000, 0.000, 12:44:34.610
168, -4616.75, -5309.74, -5225.55, -4587.73, 0.000, 0.000, 0.000, 12:44:34.610
169, -4614.24, -5330.13, -5165.95, -4658.00, 0.000, 0.000, 0.000, 12:44:34.623
170, -4588.62, -5346.97, -5146.01, -4703.03, 0.000, 0.000, 0.000, 12:44:34.624
171, -4594.98, -5354.11, -5178.39, -4700.91, 0.000, 0.000, 0.000, 12:44:34.638
172, -4649.86, -5278.35, -5203.44, -4603.54, 0.000, 0.000, 0.000, 12:44:34.638
173, -4620.92, -5293.53, -5166.29, -4633.52, 0.000, 0.000, 0.000, 12:44:34.639
174, -4602.37, -5323.04, -5171.47, -4733.79, 0.000, 0.000, 0.000, 12:44:34.639
175, -4598.44, -5321.77, -5175.96, -4687.43, 0.000, 0.000, 0.000, 12:44:34.662
176, -4634.10, -5326.84, -5223.47, -4586.33, 0.000, 0.000, 0.000, 12:44:34.662
177, -4632.29, -5338.13, -5218.00, -4652.81, 0.000, 0.000, 0.000, 12:44:34.668
178, -4597.39, -5341.91, -5185.67, -4718.03, 0.000, 0.000, 0.000, 12:44:34.668
179, -4592.60, -5309.37, -5146.65, -4689.97, 0.000, 0.000, 0.000, 12:44:34.669
180, -4631.44, -5327.73, -5202.09, -4600.71, 0.000, 0.000, 0.000, 12:44:34.669
181, -4618.51, -5339.16, -5226.12, -4653.84, 0.000, 0.000, 0.000, 12:44:34.683
182, -4581.73, -5323.85, -5159.03, -4700.74, 0.000, 0.000, 0.000, 12:44:34.683
183, -4599.10, -5290.93, -5142.23, -4696.69, 0.000, 0.000, 0.000, 12:44:34.700
184, -4633.98, -5315.31, -5212.34, -4594.66, 0.000, 0.000, 0.000, 12:44:34.700
185, -4632.87, -5325.49, -5224.46, -4652.80, 0.000, 0.000, 0.000, 12:44:34.700
186, -4590.72, -5308.69, -5142.34, -4700.55, 0.000, 0.000, 0.000, 12:44:34.700
187, -4586.13, -5291.29, -5164.39, -4687.68, 0.000, 0.000, 0.000, 12:44:34.714
188, -4623.15, -5321.70, -5226.52, -4602.65, 0.000, 0.000, 0.000, 12:44:34.714
189, -4612.30, -5328.69, -5207.80, -4634.46, 0.000, 0.000, 0.000, 12:44:34.730
190, -4594.30, -5347.10, -5155.60, -4713.32, 0.000, 0.000, 0.000, 12:44:34.730
191, -4580.01, -5324.44, -5152.75, -4696.67, 0.000, 0.000, 0.000, 12:44:34.730
192, -4625.53, -5323.62, -5223.05, -4599.99, 0.000, 0.000, 0.000, 12:44:34.730
193, -4620.48, -5318.17, -5195.15, -4644.08, 0.000, 0.000, 0.000, 12:44:34.744
194, -4582.70, -5309.36, -5190.90, -4704.75, 0.000, 0.000, 0.000, 12:44:34.744
195, -4575.06, -5316.54, -5119.58, -4688.42, 0.000, 0.000, 0.000, 12:44:34.758
196, -4644.75, -5305.18, -5203.27, -4615.07, 0.000, 0.000, 0.000, 12:44:34.758
197, -4607.54, -5300.90, -5217.43, -4631.18, 0.000, 0.000, 0.000, 12:44:34.759
198, -4586.01, -5317.05, -5146.57, -4700.68, 0.000, 0.000, 0.000, 12:44:34.759
199, -4574.25, -5299.19, -5134.65, -4682.69, 0.000, 0.000, 0.000, 12:44:34.774
200, -4608.01, -5321.16, -5233.47, -4595.46, 0.000, 0.000, 0.000, 12:44:34.776
0, -4617.33, -5348.49, -5214.18, -4658.37, 0.000, 0.000, 0.000, 12:44:34.776
1, -4601.72, -5359.46, -5167.84, -4722.41, 0.000, 0.000, 0.000, 12:44:34.789
2, -4587.30, -5293.83, -5172.65, -4695.57, 0.000, 0.000, 0.000, 12:44:34.789
3, -4623.70, -5329.47, -5253.42, -4591.50, 0.000, 0.000, 0.000, 12:44:34.804
4, -4619.49, -5350.74, -5204.04, -4656.95, 0.000, 0.000, 0.000, 12:44:34.804
5, -4573.18, -5300.02, -5118.77, -4699.91, 0.000, 0.000, 0.000, 12:44:34.804
6, -4561.99, -5275.75, -5156.24, -4671.85, 0.000, 0.000, 0.000, 12:44:34.804
7, -4618.85, -5301.29, -5226.72, -4601.61, 0.000, 0.000, 0.000, 12:44:34.818
8, -4599.33, -5307.06, -5189.94, -4653.68, 0.000, 0.000, 0.000, 12:44:34.818
9, -4577.30, -5323.26, -5168.01, -4709.90, 0.000, 0.000, 0.000, 12:44:34.833
10, -4554.59, -5307.99, -5174.27, -4681.41, 0.000, 0.000, 0.000, 12:44:34.834
11, -4589.20, -5296.65, -5201.86, -4600.10, 0.000, 0.000, 0.000, 12:44:34.834
12, -4587.72, -5312.82, -5179.19, -4649.46, 0.000, 0.000, 0.000, 12:44:34.834
13, -4581.62, -5363.95, -5201.49, -4700.11, 0.000, 0.000, 0.000, 12:44:34.850
14, -4573.11, -5331.67, -5206.79, -4693.71, 0.000, 0.000, 0.000, 12:44:34.850
15, -4575.84, -5291.79, -5163.68, -4581.46, 0.000, 0.000, 0.000, 12:44:34.864
16, -4579.69, -5297.29, -5141.72, -4640.40, 0.000, 0.000, 0.000, 12:44:34.864
17, -4564.38, -5312.77, -5139.01, -4716.24, 0.000, 0.000, 0.000, 12:44:34.864
18, -4560.46, -5287.33, -5143.73, -4699.83, 0.000, 0.000, 0.000, 12:44:34.864
19, -4603.32, -5274.78, -5197.56, -4580.27, 0.000, 0.000, 0.000, 12:44:34.879
20, -4594.11, -5284.78, -5183.54, -4652.82, 0.000, 0.000, 0.000, 12:44:34.879
21, -4574.99, -5301.26, -5174.28, -4709.30, 0.000, 0.000, 0.000, 12:44:34.894
22, -4583.25, -5288.48, -5156.07, -4689.77, 0.000, 0.000, 0.000, 12:44:34.894
23, -4622.01, -5286.82, -5180.73, -4615.21, 0.000, 0.000, 0.000, 12:44:34.895
24, -4635.07, -5304.37, -5175.59, -4639.17, 0.000, 0.000, 0.000, 12:44:34.895
25, -4612.40, -5254.33, -5122.92, -4705.98, 0.000, 0.000, 0.000, 12:44:34.909
26, -4622.30, -5230.17, -5124.86, -4687.63, 0.000, 0.000, 0.000, 12:44:34.909
27, -4644.41, -5223.91, -5196.19, -4579.78, 0.000, 0.000, 0.000, 12:44:34.923
28, -4657.00, -5269.37, -5195.43, -4646.95, 0.000, 0.000, 0.000, 12:44:34.923
29, -4658.72, -5287.81, -5122.47, -4730.00, 0.000, 0.000, 0.000, 12:44:34.924
30, -4666.55, -5240.84, -5110.60, -4706.59, 0.000, 0.000, 0.000, 12:44:34.924
31, -4704.52, -5215.74, -5206.29, -4596.77, 0.000, 0.000, 0.000, 12:44:34.939
32, -4700.31, -5244.95, -5176.94, -4647.74, 0.000, 0.000, 0.000, 12:44:34.939
33, -4686.87, -5264.48, -5136.19, -4726.41, 0.000, 0.000, 0.000, 12:44:34.953
34, -4693.35, -5261.93, -5120.87, -4691.37, 0.000, 0.000, 0.000, 12:44:34.953
35, -4720.35, -5229.97, -5174.04, -4590.22, 0.000, 0.000, 0.000, 12:44:34.954
36, -4709.08, -5236.36, -5166.24, -4644.45, 0.000, 0.000, 0.000, 12:44:34.954
37, -4689.36, -5244.71, -5148.75, -4721.30, 0.000, 0.000, 0.000, 12:44:34.969
38, -4691.47, -5239.42, -5189.67, -4704.73, 0.000, 0.000, 0.000, 12:44:34.969
39, -4727.35, -5276.84, -5219.94, -4611.37, 0.000, 0.000, 0.000, 12:44:34.983
40, -4711.28, -5297.73, -5182.25, -4654.98, 0.000, 0.000, 0.000, 12:44:34.983
41, -4674.37, -5275.58, -5131.01, -4707.83, 0.000, 0.000, 0.000, 12:44:34.984
42, -4666.89, -5227.76, -5143.27, -4688.85, 0.000, 0.000, 0.000, 12:44:34.984
43, -4688.92, -5237.31, -5230.16, -4586.58, 0.000, 0.000, 0.000, 12:44:35.000
44, -4677.06, -5290.22, -5182.92, -4645.00, 0.000, 0.000, 0.000, 12:44:35.000
45, -4655.14, -5283.33, -5124.96, -4725.55, 0.000, 0.000, 0.000, 12:44:35.013
46, -4644.11, -5263.46, -5143.50, -4709.31, 0.000, 0.000, 0.000, 12:44:35.013
47, -4671.09, -5269.09, -5229.47, -4595.26, 0.000, 0.000, 0.000, 12:44:35.013
48, -4681.26, -5338.92, -5239.96, -4657.50, 0.000, 0.000, 0.000, 12:44:35.014
49, -4651.75, -5329.22, -5164.99, -4735.11, 0.000, 0.000, 0.000, 12:44:35.029
50, -4643.53, -5260.78, -5143.36, -4698.31, 0.000, 0.000, 0.000, 12:44:35.029
51, -4700.10, -5298.00, -5231.78, -4626.22, 0.000, 0.000, 0.000, 12:44:35.044
52, -4664.53, -5319.64, -5191.58, -4662.84, 0.000, 0.000, 0.000, 12:44:35.044
53, -4637.48, -5324.27, -5171.14, -4727.63, 0.000, 0.000, 0.000, 12:44:35.044
54, -4635.07, -5310.21, -5191.96, -4706.28, 0.000, 0.000, 0.000, 12:44:35.045
55, -4652.97, -5296.41, -5223.89, -4606.52, 0.000, 0.000, 0.000, 12:44:35.059
56, -4659.54, -5357.28, -5224.29, -4664.28, 0.000, 0.000, 0.000, 12:44:35.059
57, -4626.17, -5350.64, -5172.88, -4728.61, 0.000, 0.000, 0.000, 12:44:35.073
58, -4625.23, -5304.46, -5162.29, -4698.88, 0.000, 0.000, 0.000, 12:44:35.074
59, -4659.91, -5279.78, -5211.10, -4618.44, 0.000, 0.000, 0.000, 12:44:35.074
60, -4639.82, -5310.81, -5198.42, -4644.33, 0.000, 0.000, 0.000, 12:44:35.074
61, -4626.61, -5355.00, -5203.90, -4731.71, 0.000, 0.000, 0.000, 12:44:35.089
62, -4605.76, -5276.70, -5163.65, -4693.06, 0.000, 0.000, 0.000, 12:44:35.089
63, -4648.02, -5296.79, -5223.03, -4605.42, 0.000, 0.000, 0.000, 12:44:35.103
64, -4642.54, -5333.36, -5221.06, -4663.11, 0.000, 0.000, 0.000, 12:44:35.103
65, -4610.06, -5349.01, -5160.96, -4745.71, 0.000, 0.000, 0.000, 12:44:35.104
66, -4608.15, -5310.06, -5171.73, -4710.29, 0.000, 0.000, 0.000, 12:44:35.104
67, -4653.30, -5332.27, -5247.30, -4601.96, 0.000, 0.000, 0.000, 12:44:35.119
68, -4650.96, -5362.94, -5204.93, -4665.45, 0.000, 0.000, 0.000, 12:44:35.119
69, -4619.74, -5347.50, -5168.35, -4716.31, 0.000, 0.000, 0.000, 12:44:35.133
70, -4617.36, -5341.36, -5179.38, -4702.99, 0.000, 0.000, 0.000, 12:44:35.133
71, -4651.16, -5323.90, -5228.65, -4610.38, 0.000, 0.000, 0.000, 12:44:35.141
72, -4643.95, -5361.16, -5246.97, -4665.05, 0.000, 0.000, 0.000, 12:44:35.141
73, -4616.11, -5362.26, -5214.17, -4756.11, 0.000, 0.000, 0.000, 12:44:35.149
74, -4590.01, -5336.49, -5196.70, -4710.90, 0.000, 0.000, 0.000, 12:44:35.149
75, -4588.17, -5366.84, -5237.84, -4585.00, 0.000, 0.000, 0.000, 12:44:35.164
76, -4574.36, -5380.67, -5223.43, -4649.10, 0.000, 0.000, 0.000, 12:44:35.164
77, -4510.09, -5371.83, -5158.17, -4709.63, 0.000, 0.000, 0.000, 12:44:35.164
78, -4475.90, -5392.20, -5200.03, -4698.37, 0.000, 0.000, 0.000, 12:44:35.164
79, -4494.85, -5388.84, -5271.66, -4587.17, 0.000, 0.000, 0.000, 12:44:35.180
80, -4456.11, -5416.77, -5238.07, -4640.49, 0.000, 0.000, 0.000, 12:44:35.180
81, -4421.54, -5422.17, -5196.53, -4702.07, 0.000, 0.000, 0.000, 12:44:35.194
82, -4410.19, -5404.28, -5239.50, -4693.49, 0.000, 0.000, 0.000, 12:44:35.194
83, -4452.01, -5412.33, -5264.12, -4588.33, 0.000, 0.000, 0.000, 12:44:35.194
84, -4464.01, -5437.41, -5233.83, -4647.92, 0.000, 0.000, 0.000, 12:44:35.194
85, -4469.31, -5437.13, -5192.12, -4733.32, 0.000, 0.000, 0.000, 12:44:35.210
86, -4475.78, -5407.74, -5208.45, -4686.79, 0.000, 0.000, 0.000, 12:44:35.210
87, -4535.92, -5407.58, -5266.50, -4608.50, 0.000, 0.000, 0.000, 12:44:35.224
88, -4553.04, -5419.15, -5257.01, -4659.03, 0.000, 0.000, 0.000, 12:44:35.224
89, -4550.24, -5407.82, -5208.20, -4720.28, 0.000, 0.000, 0.000, 12:44:35.225
90, -4541.14, -5365.64, -5179.35, -4684.04, 0.000, 0.000, 0.000, 12:44:35.225
91, -4591.72, -5363.72, -5233.24, -4625.58, 0.000, 0.000, 0.000, 12:44:35.239
92, -4606.68, -5363.04, -5227.79, -4668.49, 0.000, 0.000, 0.000, 12:44:35.239
93, -4576.72, -5361.10, -5187.05, -4727.30, 0.000, 0.000, 0.000, 12:44:35.253
94, -4578.45, -5347.04, -5204.83, -4706.37, 0.000, 0.000, 0.000, 12:44:35.253
95, -4624.81, -5344.90, -5245.97, -4588.18, 0.000, 0.000, 0.000, 12:44:35.254
96, -4627.50, -5370.48, -5235.30, -4662.99, 0.000, 0.000, 0.000, 12:44:35.254
97, -4597.31, -5363.94, -5186.91, -4722.47, 0.000, 0.000, 0.000, 12:44:35.268
98, -4614.66, -5338.18, -5217.26, -4720.40, 0.000, 0.000, 0.000, 12:44:35.268
99, -4633.89, -5337.84, -5227.93, -4603.56, 0.000, 0.000, 0.000, 12:44:35.283
100, -4623.45, -5324.92, -5196.47, -4652.08, 0.000, 0.000, 0.000, 12:44:35.283
101, -4596.58, -5351.74, -5177.42, -4719.69, 0.000, 0.000, 0.000, 12:44:35.284
102, -4596.91, -5324.43, -5178.37, -4696.04, 0.000, 0.000, 0.000, 12:44:35.284
103, -4650.20, -5345.55, -5249.86, -4617.95, 0.000, 0.000, 0.000, 12:44:35.299
104, -4625.35, -5335.89, -5215.30, -4659.03, 0.000, 0.000, 0.000, 12:44:35.299
105, -4620.73, -5361.97, -5199.85, -4742.35, 0.000, 0.000, 0.000, 12:44:35.314
106, -4611.86, -5324.88, -5191.33, -4701.80, 0.000, 0.000, 0.000, 12:44:35.314
107, -4650.98, -5337.59, -5243.37, -4601.81, 0.000, 0.000, 0.000, 12:44:35.315
108, -4638.06, -5346.67, -5210.08, -4657.06, 0.000, 0.000, 0.000, 12:44:35.315
109, -4607.87, -5322.23, -5187.45, -4730.63, 0.000, 0.000, 0.000, 12:44:35.328
110, -4603.85, -5323.67, -5194.80, -4691.00, 0.000, 0.000, 0.000, 12:44:35.329
111, -4639.33, -5316.63, -5235.73, -4603.82, 0.000, 0.000, 0.000, 12:44:35.344
112, -4620.13, -5327.59, -5193.03, -4653.63, 0.000, 0.000, 0.000, 12:44:35.344
113, -4593.23, -5310.78, -5161.04, -4728.01, 0.000, 0.000, 0.000, 12:44:35.345
114, -4594.83, -5297.16, -5172.39, -4680.74, 0.000, 0.000, 0.000, 12:44:35.345
115, -4653.17, -5303.47, -5252.38, -4608.76, 0.000, 0.000, 0.000, 12:44:35.374
116, -4627.85, -5357.00, -5194.95, -4648.98, 0.000, 0.000, 0.000, 12:44:35.374
117, -4585.78, -5293.79, -5158.82, -4712.73, 0.000, 0.000, 0.000, 12:44:35.374
118, -4586.60, -5297.09, -5151.70, -4694.31, 0.000, 0.000, 0.000, 12:44:35.374
119, -4636.50, -5289.21, -5205.78, -4612.97, 0.000, 0.000, 0.000, 12:44:35.375
120, -4628.67, -5310.74, -5202.89, -4654.47, 0.000, 0.000, 0.000, 12:44:35.375
121, -4612.30, -5300.81, -5179.30, -4746.50, 0.000, 0.000, 0.000, 12:44:35.388
122, -4600.84, -5296.04, -5168.52, -4680.49, 0.000, 0.000, 0.000, 12:44:35.390
123, -4650.53, -5308.77, -5266.59, -4610.78, 0.000, 0.000, 0.000, 12:44:35.404
124, -4648.37, -5352.20, -5196.58, -4677.89, 0.000, 0.000, 0.000, 12:44:35.404
125, -4605.53, -5339.20, -5152.06, -4732.87, 0.000, 0.000, 0.000, 12:44:35.404
126, -4595.12, -5306.91, -5165.01, -4673.77, 0.000, 0.000, 0.000, 12:44:35.404
127, -4645.45, -5326.85, -5228.63, -4594.71, 0.000, 0.000, 0.000, 12:44:35.419
128, -4626.96, -5307.57, -5206.37, -4661.42, 0.000, 0.000, 0.000, 12:44:35.419
129, -4574.06, -5287.69, -5164.61, -4728.70, 0.000, 0.000, 0.000, 12:44:35.434
130, -4569.42, -5271.97, -5162.93, -4693.56, 0.000, 0.000, 0.000, 12:44:35.434
131, -4643.02, -5333.95, -5223.23, -4621.51, 0.000, 0.000, 0.000, 12:44:35.434
132, -4631.74, -5329.38, -5193.79, -4636.32, 0.000, 0.000, 0.000, 12:44:35.434
133, -4604.41, -5328.05, -5144.68, -4731.00, 0.000, 0.000, 0.000, 12:44:35.449
134, -4597.01, -5312.59, -5163.88, -4707.35, 0.000, 0.000, 0.000, 12:44:35.449
135, -4632.46, -5309.23, -5221.46, -4585.10, 0.000, 0.000, 0.000, 12:44:35.464
136, -4647.53, -5338.58, -5235.77, -4667.00, 0.000, 0.000, 0.000, 12:44:35.464
137, -4617.23, -5368.77, -5219.84, -4738.26, 0.000, 0.000, 0.000, 12:44:35.465
138, -4586.82, -5295.05, -5164.80, -4671.00, 0.000, 0.000, 0.000, 12:44:35.465
139, -4641.90, -5352.17, -5227.23, -4607.72, 0.000, 0.000, 0.000, 12:44:35.479
140, -4629.01, -5339.91, -5227.84, -4659.49, 0.000, 0.000, 0.000, 12:44:35.479
141, -4587.97, -5308.45, -5184.00, -4716.78, 0.000, 0.000, 0.000, 12:44:35.494
142, -4574.55, -5273.66, -5172.09, -4686.68, 0.000, 0.000, 0.000, 12:44:35.494
143, -4659.08, -5364.11, -5218.94, -4604.67, 0.000, 0.000, 0.000, 12:44:35.495
144, -4621.30, -5317.92, -5175.00, -4653.00, 0.000, 0.000, 0.000, 12:44:35.495
145, -4584.79, -5324.53, -5153.46, -4740.19, 0.000, 0.000, 0.000, 12:44:35.509
146, -4591.87, -5336.85, -5172.83, -4677.01, 0.000, 0.000, 0.000, 12:44:35.509
147, -4645.28, -5347.24, -5236.24, -4596.48, 0.000, 0.000, 0.000, 12:44:35.523
148, -4633.89, -5337.16, -5219.56, -4662.36, 0.000, 0.000, 0.000, 12:44:35.523
149, -4574.40, -5306.98, -5165.65, -4717.66, 0.000, 0.000, 0.000, 12:44:35.524
150, -4587.24, -5311.22, -5184.73, -4695.09, 0.000, 0.000, 0.000, 12:44:35.524
151, -4655.19, -5332.17, -5271.72, -4609.96, 0.000, 0.000, 0.000, 12:44:35.538
152, -4639.13, -5369.49, -5204.84, -4659.12, 0.000, 0.000, 0.000, 12:44:35.538
153, -4593.34, -5346.65, -5161.72, -4728.65, 0.000, 0.000, 0.000, 12:44:35.553
154, -4576.57, -5323.20, -5174.93, -4680.09, 0.000, 0.000, 0.000, 12:44:35.553
155, -4665.43, -5354.52, -5256.69, -4612.75, 0.000, 0.000, 0.000, 12:44:35.554
156, -4632.98, -5347.32, -5243.31, -4662.81, 0.000, 0.000, 0.000, 12:44:35.554
157, -4596.53, -5340.26, -5174.89, -4753.51, 0.000, 0.000, 0.000, 12:44:35.568
158, -4587.55, -5315.81, -5161.25, -4689.59, 0.000, 0.000, 0.000, 12:44:35.568
159, -4649.52, -5349.38, -5245.76, -4598.62, 0.000, 0.000, 0.000, 12:44:35.597
160, -4619.03, -5342.94, -5189.92, -4653.53, 0.000, 0.000, 0.000, 12:44:35.598
161, -4584.35, -5321.85, -5144.19, -4725.16, 0.000, 0.000, 0.000, 12:44:35.598
162, -4572.68, -5287.82, -5170.28, -4672.91, 0.000, 0.000, 0.000, 12:44:35.598
163, -4640.62, -5343.28, -5251.21, -4577.91, 0.000, 0.000, 0.000, 12:44:35.599
164, -4629.97, -5353.18, -5218.96, -4663.37, 0.000, 0.000, 0.000, 12:44:35.599
165, -4592.23, -5341.70, -5192.94, -4725.84, 0.000, 0.000, 0.000, 12:44:35.614
166, -4599.09, -5315.61, -5153.14, -4692.28, 0.000, 0.000, 0.000, 12:44:35.614
167, -4641.53, -5330.37, -5231.80, -4604.83, 0.000, 0.000, 0.000, 12:44:35.614
168, -4628.04, -5339.83, -5206.07, -4643.95, 0.000, 0.000, 0.000, 12:44:35.614
169, -4588.31, -5332.09, -5179.91, -4712.69, 0.000, 0.000, 0.000, 12:44:35.629
170, -4580.79, -5306.72, -5158.82, -4677.83, 0.000, 0.000, 0.000, 12:44:35.629
171, -4635.13, -5321.78, -5220.46, -4595.71, 0.000, 0.000, 0.000, 12:44:35.643
172, -4627.27, -5320.48, -5228.28, -4665.54, 0.000, 0.000, 0.000, 12:44:35.643
173, -4590.65, -5341.24, -5145.58, -4733.30, 0.000, 0.000, 0.000, 12:44:35.644
174, -4602.02, -5315.69, -5160.43, -4697.79, 0.000, 0.000, 0.000, 12:44:35.644
175, -4616.92, -5316.40, -5236.83, -4595.51, 0.000, 0.000, 0.000, 12:44:35.659
176, -4622.14, -5335.84, -5210.54, -4643.75, 0.000, 0.000, 0.000, 12:44:35.659
177, -4585.44, -5332.98, -5145.90, -4734.53, 0.000, 0.000, 0.000, 12:44:35.674
178, -4578.72, -5295.88, -5176.61, -4697.06, 0.000, 0.000, 0.000, 12:44:35.674
179, -4629.95, -5321.23, -5241.36, -4582.12, 0.000, 0.000, 0.000, 12:44:35.674
180, -4623.63, -5322.13, -5197.74, -4665.25, 0.000, 0.000, 0.000, 12:44:35.674
181, -4576.49, -5333.24, -5123.46, -4700.53, 0.000, 0.000, 0.000, 12:44:35.688
182, -4592.76, -5309.58, -5162.43, -4693.75, 0.000, 0.000, 0.000, 12:44:35.688
183, -4624.74, -5330.12, -5230.69, -4598.06, 0.000, 0.000, 0.000, 12:44:35.703
184, -4598.55, -5328.87, -5204.10, -4635.09, 0.000, 0.000, 0.000, 12:44:35.703
185, -4576.30, -5316.17, -5145.88, -4737.22, 0.000, 0.000, 0.000, 12:44:35.704
186, -4565.22, -5292.27, -5232.54, -4667.55, 0.000, 0.000, 0.000, 12:44:35.704
187, -4636.63, -5316.63, -5226.85, -4594.14, 0.000, 0.000, 0.000, 12:44:35.718
188, -4635.63, -5340.21, -5194.31, -4682.31, 0.000, 0.000, 0.000, 12:44:35.718
189, -4582.78, -5335.65, -5121.34, -4735.74, 0.000, 0.000, 0.000, 12:44:35.734
190, -4595.71, -5307.19, -5165.30, -4673.96, 0.000, 0.000, 0.000, 12:44:35.734
191, -4634.62, -5311.35, -5237.37, -4600.31, 0.000, 0.000, 0.000, 12:44:35.734
192, -4621.06, -5326.70, -5198.26, -4634.86, 0.000, 0.000, 0.000, 12:44:35.734
193, -4574.82, -5304.77, -5137.72, -4729.16, 0.000, 0.000, 0.000, 12:44:35.749
194, -4575.45, -5282.38, -5179.22, -4666.95, 0.000, 0.000, 0.000, 12:44:35.749
195, -4644.58, -5335.12, -5257.93, -4593.03, 0.000, 0.000, 0.000, 12:44:35.764
196, -4619.52, -5333.50, -5212.10, -4655.03, 0.000, 0.000, 0.000, 12:44:35.764
197, -4581.27, -5314.98, -5141.98, -4717.06, 0.000, 0.000, 0.000, 12:44:35.765
198, -4579.18, -5300.44, -5151.32, -4662.75, 0.000, 0.000, 0.000, 12:44:35.766
199, -4650.33, -5330.43, -5217.44, -4610.60, 0.000, 0.000, 0.000, 12:44:35.779
200, -4626.75, -5330.02, -5202.64, -4662.47, 0.000, 0.000, 0.000, 12:44:35.779
0, -4585.73, -5337.15, -5159.25, -4714.34, 0.000, 0.000, 0.000, 12:44:35.779
1, -4593.61, -5306.52, -5178.42, -4697.25, 0.000, 0.000, 0.000, 12:44:35.794
2, -4638.86, -5310.27, -5240.27, -4593.82, 0.000, 0.000, 0.000, 12:44:35.794
3, -4625.52, -5329.28, -5215.12, -4645.15, 0.000, 0.000, 0.000, 12:44:35.808
4, -4594.06, -5330.13, -5154.90, -4726.81, 0.000, 0.000, 0.000, 12:44:35.809
5, -4593.75, -5304.46, -5183.36, -4669.51, 0.000, 0.000, 0.000, 12:44:35.809
6, -4644.13, -5336.65, -5242.34, -4598.46, 0.000, 0.000, 0.000, 12:44:35.809
7, -4608.50, -5310.47, -5189.68, -4645.65, 0.000, 0.000, 0.000, 12:44:35.823
8, -4588.08, -5312.66, -5161.87, -4729.37, 0.000, 0.000, 0.000, 12:44:35.823
9, -4595.18, -5313.34, -5187.67, -4681.29, 0.000, 0.000, 0.000, 12:44:35.838
10, -4629.70, -5316.56, -5238.67, -4580.53, 0.000, 0.000, 0.000, 12:44:35.838
11, -4626.73, -5346.42, -5208.77, -4678.79, 0.000, 0.000, 0.000, 12:44:35.839
12, -4584.12, -5316.56, -5140.46, -4733.64, 0.000, 0.000, 0.000, 12:44:35.839
13, -4590.62, -5282.70, -5160.15, -4672.15, 0.000, 0.000, 0.000, 12:44:35.854
14, -4628.57, -5311.91, -5232.32, -4576.39, 0.000, 0.000, 0.000, 12:44:35.854
15, -4614.46, -5333.04, -5198.85, -4647.54, 0.000, 0.000, 0.000, 12:44:35.869
16, -4586.21, -5314.77, -5162.08, -4729.97, 0.000, 0.000, 0.000, 12:44:35.869
17, -4589.81, -5303.91, -5165.98, -4671.91, 0.000, 0.000, 0.000, 12:44:35.870
18, -4645.73, -5318.89, -5230.56, -4589.82, 0.000, 0.000, 0.000, 12:44:35.870
19, -4615.90, -5313.64, -5191.06, -4658.59, 0.000, 0.000, 0.000, 12:44:35.883
20, -4585.64, -5307.88, -5175.27, -4729.14, 0.000, 0.000, 0.000, 12:44:35.884
21, -4597.12, -5311.04, -5163.50, -4683.39, 0.000, 0.000, 0.000, 12:44:35.899
22, -4638.16, -5319.86, -5229.72, -4599.51, 0.000, 0.000, 0.000, 12:44:35.899
23, -4631.85, -5361.48, -5229.81, -4667.76, 0.000, 0.000, 0.000, 12:44:35.899
24, -4594.22, -5343.32, -5169.99, -4721.90, 0.000, 0.000, 0.000, 12:44:35.899
25, -4580.44, -5269.36, -5143.61, -4651.06, 0.000, 0.000, 0.000, 12:44:35.913
26, -4632.63, -5295.22, -5204.04, -4595.45, 0.000, 0.000, 0.000, 12:44:35.913
27, -4622.50, -5322.31, -5190.55, -4659.48, 0.000, 0.000, 0.000, 12:44:35.929
28, -4579.58, -5317.58, -5146.99, -4723.42, 0.000, 0.000, 0.000, 12:44:35.929
29, -4586.66, -5304.56, -5211.35, -4674.49, 0.000, 0.000, 0.000, 12:44:35.930
30, -4643.35, -5332.69, -5212.99, -4609.26, 0.000, 0.000, 0.000, 12:44:35.930
31, -4620.41, -5323.32, -5178.76, -4672.89, 0.000, 0.000, 0.000, 12:44:35.944
32, -4577.72, -5298.00, -5150.58, -4711.91, 0.000, 0.000, 0.000, 12:44:35.944
33, -4599.18, -5299.31, -5162.08, -4668.39, 0.000, 0.000, 0.000, 12:44:35.959
34, -4648.38, -5328.54, -5227.62, -4611.78, 0.000, 0.000, 0.000, 12:44:35.959
35, -4637.48, -5340.31, -5193.89, -4674.07, 0.000, 0.000, 0.000, 12:44:35.959
36, -4580.00, -5308.28, -5150.34, -4732.61, 0.000, 0.000, 0.000, 12:44:35.959
37, -4595.25, -5297.33, -5179.96, -4691.18, 0.000, 0.000, 0.000, 12:44:35.974
38, -4647.54, -5327.81, -5245.03, -4603.67, 0.000, 0.000, 0.000, 12:44:35.974
39, -4624.58, -5363.69, -5244.11, -4642.32, 0.000, 0.000, 0.000, 12:44:35.988
40, -4589.33, -5322.78, -5143.86, -4734.61, 0.000, 0.000, 0.000, 12:44:35.988
41, -4619.22, -5331.55, -5169.84, -4675.95, 0.000, 0.000, 0.000, 12:44:35.989
42, -4652.67, -5349.85, -5212.53, -4615.82, 0.000, 0.000, 0.000, 12:44:35.989
43, -4627.57, -5325.30, -5184.83, -4666.97, 0.000, 0.000, 0.000, 12:44:36.003
44, -4586.10, -5304.39, -5135.97, -4734.14, 0.000, 0.000, 0.000, 12:44:36.005
45, -4602.02, -5307.71, -5170.51, -4688.03, 0.000, 0.000, 0.000, 12:44:36.018
46, -4666.04, -5356.63, -5257.89, -4609.10, 0.000, 0.000, 0.000, 12:44:36.018
47, -4629.89, -5333.61, -5200.25, -4660.05, 0.000, 0.000, 0.000, 12:44:36.019
48, -4585.84, -5297.26, -5131.56, -4720.64, 0.000, 0.000, 0.000, 12:44:36.019
49, -4605.14, -5303.42, -5197.78, -4680.54, 0.000, 0.000, 0.000, 12:44:36.040
50, -4656.45, -5325.85, -5224.10, -4597.92, 0.000, 0.000, 0.000, 12:44:36.040
51, -4624.12, -5331.20, -5192.14, -4672.88, 0.000, 0.000, 0.000, 12:44:36.049
52, -4600.51, -5335.89, -5157.21, -4726.94, 0.000, 0.000, 0.000, 12:44:36.049
53, -4596.93, -5310.37, -5180.32, -4684.00, 0.000, 0.000, 0.000, 12:44:36.049
54, -4636.02, -5347.16, -5232.98, -4599.74, 0.000, 0.000, 0.000, 12:44:36.049
55, -4625.76, -5344.88, -5202.55, -4661.93, 0.000, 0.000, 0.000, 12:44:36.063
56, -4571.83, -5291.92, -5136.69, -4723.49, 0.000, 0.000, 0.000, 12:44:36.063
57, -4572.29, -5272.53, -5171.57, -4656.10, 0.000, 0.000, 0.000, 12:44:36.079
58, -4640.61, -5332.29, -5227.07, -4600.39, 0.000, 0.000, 0.000, 12:44:36.079
59, -4609.48, -5329.90, -5184.23, -4659.95, 0.000, 0.000, 0.000, 12:44:36.079
60, -4574.30, -5317.08, -5143.21, -4732.20, 0.000, 0.000, 0.000, 12:44:36.079
61, -4593.00, -5290.92, -5169.08, -4699.02, 0.000, 0.000, 0.000, 12:44:36.094
62, -4635.10, -5325.56, -5216.75, -4599.41, 0.000, 0.000, 0.000, 12:44:36.094
63, -4617.00, -5330.70, -5188.21, -4659.73, 0.000, 0.000, 0.000, 12:44:36.109
64, -4582.99, -5328.46, -5163.61, -4736.53, 0.000, 0.000, 0.000, 12:44:36.109
65, -4606.30, -5308.00, -5177.88, -4684.98, 0.000, 0.000, 0.000, 12:44:36.109
66, -4656.98, -5328.02, -5232.91, -4596.98, 0.000, 0.000, 0.000, 12:44:36.109
67, -4601.78, -5297.52, -5168.35, -4641.38, 0.000, 0.000, 0.000, 12:44:36.124
68, -4565.48, -5297.97, -5132.09, -4725.69, 0.000, 0.000, 0.000, 12:44:36.124
69, -4582.77, -5302.93, -5164.82, -4682.36, 0.000, 0.000, 0.000, 12:44:36.138
70, -4627.30, -5318.12, -5217.40, -4610.06, 0.000, 0.000, 0.000, 12:44:36.139
71, -4621.58, -5335.83, -5210.89, -4663.99, 0.000, 0.000, 0.000, 12:44:36.139
72, -4599.66, -5324.76, -5165.78, -4739.50, 0.000, 0.000, 0.000, 12:44:36.139
73, -4600.54, -5282.41, -5157.63, -4686.01, 0.000, 0.000, 0.000, 12:44:36.153
74, -4641.32, -5312.67, -5219.46, -4587.14, 0.000, 0.000, 0.000, 12:44:36.153
75, -4624.50, -5324.02, -5203.72, -4667.21, 0.000, 0.000, 0.000, 12:44:36.168
76, -4578.33, -5309.84, -5135.43, -4724.42, 0.000, 0.000, 0.000, 12:44:36.168
77, -4599.67, -5308.88, -5168.68, -4687.89, 0.000, 0.000, 0.000, 12:44:36.169
78, -4632.94, -5306.64, -5220.46, -4599.37, 0.000, 0.000, 0.000, 12:44:36.169
79, -4626.82, -5328.38, -5198.60, -4677.91, 0.000, 0.000, 0.000, 12:44:36.184
80, -4584.30, -5332.94, -5157.32, -4739.61, 0.000, 0.000, 0.000, 12:44:36.184
81, -4590.16, -5299.39, -5188.06, -4691.26, 0.000, 0.000, 0.000, 12:44:36.199
82, -4648.49, -5347.99, -5226.97, -4599.92, 0.000, 0.000, 0.000, 12:44:36.199
83, -4629.84, -5332.26, -5205.48, -4651.01, 0.000, 0.000, 0.000, 12:44:36.199
84, -4572.32, -5302.15, -5140.21, -4710.92, 0.000, 0.000, 0.000, 12:44:36.199
85, -4583.60, -5298.66, -5170.73, -4679.83, 0.000, 0.000, 0.000, 12:44:36.213
86, -4643.44, -5332.76, -5230.59, -4607.12, 0.000, 0.000, 0.000, 12:44:36.214
87, -4620.38, -5340.58, -5198.92, -4657.70, 0.000, 0.000, 0.000, 12:44:36.230
88, -4579.32, -5327.69, -5119.58, -4733.40, 0.000, 0.000, 0.000, 12:44:36.230
89, -4594.27, -5304.90, -5172.61, -4689.27, 0.000, 0.000, 0.000, 12:44:36.230
90, -4648.28, -5331.19, -5216.20, -4599.82, 0.000, 0.000, 0.000, 12:44:36.230
91, -4625.76, -5311.34, -5162.19, -4649.68, 0.000, 0.000, 0.000, 12:44:36.244
92, -4594.19, -5314.58, -5135.34, -4726.48, 0.000, 0.000, 0.000, 12:44:36.244
93, -4591.71, -5287.11, -5156.18, -4653.74, 0.000, 0.000, 0.000, 12:44:36.259
94, -4641.12, -5327.50, -5217.44, -4610.87, 0.000, 0.000, 0.000, 12:44:36.259
95, -4622.85, -5336.40, -5206.70, -4668.41, 0.000, 0.000, 0.000, 12:44:36.259
96, -4574.50, -5308.52, -5117.39, -4718.13, 0.000, 0.000, 0.000, 12:44:36.259
97, -4593.57, -5309.76, -5170.58, -4669.87, 0.000, 0.000, 0.000, 12:44:36.273
98, -4650.74, -5336.04, -5225.62, -4602.90, 0.000, 0.000, 0.000, 12:44:36.273
99, -4611.01, -5323.84, -5153.98, -4644.18, 0.000, 0.000, 0.000, 12:44:36.289
100, -4572.26, -5302.29, -5122.13, -4718.04, 0.000, 0.000, 0.000, 12:44:36.289
101, -4596.17, -5294.51, -5161.21, -4663.71, 0.000, 0.000, 0.000, 12:44:36.289
102, -4639.19, -5318.18, -5214.21, -4599.29, 0.000, 0.000, 0.000, 12:44:36.289
103, -4612.12, -5318.00, -5185.40, -4655.44, 0.000, 0.000, 0.000, 12:44:36.303
104, -4571.48, -5308.04, -5132.63, -4714.49, 0.000, 0.000, 0.000, 12:44:36.303
105, -4584.14, -5291.93, -5175.99, -4662.03, 0.000, 0.000, 0.000, 12:44:36.319
106, -4635.35, -5323.39, -5225.50, -4594.04, 0.000, 0.000, 0.000, 12:44:36.319
107, -4606.31, -5317.20, -5176.60, -4662.02, 0.000, 0.000, 0.000, 12:44:36.319
108, -4577.76, -5317.48, -5133.23, -4722.13, 0.000, 0.000, 0.000, 12:44:36.319
109, -4590.52, -5289.87, -5161.35, -4666.83, 0.000, 0.000, 0.000, 12:44:36.333
110, -4636.81, -5321.42, -5238.98, -4607.79, 0.000, 0.000, 0.000, 12:44:36.334
111, -4613.07, -5325.84, -5185.59, -4652.47, 0.000, 0.000, 0.000, 12:44:36.349
112, -4578.26, -5313.75, -5118.17, -4734.75, 0.000, 0.000, 0.000, 12:44:36.349
113, -4586.27, -5304.53, -5158.03, -4666.28, 0.000, 0.000, 0.000, 12:44:36.349
114, -4641.01, -5331.89, -5238.13, -4615.86, 0.000, 0.000, 0.000, 12:44:36.349
115, -4603.81, -5331.32, -5198.73, -4659.47, 0.000, 0.000, 0.000, 12:44:36.363
116, -4576.50, -5328.82, -5159.75, -4726.51, 0.000, 0.000, 0.000, 12:44:36.364
117, -4581.69, -5297.18, -5131.59, -4666.46, 0.000, 0.000, 0.000, 12:44:36.379
118, -4635.35, -5313.67, -5210.80, -4582.61, 0.000, 0.000, 0.000, 12:44:36.379
119, -4605.46, -5315.72, -5160.41, -4649.61, 0.000, 0.000, 0.000, 12:44:36.386
120, -4578.69, -5331.97, -5137.34, -4734.48, 0.000, 0.000, 0.000, 12:44:36.386
121, -4600.56, -5312.70, -5170.90, -4668.45, 0.000, 0.000, 0.000, 12:44:36.394
122, -4630.62, -5312.65, -5221.53, -4593.29, 0.000, 0.000, 0.000, 12:44:36.394
123, -4618.56, -5328.85, -5171.55, -4663.17, 0.000, 0.000, 0.000, 12:44:36.409
124, -4565.68, -5311.92, -5126.45, -4710.69, 0.000, 0.000, 0.000, 12:44:36.409
125, -4587.12, -5300.85, -5168.67, -4661.34, 0.000, 0.000, 0.000, 12:44:36.409
126, -4627.21, -5323.08, -5215.82, -4599.66, 0.000, 0.000, 0.000, 12:44:36.409
127, -4614.91, -5321.41, -5176.72, -4656.52, 0.000, 0.000, 0.000, 12:44:36.423
128, -4580.11, -5326.60, -5140.51, -4724.96, 0.000, 0.000, 0.000, 12:44:36.423
129, -4592.44, -5302.67, -5175.27, -4663.62, 0.000, 0.000, 0.000, 12:44:36.438
130, -4634.73, -5329.54, -5233.37, -4603.94, 0.000, 0.000, 0.000, 12:44:36.438
131, -4612.04, -5341.82, -5211.50, -4665.89, 0.000, 0.000, 0.000, 12:44:36.439
132, -4573.69, -5307.60, -5155.69, -4736.78, 0.000, 0.000, 0.000, 12:44:36.439
133, -4578.76, -5290.78, -5119.78, -4661.02, 0.000, 0.000, 0.000, 12:44:36.454
134, -4630.96, -5329.42, -5206.19, -4594.04, 0.000, 0.000, 0.000, 12:44:36.454
135, -4611.21, -5337.03, -5175.37, -4656.98, 0.000, 0.000, 0.000, 12:44:36.469
136, -4580.31, -5323.15, -5143.84, -4735.83, 0.000, 0.000, 0.000, 12:44:36.469
137, -4591.88, -5307.18, -5164.03, -4648.09, 0.000, 0.000, 0.000, 12:44:36.469
138, -4643.48, -5358.07, -5254.30, -4596.95, 0.000, 0.000, 0.000, 12:44:36.469
139, -4615.99, -5349.42, -5204.38, -4668.17, 0.000, 0.000, 0.000, 12:44:36.483
140, -4575.31, -5306.73, -5120.39, -4726.00, 0.000, 0.000, 0.000, 12:44:36.484
141, -4589.43, -5310.17, -5173.23, -4646.75, 0.000, 0.000, 0.000, 12:44:36.499
142, -4634.25, -5329.70, -5217.80, -4594.33, 0.000, 0.000, 0.000, 12:44:36.499
143, -4613.05, -5328.66, -5175.85, -4673.86, 0.000, 0.000, 0.000, 12:44:36.499
144, -4577.16, -5319.03, -5128.48, -4737.06, 0.000, 0.000, 0.000, 12:44:36.499
145, -4585.06, -5290.47, -5150.23, -4653.02, 0.000, 0.000, 0.000, 12:44:36.513
146, -4645.13, -5339.32, -5233.19, -4597.52, 0.000, 0.000, 0.000, 12:44:36.513
147, -4617.25, -5341.80, -5229.74, -4669.35, 0.000, 0.000, 0.000, 12:44:36.529
148, -4567.27, -5318.82, -5131.22, -4713.13, 0.000, 0.000, 0.000, 12:44:36.530
149, -4595.58, -5311.04, -5165.64, -4671.13, 0.000, 0.000, 0.000, 12:44:36.530
150, -4633.48, -5321.05, -5208.61, -4595.56, 0.000, 0.000, 0.000, 12:44:36.530
151, -4613.89, -5338.04, -5195.09, -4662.95, 0.000, 0.000, 0.000, 12:44:36.544
152, -4571.92, -5309.50, -5136.83, -4728.17, 0.000, 0.000, 0.000, 12:44:36.544
153, -4587.37, -5307.65, -5171.89, -4663.04, 0.000, 0.000, 0.000, 12:44:36.558
154, -4638.25, -5344.51, -5236.32, -4604.51, 0.000, 0.000, 0.000, 12:44:36.558
155, -4617.23, -5332.48, -5181.29, -4678.98, 0.000, 0.000, 0.000, 12:44:36.559
156, -4580.84, -5318.78, -5142.76, -4724.16, 0.000, 0.000, 0.000, 12:44:36.559
157, -4595.00, -5297.76, -5158.78, -4677.31, 0.000, 0.000, 0.000, 12:44:36.573
158, -4647.59, -5349.61, -5255.05, -4610.34, 0.000, 0.000, 0.000, 12:44:36.574
159, -4625.75, -5354.10, -5189.15, -4655.66, 0.000, 0.000, 0.000, 12:44:36.588
160, -4583.54, -5339.40, -5150.77, -4729.12, 0.000, 0.000, 0.000, 12:44:36.588
161, -4602.78, -5319.01, -5178.30, -4668.05, 0.000, 0.000, 0.000, 12:44:36.589
162, -4643.98, -5330.92, -5231.68, -4594.45, 0.000, 0.000, 0.000, 12:44:36.589
163, -4619.44, -5349.73, -5202.12, -4669.49, 0.000, 0.000, 0.000, 12:44:36.603
164, -4580.64, -5323.12, -5135.21, -4731.68, 0.000, 0.000, 0.000, 12:44:36.604
165, -4598.00, -5316.01, -5152.09, -4670.03, 0.000, 0.000, 0.000, 12:44:36.618
166, -4645.58, -5350.81, -5211.57, -4604.14, 0.000, 0.000, 0.000, 12:44:36.620
167, -4619.68, -5341.93, -5192.54, -4670.63, 0.000, 0.000, 0.000, 12:44:36.620
168, -4584.47, -5320.85, -5165.12, -4717.53, 0.000, 0.000, 0.000, 12:44:36.620
169, -4598.48, -5299.38, -5175.31, -4667.80, 0.000, 0.000, 0.000, 12:44:36.634
170, -4631.93, -5324.15, -5224.01, -4598.92, 0.000, 0.000, 0.000, 12:44:36.634
171, -4628.10, -5334.83, -5184.01, -4665.00, 0.000, 0.000, 0.000, 12:44:36.649
172, -4583.11, -5319.52, -5123.40, -4725.86, 0.000, 0.000, 0.000, 12:44:36.649
173, -4598.79, -5306.68, -5165.19, -4657.68, 0.000, 0.000, 0.000, 12:44:36.649
174, -4648.33, -5335.78, -5234.18, -4603.44, 0.000, 0.000, 0.000, 12:44:36.649
175, -4632.97, -5343.75, -5179.45, -4676.90, 0.000, 0.000, 0.000, 12:44:36.663
176, -4585.24, -5316.27, -5127.42, -4726.05, 0.000, 0.000, 0.000, 12:44:36.664
177, -4593.35, -5308.59, -5161.57, -4665.13, 0.000, 0.000, 0.000, 12:44:36.679
178, -4636.79, -5335.16, -5238.87, -4601.99, 0.000, 0.000, 0.000, 12:44:36.679
179, -4619.09, -5338.25, -5190.20, -4674.01, 0.000, 0.000, 0.000, 12:44:36.679
180, -4579.25, -5313.42, -5126.20, -4725.42, 0.000, 0.000, 0.000, 12:44:36.679
181, -4598.46, -5292.93, -5153.79, -4645.42, 0.000, 0.000, 0.000, 12:44:36.694
182, -4645.74, -5328.31, -5218.18, -4598.18, 0.000, 0.000, 0.000, 12:44:36.694
183, -4623.17, -5340.70, -5199.09, -4657.37, 0.000, 0.000, 0.000, 12:44:36.708
184, -4583.34, -5309.78, -5140.39, -4732.36, 0.000, 0.000, 0.000, 12:44:36.709
185, -4591.61, -5299.22, -5162.91, -4661.97, 0.000, 0.000, 0.000, 12:44:36.709
186, -4648.02, -5338.47, -5227.79, -4616.06, 0.000, 0.000, 0.000, 12:44:36.709
187, -4625.11, -5346.21, -5188.10, -4682.66, 0.000, 0.000, 0.000, 12:44:36.723
188, -4581.24, -5315.08, -5127.45, -4735.51, 0.000, 0.000, 0.000, 12:44:36.723
189, -4590.76, -5300.82, -5178.07, -4650.70, 0.000, 0.000, 0.000, 12:44:36.739
190, -4648.97, -5333.84, -5232.60, -4598.49, 0.000, 0.000, 0.000, 12:44:36.739
191, -4617.64, -5341.18, -5188.60, -4670.10, 0.000, 0.000, 0.000, 12:44:36.739
192, -4592.57, -5328.79, -5143.28, -4733.65, 0.000, 0.000, 0.000, 12:44:36.739
193, -4600.91, -5298.42, -5168.40, -4665.10, 0.000, 0.000, 0.000, 12:44:36.754
194, -4644.16, -5322.93, -5208.69, -4603.55, 0.000, 0.000, 0.000, 12:44:36.754
195, -4623.19, -5335.01, -5182.01, -4672.76, 0.000, 0.000, 0.000, 12:44:36.768
196, -4588.78, -5321.32, -5150.67, -4738.89, 0.000, 0.000, 0.000, 12:44:36.768
197, -4597.29, -5301.11, -5188.55, -4658.19, 0.000, 0.000, 0.000, 12:44:36.769
198, -4646.98, -5335.48, -5235.37, -4614.49, 0.000, 0.000, 0.000, 12:44:36.769
199, -4616.56, -5327.44, -5194.15, -4680.29, 0.000, 0.000, 0.000, 12:44:36.783
200, -4584.11, -5322.59, -5122.05, -4740.18, 0.000, 0.000, 0.000, 12:44:36.783
0, -4595.34, -5290.81, -5153.40, -4657.74, 0.000, 0.000, 0.000, 12:44:36.784
1, -4642.71, -5327.73, -5213.44, -4602.68, 0.000, 0.000, 0.000, 12:44:36.805
2, -4603.98, -5316.55, -5176.86, -4658.37, 0.000, 0.000, 0.000, 12:44:36.805
3, -4579.17, -5314.96, -5137.02, -4724.87, 0.000, 0.000, 0.000, 12:44:36.814
4, -4593.91, -5291.83, -5168.29, -4663.54, 0.000, 0.000, 0.000, 12:44:36.814
5, -4644.30, -5334.77, -5233.58, -4612.45, 0.000, 0.000, 0.000, 12:44:36.815
6, -4626.97, -5348.05, -5192.24, -4661.27, 0.000, 0.000, 0.000, 12:44:36.815
7, -4590.82, -5334.19, -5131.90, -4729.24, 0.000, 0.000, 0.000, 12:44:36.829
8, -4603.34, -5321.40, -5191.06, -4660.91, 0.000, 0.000, 0.000, 12:44:36.829
9, -4648.31, -5348.04, -5261.50, -4610.34, 0.000, 0.000, 0.000, 12:44:36.844
10, -4621.59, -5350.13, -5186.91, -4666.97, 0.000, 0.000, 0.000, 12:44:36.844
11, -4585.04, -5319.74, -5125.60, -4732.99, 0.000, 0.000, 0.000, 12:44:36.845
12, -4601.69, -5305.15, -5173.35, -4668.16, 0.000, 0.000, 0.000, 12:44:36.845
13, -4659.97, -5340.73, -5232.39, -4609.49, 0.000, 0.000, 0.000, 12:44:36.859
14, -4612.77, -5325.71, -5184.51, -4662.54, 0.000, 0.000, 0.000, 12:44:36.859
15, -4576.57, -5316.05, -5153.47, -4731.66, 0.000, 0.000, 0.000, 12:44:36.873
16, -4594.75, -5305.33, -5190.49, -4664.54, 0.000, 0.000, 0.000, 12:44:36.873
17, -4639.35, -5332.56, -5203.74, -4602.44, 0.000, 0.000, 0.000, 12:44:36.874
18, -4620.70, -5329.88, -5173.16, -4668.60, 0.000, 0.000, 0.000, 12:44:36.874
19, -4575.88, -5314.06, -5124.08, -4726.68, 0.000, 0.000, 0.000, 12:44:36.888
20, -4587.80, -5292.02, -5165.58, -4672.77, 0.000, 0.000, 0.000, 12:44:36.888
21, -4638.89, -5331.82, -5232.60, -4603.84, 0.000, 0.000, 0.000, 12:44:36.904
22, -4615.66, -5337.10, -5194.89, -4677.41, 0.000, 0.000, 0.000, 12:44:36.904
23, -4584.74, -5324.82, -5133.84, -4730.93, 0.000, 0.000, 0.000, 12:44:36.904
24, -4591.76, -5305.17, -5176.19, -4661.06, 0.000, 0.000, 0.000, 12:44:36.904
25, -4636.71, -5322.06, -5227.14, -4597.69, 0.000, 0.000, 0.000, 12:44:36.919
26, -4609.01, -5317.34, -5174.22, -4676.03, 0.000, 0.000, 0.000, 12:44:36.919
27, -4583.11, -5306.89, -5131.31, -4731.97, 0.000, 0.000, 0.000, 12:44:36.935
28, -4602.09, -5301.96, -5169.00, -4673.16, 0.000, 0.000, 0.000, 12:44:36.935
29, -4632.03, -5328.00, -5216.21, -4598.82, 0.000, 0.000, 0.000, 12:44:36.935
30, -4608.21, -5336.55, -5186.09, -4668.73, 0.000, 0.000, 0.000, 12:44:36.935
31, -4572.99, -5314.08, -5127.82, -4725.95, 0.000, 0.000, 0.000, 12:44:36.949
32, -4591.27, -5298.74, -5177.13, -4667.99, 0.000, 0.000, 0.000, 12:44:36.949
33, -4643.76, -5333.82, -5242.10, -4619.98, 0.000, 0.000, 0.000, 12:44:36.964
34, -4609.74, -5326.01, -5168.00, -4662.59, 0.000, 0.000, 0.000, 12:44:36.964
35, -4577.48, -5316.15, -5126.61, -4732.61, 0.000, 0.000, 0.000, 12:44:36.965
36, -4599.66, -5304.73, -5182.19, -4661.93, 0.000, 0.000, 0.000, 12:44:36.965
37, -4631.64, -5322.15, -5221.84, -4601.02, 0.000, 0.000, 0.000, 12:44:36.979
38, -4609.38, -5316.55, -5182.38, -4658.59, 0.000, 0.000, 0.000, 12:44:36.979
39, -4575.35, -5299.98, -5107.31, -4725.77, 0.000, 0.000, 0.000, 12:44:36.993
40, -4593.03, -5286.67, -5164.23, -4655.76, 0.000, 0.000, 0.000, 12:44:36.994
41, -4635.46, -5331.07, -5226.96, -4597.82, 0.000, 0.000, 0.000, 12:44:36.994
42, -4623.62, -5340.69, -5211.54, -4683.71, 0.000, 0.000, 0.000, 12:44:36.994
43, -4583.92, -5326.45, -5140.84, -4737.41, 0.000, 0.000, 0.000, 12:44:37.009
44, -4581.77, -5292.04, -5170.24, -4642.60, 0.000, 0.000, 0.000, 12:44:37.009
45, -4640.54, -5336.30, -5243.64, -4615.72, 0.000, 0.000, 0.000, 12:44:37.023
46, -4612.64, -5333.25, -5177.20, -4677.62, 0.000, 0.000, 0.000, 12:44:37.023
47, -4577.16, -5323.33, -5130.86, -4732.33, 0.000, 0.000, 0.000, 12:44:37.038
48, -4587.63, -5295.12, -5177.31, -4656.04, 0.000, 0.000, 0.000, 12:44:37.039
49, -4626.17, -5305.70, -5207.26, -4584.22, 0.000, 0.000, 0.000, 12:44:37.039
50, -4607.45, -5326.38, -5167.60, -4662.80, 0.000, 0.000, 0.000, 12:44:37.039
51, -4570.83, -5313.96, -5124.40, -4729.72, 0.000, 0.000, 0.000, 12:44:37.054
52, -4593.50, -5294.90, -5156.27, -4657.55, 0.000, 0.000, 0.000, 12:44:37.054
53, -4630.28, -5323.78, -5223.71, -4606.61, 0.000, 0.000, 0.000, 12:44:37.054
54, -4610.59, -5329.21, -5177.03, -4669.32, 0.000, 0.000, 0.000, 12:44:37.054
55, -4575.11, -5301.84, -5130.11, -4723.93, 0.000, 0.000, 0.000, 12:44:37.069
56, -4594.30, -5301.74, -5167.28, -4664.71, 0.000, 0.000, 0.000, 12:44:37.069
57, -4633.29, -5337.36, -5224.95, -4606.73, 0.000, 0.000, 0.000, 12:44:37.084
58, -4617.03, -5333.10, -5182.25, -4659.47, 0.000, 0.000, 0.000, 12:44:37.084
59, -4578.87, -5307.64, -5132.74, -4728.92, 0.000, 0.000, 0.000, 12:44:37.084
60, -4587.73, -5278.00, -5150.65, -4653.03, 0.000, 0.000, 0.000, 12:44:37.085
61, -4638.11, -5328.61, -5227.01, -4614.00, 0.000, 0.000, 0.000, 12:44:37.099
62, -4622.08, -5332.77, -5196.06, -4664.47, 0.000, 0.000, 0.000, 12:44:37.099
63, -4576.47, -5313.31, -5134.83, -4732.04, 0.000, 0.000, 0.000, 12:44:37.114
64, -4587.41, -5299.28, -5173.00, -4666.25, 0.000, 0.000, 0.000, 12:44:37.114
65, -4640.07, -5335.48, -5253.45, -4616.65, 0.000, 0.000, 0.000, 12:44:37.116
66, -4615.61, -5335.38, -5177.34, -4667.71, 0.000, 0.000, 0.000, 12:44:37.116
67, -4579.61, -5317.72, -5107.87, -4723.38, 0.000, 0.000, 0.000, 12:44:37.129
68, -4597.72, -5288.18, -5152.94, -4655.78, 0.000, 0.000, 0.000, 12:44:37.129
69, -4649.11, -5331.18, -5237.21, -4601.66, 0.000, 0.000, 0.000, 12:44:37.144
70, -4613.22, -5326.98, -5176.55, -4651.40, 0.000, 0.000, 0.000, 12:44:37.144
71, -4571.03, -5297.08, -5115.36, -4724.30, 0.000, 0.000, 0.000, 12:44:37.144
72, -4610.81, -5301.25, -5188.35, -4679.68, 0.000, 0.000, 0.000, 12:44:37.144
73, -4647.77, -5336.61, -5241.36, -4629.25, 0.000, 0.000, 0.000, 12:44:37.159
74, -4611.91, -5321.92, -5185.70, -4668.20, 0.000, 0.000, 0.000, 12:44:37.159
75, -4575.30, -5317.52, -5117.41, -4724.72, 0.000, 0.000, 0.000, 12:44:37.174
76, -4592.46, -5315.46, -5160.09, -4649.76, 0.000, 0.000, 0.000, 12:44:37.174
77, -4640.48, -5339.94, -5211.38, -4621.11, 0.000, 0.000, 0.000, 12:44:37.174
78, -4618.41, -5336.82, -5187.28, -4673.40, 0.000, 0.000, 0.000, 12:44:37.175
79, -4578.25, -5316.75, -5136.37, -4730.55, 0.000, 0.000, 0.000, 12:44:37.189
80, -4601.13, -5298.95, -5177.70, -4653.05, 0.000, 0.000, 0.000, 12:44:37.189
81, -4642.41, -5335.52, -5235.44, -4622.47, 0.000, 0.000, 0.000, 12:44:37.204
82, -4613.75, -5318.04, -5176.72, -4678.45, 0.000, 0.000, 0.000, 12:44:37.204
83, -4581.37, -5319.53, -5136.89, -4735.75, 0.000, 0.000, 0.000, 12:44:37.204
84, -4600.57, -5307.79, -5185.24, -4659.52, 0.000, 0.000, 0.000, 12:44:37.204
85, -4643.87, -5324.82, -5225.64, -4606.48, 0.000, 0.000, 0.000, 12:44:37.218
86, -4614.21, -5334.73, -5189.04, -4669.96, 0.000, 0.000, 0.000, 12:44:37.218
87, -4585.74, -5308.13, -5125.85, -4742.41, 0.000, 0.000, 0.000, 12:44:37.234
88, -4611.50, -5311.05, -5170.96, -4659.91, 0.000, 0.000, 0.000, 12:44:37.234
89, -4650.17, -5334.56, -5207.78, -4613.81, 0.000, 0.000, 0.000, 12:44:37.234
90, -4619.38, -5325.63, -5176.06, -4679.97, 0.000, 0.000, 0.000, 12:44:37.234
91, -4581.21, -5314.67, -5138.48, -4727.64, 0.000, 0.000, 0.000, 12:44:37.249
92, -4614.05, -5305.85, -5182.41, -4662.97, 0.000, 0.000, 0.000, 12:44:37.249
93, -4645.47, -5327.19, -5173.23, -4599.35, 0.000, 0.000, 0.000, 12:44:37.264
94, -4616.20, -5315.98, -5049.11, -4681.60, 0.000, 0.000, 0.000, 12:44:37.264
95, -4580.24, -5325.47, -4955.29, -4731.60, 0.000, 0.000, 0.000, 12:44:37.265
96, -4600.71, -5299.32, -5011.42, -4652.25, 0.000, 0.000, 0.000, 12:44:37.265
97, -4646.19, -5340.84, -5080.06, -4591.11, 0.000, 0.000, 0.000, 12:44:37.278
98, -4627.77, -5341.60, -5031.20, -4677.31, 0.000, 0.000, 0.000, 12:44:37.278
99, -4591.99, -5325.14, -4993.02, -4738.35, 0.000, 0.000, 0.000, 12:44:37.294
100, -4607.85, -5310.76, -5047.12, -4662.81, 0.000, 0.000, 0.000, 12:44:37.294
101, -4654.88, -5331.50, -5100.26, -4602.08, 0.000, 0.000, 0.000, 12:44:37.295
102, -4615.01, -5328.50, -5055.86, -4659.78, 0.000, 0.000, 0.000, 12:44:37.295
103, -4579.57, -5313.54, -5021.80, -4715.81, 0.000, 0.000, 0.000, 12:44:37.309
104, -4611.42, -5314.47, -5096.69, -4649.79, 0.000, 0.000, 0.000, 12:44:37.309
105, -4654.81, -5355.50, -5166.14, -4614.81, 0.000, 0.000, 0.000, 12:44:37.324
106, -4621.00, -5341.12, -5104.55, -4672.21, 0.000, 0.000, 0.000, 12:44:37.324
107, -4600.24, -5338.04, -5051.10, -4733.30, 0.000, 0.000, 0.000, 12:44:37.324
108, -4617.98, -5311.29, -5093.55, -4652.71, 0.000, 0.000, 0.000, 12:44:37.324
109, -4651.24, -5331.26, -5157.87, -4615.97, 0.000, 0.000, 0.000, 12:44:37.339
110, -4626.31, -5332.91, -5124.92, -4680.66, 0.000, 0.000, 0.000, 12:44:37.339
111, -4582.07, -5309.56, -5087.75, -4724.59, 0.000, 0.000, 0.000, 12:44:37.354
112, -4593.04, -5299.75, -5135.56, -4641.46, 0.000, 0.000, 0.000, 12:44:37.354
113, -4638.35, -5332.13, -5189.37, -4616.23, 0.000, 0.000, 0.000, 12:44:37.355
114, -4621.73, -5334.10, -5144.06, -4679.42, 0.000, 0.000, 0.000, 12:44:37.355
115, -4581.00, -5306.69, -5105.77, -4734.74, 0.000, 0.000, 0.000, 12:44:37.368
116, -4601.83, -5299.91, -5150.05, -4644.16, 0.000, 0.000, 0.000, 12:44:37.369
117, -4653.89, -5342.89, -5196.05, -4620.26, 0.000, 0.000, 0.000, 12:44:37.384
118, -4624.84, -5338.78, -5164.16, -4668.27, 0.000, 0.000, 0.000, 12:44:37.384
119, -4581.76, -5321.99, -5100.58, -4725.61, 0.000, 0.000, 0.000, 12:44:37.384
120, -4609.86, -5303.13, -5150.12, -4657.01, 0.000, 0.000, 0.000, 12:44:37.384
121, -4642.51, -5317.88, -5187.25, -4604.57, 0.000, 0.000, 0.000, 12:44:37.399
122, -4614.79, -5332.68, -5165.61, -4667.33, 0.000, 0.000, 0.000, 12:44:37.399
123, -4578.30, -5310.41, -5117.06, -4730.57, 0.000, 0.000, 0.000, 12:44:37.414
124, -4613.37, -5313.63, -5168.42, -4650.79, 0.000, 0.000, 0.000, 12:44:37.414
125, -4652.25, -5336.60, -5218.71, -4613.23, 0.000, 0.000, 0.000, 12:44:37.415
126, -4622.12, -5346.55, -5193.77, -4684.02, 0.000, 0.000, 0.000, 12:44:37.415
127, -4572.29, -5301.62, -5123.90, -4722.39, 0.000, 0.000, 0.000, 12:44:37.429
128, -4605.85, -5306.67, -5159.98, -4655.41, 0.000, 0.000, 0.000, 12:44:37.429
129, -4637.44, -5339.99, -5206.75, -4619.21, 0.000, 0.000, 0.000, 12:44:37.444
130, -4609.65, -5329.62, -5152.28, -4676.12, 0.000, 0.000, 0.000, 12:44:37.444
131, -4571.88, -5313.85, -5103.45, -4729.36, 0.000, 0.000, 0.000, 12:44:37.444
132, -4610.58, -5308.94, -5170.38, -4664.80, 0.000, 0.000, 0.000, 12:44:37.444
133, -4632.06, -5320.39, -5209.88, -4604.47, 0.000, 0.000, 0.000, 12:44:37.459
134, -4607.09, -5332.73, -5173.63, -4674.67, 0.000, 0.000, 0.000, 12:44:37.459
135, -4573.81, -5314.83, -5123.95, -4733.98, 0.000, 0.000, 0.000, 12:44:37.474
136, -4594.65, -5304.06, -5162.70, -4652.96, 0.000, 0.000, 0.000, 12:44:37.474
137, -4645.03, -5339.55, -5210.49, -4607.44, 0.000, 0.000, 0.000, 12:44:37.475
138, -4608.26, -5343.74, -5174.65, -4673.08, 0.000, 0.000, 0.000, 12:44:37.475
139, -4579.75, -5323.60, -5137.52, -4730.70, 0.000, 0.000, 0.000, 12:44:37.489
140, -4606.09, -5317.86, -5185.27, -4647.48, 0.000, 0.000, 0.000, 12:44:37.489
141, -4638.23, -5328.57, -5196.60, -4601.68, 0.000, 0.000, 0.000, 12:44:37.503
142, -4612.71, -5321.87, -5134.89, -4679.60, 0.000, 0.000, 0.000, 12:44:37.504
143, -4581.17, -5311.11, -5115.51, -4725.37, 0.000, 0.000, 0.000, 12:44:37.504
144, -4601.85, -5309.47, -5185.47, -4641.65, 0.000, 0.000, 0.000, 12:44:37.504
145, -4638.17, -5332.13, -5229.23, -4609.13, 0.000, 0.000, 0.000, 12:44:37.519
146, -4613.79, -5329.88, -5192.71, -4681.27, 0.000, 0.000, 0.000, 12:44:37.519
147, -4572.05, -5314.32, -5105.24, -4730.37, 0.000, 0.000, 0.000, 12:44:37.533
148, -4610.35, -5316.03, -5168.85, -4657.97, 0.000, 0.000, 0.000, 12:44:37.533
149, -4633.86, -5332.56, -5214.53, -4603.19, 0.000, 0.000, 0.000, 12:44:37.534
150, -4608.31, -5320.83, -5174.48, -4674.07, 0.000, 0.000, 0.000, 12:44:37.534
151, -4573.95, -5303.36, -5126.00, -4729.17, 0.000, 0.000, 0.000, 12:44:37.549
152, -4591.87, -5296.26, -5168.42, -4650.43, 0.000, 0.000, 0.000, 12:44:37.549
153, -4639.00, -5335.64, -5211.00, -4610.44, 0.000, 0.000, 0.000, 12:44:37.563
154, -4610.67, -5330.69, -5158.56, -4666.02, 0.000, 0.000, 0.000, 12:44:37.563
155, -4572.97, -5310.02, -5119.12, -4728.62, 0.000, 0.000, 0.000, 12:44:37.564
156, -4613.35, -5318.90, -5170.14, -4654.87, 0.000, 0.000, 0.000, 12:44:37.564
157, -4646.21, -5344.12, -5217.90, -4620.74, 0.000, 0.000, 0.000, 12:44:37.579
158, -4622.25, -5343.70, -5174.49, -4675.19, 0.000, 0.000, 0.000, 12:44:37.579
159, -4574.15, -5313.81, -5115.68, -4723.55, 0.000, 0.000, 0.000, 12:44:37.594
160, -4594.76, -5292.47, -5156.90, -4643.14, 0.000, 0.000, 0.000, 12:44:37.594
161, -4647.37, -5335.52, -5222.04, -4605.57, 0.000, 0.000, 0.000, 12:44:37.594
162, -4622.53, -5336.67, -5176.48, -4678.08, 0.000, 0.000, 0.000, 12:44:37.594
163, -4573.30, -5315.98, -5126.23, -4735.38, 0.000, 0.000, 0.000, 12:44:37.609
164, -4603.81, -5309.39, -5161.38, -4645.37, 0.000, 0.000, 0.000, 12:44:37.609
165, -4635.91, -5340.31, -5207.99, -4608.02, 0.000, 0.000, 0.000, 12:44:37.623
166, -4611.33, -5342.79, -5159.69, -4679.76, 0.000, 0.000, 0.000, 12:44:37.624
167, -4576.69, -5318.13, -5108.90, -4730.36, 0.000, 0.000, 0.000, 12:44:37.625
168, -4602.55, -5299.48, -5155.36, -4648.73, 0.000, 0.000, 0.000, 12:44:37.625
169, -4643.50, -5334.55, -5202.66, -4612.41, 0.000, 0.000, 0.000, 12:44:37.638
170, -4628.16, -5341.02, -5178.67, -4684.25, 0.000, 0.000, 0.000, 12:44:37.639
171, -4598.41, -5334.76, -5129.59, -4740.34, 0.000, 0.000, 0.000, 12:44:37.653
172, -4596.12, -5289.53, -5158.48, -4645.98, 0.000, 0.000, 0.000, 12:44:37.653
173, -4629.27, -5313.76, -5189.45, -4605.77, 0.000, 0.000, 0.000, 12:44:37.662
174, -4617.73, -5327.93, -5155.57, -4677.55, 0.000, 0.000, 0.000, 12:44:37.662
175, -4582.66, -5305.26, -5098.47, -4732.12, 0.000, 0.000, 0.000, 12:44:37.669
176, -4605.46, -5285.52, -5142.79, -4657.86, 0.000, 0.000, 0.000, 12:44:37.669
177, -4653.61, -5325.13, -5197.85, -4613.78, 0.000, 0.000, 0.000, 12:44:37.684
178, -4619.69, -5323.78, -5150.55, -4673.84, 0.000, 0.000, 0.000, 12:44:37.684
179, -4580.94, -5293.40, -5104.87, -4738.08, 0.000, 0.000, 0.000, 12:44:37.685
180, -4597.16, -5283.58, -5133.53, -4642.48, 0.000, 0.000, 0.000, 12:44:37.685
181, -4653.15, -5329.98, -5196.54, -4619.87, 0.000, 0.000, 0.000, 12:44:37.699
182, -4620.63, -5331.61, -5148.40, -4682.31, 0.000, 0.000, 0.000, 12:44:37.699
183, -4581.65, -5321.65, -5105.08, -4741.64, 0.000, 0.000, 0.000, 12:44:37.713
184, -4614.08, -5298.14, -5156.21, -4649.34, 0.000, 0.000, 0.000, 12:44:37.714
185, -4648.07, -5325.35, -5204.78, -4614.09, 0.000, 0.000, 0.000, 12:44:37.714
186, -4619.80, -5336.22, -5156.58, -4687.73, 0.000, 0.000, 0.000, 12:44:37.714
187, -4587.78, -5325.13, -5105.02, -4748.26, 0.000, 0.000, 0.000, 12:44:37.729
188, -4599.44, -5304.43, -5174.45, -4652.16, 0.000, 0.000, 0.000, 12:44:37.729
189, -4638.47, -5321.66, -5172.43, -4598.60, 0.000, 0.000, 0.000, 12:44:37.744
190, -4611.44, -5334.64, -5127.14, -4675.32, 0.000, 0.000, 0.000, 12:44:37.744
191, -4578.78, -5317.40, -5097.03, -4727.63, 0.000, 0.000, 0.000, 12:44:37.745
192, -4596.13, -5296.41, -5148.05, -4642.61, 0.000, 0.000, 0.000, 12:44:37.745
193, -4629.73, -5320.30, -5179.57, -4604.83, 0.000, 0.000, 0.000, 12:44:37.759
194, -4610.14, -5328.45, -5152.65, -4678.39, 0.000, 0.000, 0.000, 12:44:37.759
195, -4576.12, -5320.60, -5108.94, -4740.29, 0.000, 0.000, 0.000, 12:44:37.773
196, -4599.86, -5287.98, -5138.28, -4645.71, 0.000, 0.000, 0.000, 12:44:37.773
197, -4642.76, -5331.99, -5200.47, -4611.58, 0.000, 0.000, 0.000, 12:44:37.774
198, -4619.01, -5342.00, -5160.07, -4672.23, 0.000, 0.000, 0.000, 12:44:37.774
199, -4582.55, -5320.09, -5113.05, -4740.82, 0.000, 0.000, 0.000, 12:44:37.788
200, -4610.66, -5312.81, -5165.33, -4651.27, 0.000, 0.000, 0.000, 12:44:37.788
0, -4638.17, -5330.59, -5193.99, -4610.77, 0.000, 0.000, 0.000, 12:44:37.789
1, -4616.64, -5326.09, -5126.76, -4678.37, 0.000, 0.000, 0.000, 12:44:37.804
2, -4585.68, -5331.98, -5111.61, -4742.30, 0.000, 0.000, 0.000, 12:44:37.804
3, -4604.59, -5307.59, -5153.94, -4647.38, 0.000, 0.000, 0.000, 12:44:37.819
4, -4624.66, -5321.34, -5188.46, -4597.23, 0.000, 0.000, 0.000, 12:44:37.819
5, -4608.19, -5324.85, -5153.61, -4671.25, 0.000, 0.000, 0.000, 12:44:37.819
6, -4575.37, -5317.28, -5111.11, -4720.33, 0.000, 0.000, 0.000, 12:44:37.819
7, -4602.19, -5306.64, -5156.72, -4625.37, 0.000, 0.000, 0.000, 12:44:37.833
8, -4647.88, -5343.31, -5206.96, -4599.18, 0.000, 0.000, 0.000, 12:44:37.833
9, -4620.72, -5351.13, -5195.47, -4670.93, 0.000, 0.000, 0.000, 12:44:37.849
10, -4586.22, -5324.34, -5113.05, -4727.11, 0.000, 0.000, 0.000, 12:44:37.849
11, -4617.85, -5315.74, -5145.33, -4632.85, 0.000, 0.000, 0.000, 12:44:37.849
12, -4654.10, -5343.64, -5193.14, -4602.25, 0.000, 0.000, 0.000, 12:44:37.849
13, -4621.02, -5329.92, -5153.46, -4666.51, 0.000, 0.000, 0.000, 12:44:37.864
14, -4593.53, -5330.66, -5124.45, -4732.67, 0.000, 0.000, 0.000, 12:44:37.864
15, -4615.42, -5308.25, -5167.63, -4632.33, 0.000, 0.000, 0.000, 12:44:37.878
16, -4652.65, -5338.03, -5199.80, -4603.12, 0.000, 0.000, 0.000, 12:44:37.878
17, -4612.98, -5340.61, -5154.02, -4682.82, 0.000, 0.000, 0.000, 12:44:37.879
18, -4568.86, -5315.23, -5125.48, -4728.91, 0.000, 0.000, 0.000, 12:44:37.879
19, -4606.00, -5303.50, -5150.51, -4643.42, 0.000, 0.000, 0.000, 12:44:37.895
20, -4634.92, -5329.36, -5185.13, -4612.74, 0.000, 0.000, 0.000, 12:44:37.895
21, -4607.54, -5332.70, -5131.18, -4673.87, 0.000, 0.000, 0.000, 12:44:37.909
22, -4571.04, -5321.03, -5099.91, -4736.39, 0.000, 0.000, 0.000, 12:44:37.909
23, -4604.29, -5304.70, -5143.03, -4632.69, 0.000, 0.000, 0.000, 12:44:37.910
24, -4638.57, -5325.92, -5201.08, -4594.67, 0.000, 0.000, 0.000, 12:44:37.910
25, -4614.78, -5338.86, -5188.45, -4683.76, 0.000, 0.000, 0.000, 12:44:37.923
26, -4597.05, -5324.81, -5102.63, -4743.49, 0.000, 0.000, 0.000, 12:44:37.924
27, -4617.20, -5307.64, -5145.86, -4650.80, 0.000, 0.000, 0.000, 12:44:37.938
28, -4653.29, -5336.65, -5206.03, -4608.09, 0.000, 0.000, 0.000, 12:44:37.938
29, -4627.33, -5332.86, -5159.73, -4688.66, 0.000, 0.000, 0.000, 12:44:37.939
30, -4588.28, -5330.34, -5109.02, -4733.90, 0.000, 0.000, 0.000, 12:44:37.939
31, -4617.03, -5314.35, -5169.41, -4641.03, 0.000, 0.000, 0.000, 12:44:37.954
32, -4639.19, -5337.53, -5218.33, -4607.50, 0.000, 0.000, 0.000, 12:44:37.954
33, -4611.88, -5334.96, -5147.91, -4684.55, 0.000, 0.000, 0.000, 12:44:37.968
34, -4582.87, -5325.90, -5100.34, -4733.69, 0.000, 0.000, 0.000, 12:44:37.968
35, -4609.80, -5302.23, -5149.75, -4643.36, 0.000, 0.000, 0.000, 12:44:37.969
36, -4642.35, -5331.52, -5194.35, -4615.88, 0.000, 0.000, 0.000, 12:44:37.969
37, -4611.01, -5327.02, -5156.39, -4671.28, 0.000, 0.000, 0.000, 12:44:37.983
38, -4584.49, -5322.11, -5109.71, -4734.80, 0.000, 0.000, 0.000, 12:44:37.983
39, -4612.46, -5304.56, -5174.08, -4632.99, 0.000, 0.000, 0.000, 12:44:37.999
40, -4652.25, -5338.87, -5209.15, -4609.10, 0.000, 0.000, 0.000, 12:44:37.999
41, -4614.67, -5337.01, -5172.78, -4681.50, 0.000, 0.000, 0.000, 12:44:37.999
42, -4587.57, -5317.17, -5112.35, -4743.86, 0.000, 0.000, 0.000, 12:44:37.999
43, -4611.00, -5311.40, -5166.24, -4646.94, 0.000, 0.000, 0.000, 12:44:38.028
44, -4639.21, -5338.76, -5202.57, -4612.22, 0.000, 0.000, 0.000, 12:44:38.028
45, -4617.24, -5353.26, -5170.37, -4679.83, 0.000, 0.000, 0.000, 12:44:38.029
46, -4583.70, -5320.43, -5109.33, -4734.52, 0.000, 0.000, 0.000, 12:44:38.029
47, -4609.10, -5302.79, -5153.71, -4642.84, 0.000, 0.000, 0.000, 12:44:38.030
48, -4636.21, -5319.88, -5189.74, -4624.16, 0.000, 0.000, 0.000, 12:44:38.030
49, -4607.16, -5316.90, -5157.21, -4668.48, 0.000, 0.000, 0.000, 12:44:38.044
50, -4573.32, -5305.96, -5110.00, -4715.58, 0.000, 0.000, 0.000, 12:44:38.044
51, -4609.00, -5306.47, -5146.89, -4634.77, 0.000, 0.000, 0.000, 12:44:38.058
52, -4634.98, -5333.10, -5214.97, -4619.01, 0.000, 0.000, 0.000, 12:44:38.059
53, -4619.86, -5338.22, -5179.00, -4679.18, 0.000, 0.000, 0.000, 12:44:38.059
54, -4574.00, -5309.77, -5117.25, -4733.01, 0.000, 0.000, 0.000, 12:44:38.059
55, -4617.83, -5316.17, -5164.81, -4653.27, 0.000, 0.000, 0.000, 12:44:38.073
56, -4643.75, -5341.47, -5213.18, -4610.75, 0.000, 0.000, 0.000, 12:44:38.074
57, -4614.24, -5333.40, -5185.58, -4675.30, 0.000, 0.000, 0.000, 12:44:38.088
58, -4580.74, -5310.76, -5103.38, -4727.63, 0.000, 0.000, 0.000, 12:44:38.089
59, -4610.08, -5305.01, -5155.31, -4639.48, 0.000, 0.000, 0.000, 12:44:38.089
60, -4635.10, -5330.30, -5193.99, -4610.98, 0.000, 0.000, 0.000, 12:44:38.089
61, -4607.83, -5331.60, -5174.97, -4682.69, 0.000, 0.000, 0.000, 12:44:38.103
62, -4581.04, -5328.20, -5125.77, -4740.80, 0.000, 0.000, 0.000, 12:44:38.103
63, -4605.63, -5305.29, -5167.80, -4634.59, 0.000, 0.000, 0.000, 12:44:38.118
64, -4647.99, -5336.70, -5189.97, -4606.94, 0.000, 0.000, 0.000, 12:44:38.119
65, -4616.20, -5334.02, -5160.22, -4681.55, 0.000, 0.000, 0.000, 12:44:38.119
66, -4582.20, -5314.69, -5115.89, -4732.68, 0.000, 0.000, 0.000, 12:44:38.119
67, -4614.08, -5304.21, -5166.12, -4645.88, 0.000, 0.000, 0.000, 12:44:38.134
68, -4649.85, -5328.46, -5189.77, -4621.38, 0.000, 0.000, 0.000, 12:44:38.134
69, -4614.65, -5323.84, -5150.61, -4673.95, 0.000, 0.000, 0.000, 12:44:38.149
70, -4578.02, -5310.48, -5120.72, -4738.42, 0.000, 0.000, 0.000, 12:44:38.149
71, -4619.66, -5312.79, -5177.77, -4641.32, 0.000, 0.000, 0.000, 12:44:38.149
72, -4651.31, -5343.01, -5207.30, -4621.37, 0.000, 0.000, 0.000, 12:44:38.149
73, -4620.58, -5325.42, -5155.94, -4678.59, 0.000, 0.000, 0.000, 12:44:38.164
74, -4589.50, -5316.83, -5114.56, -4739.12, 0.000, 0.000, 0.000, 12:44:38.164
75, -4624.18, -5307.10, -5187.79, -4638.80, 0.000, 0.000, 0.000, 12:44:38.179
76, -4654.22, -5331.02, -5222.53, -4616.46, 0.000, 0.000, 0.000, 12:44:38.179
77, -4617.60, -5335.92, -5164.69, -4687.33, 0.000, 0.000, 0.000, 12:44:38.179
78, -4582.86, -5327.93, -5120.15, -4743.47, 0.000, 0.000, 0.000, 12:44:38.179
79, -4614.03, -5307.17, -5169.81, -4628.32, 0.000, 0.000, 0.000, 12:44:38.194
80, -4642.78, -5341.79, -5201.40, -4611.79, 0.000, 0.000, 0.000, 12:44:38.194
81, -4618.56, -5328.38, -5176.26, -4693.07, 0.000, 0.000, 0.000, 12:44:38.208
82, -4572.64, -5305.16, -5104.92, -4726.78, 0.000, 0.000, 0.000, 12:44:38.208
83, -4606.71, -5307.63, -5176.49, -4641.31, 0.000, 0.000, 0.000, 12:44:38.209
84, -4649.08, -5335.70, -5200.68, -4611.65, 0.000, 0.000, 0.000, 12:44:38.209
85, -4615.16, -5321.49, -5158.17, -4682.91, 0.000, 0.000, 0.000, 12:44:38.223
86, -4579.79, -5314.69, -5110.15, -4735.38, 0.000, 0.000, 0.000, 12:44:38.224
87, -4607.89, -5291.98, -5154.29, -4642.00, 0.000, 0.000, 0.000, 12:44:38.239
88, -4650.62, -5328.30, -5215.77, -4615.85, 0.000, 0.000, 0.000, 12:44:38.239
89, -4617.06, -5332.60, -5160.42, -4690.81, 0.000, 0.000, 0.000, 12:44:38.239
90, -4574.75, -5297.91, -5111.66, -4735.16, 0.000, 0.000, 0.000, 12:44:38.239
91, -4611.59, -5310.53, -5168.57, -4631.70, 0.000, 0.000, 0.000, 12:44:38.253
92, -4636.68, -5331.47, -5208.34, -4617.64, 0.000, 0.000, 0.000, 12:44:38.253
93, -4616.99, -5334.54, -5159.87, -4681.62, 0.000, 0.000, 0.000, 12:44:38.268
94, -4578.29, -5324.97, -5116.50, -4743.70, 0.000, 0.000, 0.000, 12:44:38.269
95, -4613.45, -5300.09, -5175.00, -4642.38, 0.000, 0.000, 0.000, 12:44:38.269
96, -4644.12, -5334.32, -5195.68, -4615.81, 0.000, 0.000, 0.000, 12:44:38.269
97, -4623.77, -5337.04, -5170.63, -4679.97, 0.000, 0.000, 0.000, 12:44:38.283
98, -4576.92, -5313.37, -5106.73, -4736.73, 0.000, 0.000, 0.000, 12:44:38.283
99, -4608.95, -5301.57, -5174.72, -4644.90, 0.000, 0.000, 0.000, 12:44:38.299
100, -4644.60, -5335.90, -5198.28, -4607.72, 0.000, 0.000, 0.000, 12:44:38.299
101, -4614.58, -5329.21, -5165.20, -4692.76, 0.000, 0.000, 0.000, 12:44:38.299
102, -4593.12, -5328.81, -5131.64, -4741.98, 0.000, 0.000, 0.000, 12:44:38.299
103, -4620.24, -5318.90, -5202.92, -4644.27, 0.000, 0.000, 0.000, 12:44:38.315
104, -4646.22, -5343.09, -5197.44, -4616.33, 0.000, 0.000, 0.000, 12:44:38.315
105, -4616.38, -5336.47, -5164.04, -4685.45, 0.000, 0.000, 0.000, 12:44:38.329
106, -4586.08, -5319.31, -5115.84, -4741.51, 0.000, 0.000, 0.000, 12:44:38.329
107, -4622.60, -5327.12, -5175.78, -4638.86, 0.000, 0.000, 0.000, 12:44:38.329
108, -4647.41, -5340.90, -5210.66, -4620.47, 0.000, 0.000, 0.000, 12:44:38.329
109, -4614.44, -5324.75, -5180.00, -4678.92, 0.000, 0.000, 0.000, 12:44:38.344
110, -4580.62, -5312.63, -5112.55, -4740.18, 0.000, 0.000, 0.000, 12:44:38.344
111, -4618.80, -5315.35, -5168.35, -4643.19, 0.000, 0.000, 0.000, 12:44:38.358
112, -4641.46, -5335.03, -5192.66, -4611.10, 0.000, 0.000, 0.000, 12:44:38.358
113, -4612.25, -5332.05, -5160.51, -4677.53, 0.000, 0.000, 0.000, 12:44:38.366
114, -4583.10, -5319.56, -5125.63, -4727.06, 0.000, 0.000, 0.000, 12:44:38.366
115, -4601.38, -5299.33, -5172.22, -4634.76, 0.000, 0.000, 0.000, 12:44:38.374
116, -4631.93, -5330.95, -5199.59, -4610.01, 0.000, 0.000, 0.000, 12:44:38.374
117, -4603.48, -5327.43, -5146.68, -4674.27, 0.000, 0.000, 0.000, 12:44:38.388
118, -4568.74, -5310.18, -5113.87, -4734.90, 0.000, 0.000, 0.000, 12:44:38.388
119, -4599.14, -5293.23, -5165.06, -4631.63, 0.000, 0.000, 0.000, 12:44:38.389
120, -4624.07, -5324.46, -5180.16, -4608.40, 0.000, 0.000, 0.000, 12:44:38.389
121, -4600.56, -5329.66, -5144.05, -4681.21, 0.000, 0.000, 0.000, 12:44:38.404
122, -4574.63, -5311.05, -5127.80, -4731.25, 0.000, 0.000, 0.000, 12:44:38.404
123, -4612.98, -5306.09, -5166.80, -4631.21, 0.000, 0.000, 0.000, 12:44:38.418
124, -4630.26, -5329.40, -5188.09, -4608.33, 0.000, 0.000, 0.000, 12:44:38.419
125, -4614.55, -5332.88, -5146.51, -4682.45, 0.000, 0.000, 0.000, 12:44:38.419
126, -4577.89, -5308.18, -5100.51, -4733.89, 0.000, 0.000, 0.000, 12:44:38.419
127, -4606.54, -5299.95, -5163.22, -4636.99, 0.000, 0.000, 0.000, 12:44:38.433
128, -4642.00, -5329.61, -5200.84, -4624.09, 0.000, 0.000, 0.000, 12:44:38.433
129, -4615.70, -5340.66, -5157.87, -4686.05, 0.000, 0.000, 0.000, 12:44:38.448
130, -4576.56, -5309.65, -5117.01, -4735.52, 0.000, 0.000, 0.000, 12:44:38.448
131, -4613.51, -5295.84, -5159.35, -4636.52, 0.000, 0.000, 0.000, 12:44:38.449
132, -4644.02, -5332.16, -5200.39, -4607.59, 0.000, 0.000, 0.000, 12:44:38.449
133, -4613.96, -5330.06, -5167.97, -4686.92, 0.000, 0.000, 0.000, 12:44:38.464
134, -4581.87, -5321.77, -5094.18, -4738.39, 0.000, 0.000, 0.000, 12:44:38.464
135, -4611.81, -5311.27, -5144.32, -4635.17, 0.000, 0.000, 0.000, 12:44:38.478
136, -4634.92, -5329.55, -5181.59, -4611.16, 0.000, 0.000, 0.000, 12:44:38.479
137, -4613.93, -5330.76, -5143.40, -4686.16, 0.000, 0.000, 0.000, 12:44:38.480
138, -4575.33, -5301.18, -5094.88, -4732.24, 0.000, 0.000, 0.000, 12:44:38.480
139, -4617.03, -5311.04, -5169.78, -4642.71, 0.000, 0.000, 0.000, 12:44:38.494
140, -4643.52, -5336.27, -5192.45, -4622.61, 0.000, 0.000, 0.000, 12:44:38.494
141, -4610.48, -5332.42, -5182.49, -4686.78, 0.000, 0.000, 0.000, 12:44:38.508
142, -4576.05, -5308.38, -5086.81, -4734.14, 0.000, 0.000, 0.000, 12:44:38.508
143, -4608.67, -5296.75, -5161.25, -4636.70, 0.000, 0.000, 0.000, 12:44:38.509
144, -4632.35, -5331.70, -5187.84, -4617.43, 0.000, 0.000, 0.000, 12:44:38.509
145, -4616.27, -5336.16, -5146.35, -4684.00, 0.000, 0.000, 0.000, 12:44:38.524
146, -4588.81, -5322.95, -5108.16, -4725.19, 0.000, 0.000, 0.000, 12:44:38.524
147, -4618.45, -5305.82, -5174.87, -4636.97, 0.000, 0.000, 0.000, 12:44:38.539
148, -4646.08, -5335.29, -5192.63, -4614.65, 0.000, 0.000, 0.000, 12:44:38.539
149, -4616.36, -5328.53, -5137.25, -4680.18, 0.000, 0.000, 0.000, 12:44:38.539
150, -4581.06, -5311.17, -5095.79, -4732.64, 0.000, 0.000, 0.000, 12:44:38.539
151, -4620.33, -5302.32, -5169.80, -4633.30, 0.000, 0.000, 0.000, 12:44:38.554
152, -4640.28, -5338.67, -5188.90, -4612.28, 0.000, 0.000, 0.000, 12:44:38.554
153, -4614.27, -5330.99, -5154.83, -4676.14, 0.000, 0.000, 0.000, 12:44:38.569
154, -4588.99, -5329.03, -5124.12, -4733.30, 0.000, 0.000, 0.000, 12:44:38.569
155, -4614.44, -5305.60, -5163.13, -4628.74, 0.000, 0.000, 0.000, 12:44:38.569
156, -4640.45, -5331.71, -5200.94, -4605.36, 0.000, 0.000, 0.000, 12:44:38.569
157, -4608.89, -5323.91, -5153.78, -4690.50, 0.000, 0.000, 0.000, 12:44:38.583
158, -4578.68, -5317.73, -5117.62, -4730.38, 0.000, 0.000, 0.000, 12:44:38.583
159, -4609.93, -5312.68, -5176.59, -4625.84, 0.000, 0.000, 0.000, 12:44:38.598
160, -4639.81, -5342.04, -5210.16, -4617.03, 0.000, 0.000, 0.000, 12:44:38.598
161, -4611.51, -5330.64, -5153.06, -4678.78, 0.000, 0.000, 0.000, 12:44:38.599
162, -4579.79, -5313.82, -5111.84, -4733.43, 0.000, 0.000, 0.000, 12:44:38.599
163, -4610.30, -5307.56, -5156.20, -4628.13, 0.000, 0.000, 0.000, 12:44:38.614
164, -4636.44, -5330.42, -5181.08, -4614.74, 0.000, 0.000, 0.000, 12:44:38.614
165, -4603.34, -5334.37, -5131.20, -4678.86, 0.000, 0.000, 0.000, 12:44:38.628
166, -4572.30, -5310.03, -5078.86, -4732.17, 0.000, 0.000, 0.000, 12:44:38.628
167, -4606.06, -5315.89, -5141.52, -4639.04, 0.000, 0.000, 0.000, 12:44:38.629
168, -4639.67, -5341.79, -5179.38, -4616.05, 0.000, 0.000, 0.000, 12:44:38.629
169, -4606.09, -5333.40, -5133.98, -4684.72, 0.000, 0.000, 0.000, 12:44:38.644
170, -4571.29, -5305.68, -5081.15, -4728.66, 0.000, 0.000, 0.000, 12:44:38.644
171, -4609.69, -5311.29, -5137.18, -4634.52, 0.000, 0.000, 0.000, 12:44:38.658
172, -4643.26, -5336.22, -5173.27, -4613.33, 0.000, 0.000, 0.000, 12:44:38.659
173, -4616.47, -5335.48, -5130.15, -4685.23, 0.000, 0.000, 0.000, 12:44:38.659
174, -4581.79, -5320.71, -5090.52, -4733.65, 0.000, 0.000, 0.000, 12:44:38.659
175, -4619.06, -5312.85, -5151.66, -4636.57, 0.000, 0.000, 0.000, 12:44:38.674
176, -4642.94, -5345.55, -5193.49, -4624.51, 0.000, 0.000, 0.000, 12:44:38.674
177, -4604.34, -5330.13, -5124.83, -4679.91, 0.000, 0.000, 0.000, 12:44:38.688
178, -4580.69, -5323.13, -5098.59, -4740.46, 0.000, 0.000, 0.000, 12:44:38.688
179, -4607.36, -5326.36, -5154.98, -4626.62, 0.000, 0.000, 0.000, 12:44:38.689
180, -4638.61, -5334.72, -5179.71, -4613.57, 0.000, 0.000, 0.000, 12:44:38.689
181, -4603.01, -5323.29, -5128.58, -4674.94, 0.000, 0.000, 0.000, 12:44:38.704
182, -4572.80, -5311.78, -5097.81, -4730.66, 0.000, 0.000, 0.000, 12:44:38.704
183, -4608.64, -5307.47, -5147.48, -4624.81, 0.000, 0.000, 0.000, 12:44:38.718
184, -4631.16, -5322.55, -5162.33, -4612.70, 0.000, 0.000, 0.000, 12:44:38.718
185, -4610.45, -5325.09, -5115.67, -4681.55, 0.000, 0.000, 0.000, 12:44:38.719
186, -4583.28, -5327.71, -5090.17, -4737.77, 0.000, 0.000, 0.000, 12:44:38.719
187, -4612.26, -5306.85, -5158.63, -4631.11, 0.000, 0.000, 0.000, 12:44:38.733
188, -4645.50, -5330.64, -5183.54, -4613.50, 0.000, 0.000, 0.000, 12:44:38.733
189, -4613.66, -5334.21, -5122.83, -4685.37, 0.000, 0.000, 0.000, 12:44:38.748
190, -4579.74, -5309.16, -5089.89, -4733.08, 0.000, 0.000, 0.000, 12:44:38.748
191, -4617.64, -5309.69, -5161.22, -4629.15, 0.000, 0.000, 0.000, 12:44:38.749
192, -4643.56, -5331.06, -5191.93, -4622.79, 0.000, 0.000, 0.000, 12:44:38.749
193, -4617.89, -5337.61, -5136.76, -4689.61, 0.000, 0.000, 0.000, 12:44:38.764
194, -4581.65, -5312.85, -5097.19, -4734.37, 0.000, 0.000, 0.000, 12:44:38.764
195, -4619.14, -5319.43, -5154.33, -4638.57, 0.000, 0.000, 0.000, 12:44:38.779
196, -4651.73, -5346.10, -5200.34, -4628.36, 0.000, 0.000, 0.000, 12:44:38.779
197, -4613.08, -5326.41, -5135.33, -4695.78, 0.000, 0.000, 0.000, 12:44:38.779
198, -4583.95, -5309.73, -5085.62, -4747.33, 0.000, 0.000, 0.000, 12:44:38.779
199, -4609.27, -5294.90, -5142.12, -4635.90, 0.000, 0.000, 0.000, 12:44:38.793
200, -4635.13, -5325.34, -5172.47, -4620.84, 0.000, 0.000, 0.000, 12:44:38.795
0, -4616.45, -5343.98, -5150.38, -4691.66, 0.000, 0.000, 0.000, 12:44:38.795
1, -4583.42, -5312.94, -5100.37, -4724.40, 0.000, 0.000, 0.000, 12:44:38.824
2, -4612.06, -5295.38, -5164.89, -4625.67, 0.000, 0.000, 0.000, 12:44:38.824
3, -4634.54, -5331.69, -5190.76, -4610.25, 0.000, 0.000, 0.000, 12:44:38.825
4, -4610.87, -5322.00, -5148.67, -4691.50, 0.000, 0.000, 0.000, 12:44:38.825
5, -4580.33, -5317.12, -5102.91, -4733.03, 0.000, 0.000, 0.000, 12:44:38.825
6, -4607.76, -5301.99, -5155.98, -4623.59, 0.000, 0.000, 0.000, 12:44:38.825
7, -4634.74, -5331.24, -5186.50, -4622.87, 0.000, 0.000, 0.000, 12:44:38.845
8, -4608.91, -5329.81, -5144.04, -4701.07, 0.000, 0.000, 0.000, 12:44:38.845
9, -4583.97, -5307.99, -5106.58, -4734.02, 0.000, 0.000, 0.000, 12:44:38.853
10, -4614.67, -5304.00, -5174.04, -4636.40, 0.000, 0.000, 0.000, 12:44:38.854
11, -4646.75, -5334.79, -5198.68, -4616.37, 0.000, 0.000, 0.000, 12:44:38.854
12, -4613.06, -5337.72, -5146.68, -4689.10, 0.000, 0.000, 0.000, 12:44:38.854
13, -4570.85, -5310.20, -5099.41, -4739.18, 0.000, 0.000, 0.000, 12:44:38.869
14, -4610.33, -5303.34, -5178.09, -4630.53, 0.000, 0.000, 0.000, 12:44:38.869
15, -4641.01, -5343.73, -5200.35, -4630.20, 0.000, 0.000, 0.000, 12:44:38.883
16, -4616.10, -5331.76, -5152.26, -4689.35, 0.000, 0.000, 0.000, 12:44:38.883
17, -4585.03, -5311.53, -5102.89, -4733.08, 0.000, 0.000, 0.000, 12:44:38.884
18, -4615.06, -5304.61, -5167.20, -4630.48, 0.000, 0.000, 0.000, 12:44:38.884
19, -4646.60, -5350.40, -5200.88, -4618.92, 0.000, 0.000, 0.000, 12:44:38.898
20, -4612.31, -5330.23, -5143.34, -4689.23, 0.000, 0.000, 0.000, 12:44:38.898
21, -4579.25, -5304.80, -5099.56, -4731.25, 0.000, 0.000, 0.000, 12:44:38.914
22, -4612.67, -5295.75, -5173.88, -4625.79, 0.000, 0.000, 0.000, 12:44:38.914
23, -4637.61, -5330.71, -5198.92, -4612.07, 0.000, 0.000, 0.000, 12:44:38.914
24, -4610.78, -5334.31, -5162.97, -4689.93, 0.000, 0.000, 0.000, 12:44:38.914
25, -4584.97, -5321.48, -5108.43, -4738.31, 0.000, 0.000, 0.000, 12:44:38.929
26, -4611.06, -5313.83, -5160.70, -4625.30, 0.000, 0.000, 0.000, 12:44:38.929
27, -4641.78, -5331.32, -5197.40, -4614.39, 0.000, 0.000, 0.000, 12:44:38.945
28, -4610.43, -5313.04, -5142.41, -4693.18, 0.000, 0.000, 0.000, 12:44:38.945
29, -4588.95, -5304.73, -5105.98, -4735.47, 0.000, 0.000, 0.000, 12:44:38.945
30, -4618.41, -5310.28, -5191.75, -4627.83, 0.000, 0.000, 0.000, 12:44:38.945
31, -4647.23, -5334.79, -5208.10, -4621.96, 0.000, 0.000, 0.000, 12:44:38.960
32, -4616.29, -5341.34, -5180.08, -4695.65, 0.000, 0.000, 0.000, 12:44:38.960
33, -4578.45, -5325.26, -5099.78, -4738.75, 0.000, 0.000, 0.000, 12:44:38.974
34, -4612.68, -5296.93, -5158.92, -4623.86, 0.000, 0.000, 0.000, 12:44:38.974
35, -4638.38, -5327.65, -5189.56, -4615.33, 0.000, 0.000, 0.000, 12:44:38.974
36, -4604.50, -5320.94, -5139.72, -4680.04, 0.000, 0.000, 0.000, 12:44:38.974
37, -4577.34, -5309.03, -5098.41, -4725.52, 0.000, 0.000, 0.000, 12:44:38.988
38, -4611.82, -5307.93, -5176.98, -4623.30, 0.000, 0.000, 0.000, 12:44:38.988
39, -4644.10, -5339.86, -5202.09, -4608.68, 0.000, 0.000, 0.000, 12:44:39.004
40, -4609.07, -5328.03, -5168.70, -4693.29, 0.000, 0.000, 0.000, 12:44:39.004
41, -4582.69, -5315.47, -5128.87, -4739.41, 0.000, 0.000, 0.000, 12:44:39.004
42, -4614.42, -5306.04, -5180.94, -4625.99, 0.000, 0.000, 0.000, 12:44:39.004
43, -4631.20, -5326.62, -5197.40, -4619.02, 0.000, 0.000, 0.000, 12:44:39.019
44, -4602.45, -5323.91, -5132.43, -4685.97, 0.000, 0.000, 0.000, 12:44:39.019
45, -4571.27, -5306.32, -5103.88, -4739.15, 0.000, 0.000, 0.000, 12:44:39.033
46, -4612.58, -5319.53, -5182.97, -4635.43, 0.000, 0.000, 0.000, 12:44:39.033
47, -4643.45, -5333.81, -5200.36, -4628.26, 0.000, 0.000, 0.000, 12:44:39.034
48, -4605.73, -5323.45, -5150.92, -4696.75, 0.000, 0.000, 0.000, 12:44:39.034
49, -4580.63, -5310.12, -5117.29, -4745.13, 0.000, 0.000, 0.000, 12:44:39.048
50, -4613.19, -5311.26, -5187.37, -4622.26, 0.000, 0.000, 0.000, 12:44:39.048
51, -4636.94, -5324.12, -5183.75, -4629.12, 0.000, 0.000, 0.000, 12:44:39.065
52, -4612.61, -5334.05, -5136.51, -4703.29, 0.000, 0.000, 0.000, 12:44:39.065
53, -4577.55, -5309.29, -5102.96, -4736.53, 0.000, 0.000, 0.000, 12:44:39.065
54, -4604.83, -5292.97, -5170.49, -4626.79, 0.000, 0.000, 0.000, 12:44:39.065
55, -4636.32, -5343.37, -5213.20, -4628.00, 0.000, 0.000, 0.000, 12:44:39.079
56, -4606.22, -5336.45, -5155.80, -4697.66, 0.000, 0.000, 0.000, 12:44:39.079
57, -4573.13, -5320.94, -5103.73, -4738.91, 0.000, 0.000, 0.000, 12:44:39.094
58, -4608.18, -5316.80, -5181.17, -4629.04, 0.000, 0.000, 0.000, 12:44:39.094
59, -4631.42, -5347.61, -5202.26, -4622.85, 0.000, 0.000, 0.000, 12:44:39.094
60, -4598.35, -5344.04, -5160.33, -4686.71, 0.000, 0.000, 0.000, 12:44:39.094
61, -4574.47, -5314.04, -5120.83, -4733.47, 0.000, 0.000, 0.000, 12:44:39.109
62, -4618.48, -5303.18, -5175.06, -4612.60, 0.000, 0.000, 0.000, 12:44:39.109
63, -4637.29, -5335.38, -5206.50, -4621.62, 0.000, 0.000, 0.000, 12:44:39.124
64, -4614.17, -5325.40, -5154.11, -4691.85, 0.000, 0.000, 0.000, 12:44:39.124
65, -4591.76, -5316.15, -5129.78, -4742.17, 0.000, 0.000, 0.000, 12:44:39.125
66, -4616.86, -5303.09, -5182.86, -4631.86, 0.000, 0.000, 0.000, 12:44:39.125
67, -4645.47, -5332.98, -5198.51, -4623.43, 0.000, 0.000, 0.000, 12:44:39.138
68, -4611.96, -5333.32, -5150.04, -4685.06, 0.000, 0.000, 0.000, 12:44:39.139
69, -4585.39, -5314.51, -5117.74, -4733.43, 0.000, 0.000, 0.000, 12:44:39.153
70, -4623.95, -5310.78, -5184.90, -4626.48, 0.000, 0.000, 0.000, 12:44:39.153
71, -4639.59, -5345.34, -5210.58, -4623.61, 0.000, 0.000, 0.000, 12:44:39.154
72, -4614.69, -5335.30, -5164.10, -4705.56, 0.000, 0.000, 0.000, 12:44:39.154
73, -4584.23, -5312.86, -5112.49, -4735.23, 0.000, 0.000, 0.000, 12:44:39.169
74, -4622.41, -5299.24, -5175.90, -4632.94, 0.000, 0.000, 0.000, 12:44:39.169
75, -4642.41, -5336.16, -5187.75, -4626.48, 0.000, 0.000, 0.000, 12:44:39.184
76, -4613.34, -5335.75, -5157.89, -4697.03, 0.000, 0.000, 0.000, 12:44:39.184
77, -4579.86, -5314.62, -5114.77, -4733.23, 0.000, 0.000, 0.000, 12:44:39.184
78, -4620.22, -5307.64, -5182.27, -4622.52, 0.000, 0.000, 0.000, 12:44:39.184
79, -4638.68, -5330.37, -5193.32, -4627.22, 0.000, 0.000, 0.000, 12:44:39.199
80, -4608.89, -5325.59, -5153.43, -4683.52, 0.000, 0.000, 0.000, 12:44:39.199
81, -4576.68, -5310.61, -5113.41, -4737.09, 0.000, 0.000, 0.000, 12:44:39.215
82, -4614.98, -5309.06, -5176.83, -4620.93, 0.000, 0.000, 0.000, 12:44:39.215
83, -4646.19, -5347.75, -5209.42, -4629.24, 0.000, 0.000, 0.000, 12:44:39.215
84, -4612.24, -5334.03, -5151.17, -4684.21, 0.000, 0.000, 0.000, 12:44:39.215
85, -4581.41, -5320.79, -5127.11, -4729.92, 0.000, 0.000, 0.000, 12:44:39.228
86, -4612.41, -5306.27, -5181.15, -4619.55, 0.000, 0.000, 0.000, 12:44:39.228
87, -4638.40, -5339.31, -5196.84, -4621.00, 0.000, 0.000, 0.000, 12:44:39.244
88, -4609.35, -5337.21, -5155.87, -4694.33, 0.000, 0.000, 0.000, 12:44:39.244
89, -4589.89, -5331.74, -5128.52, -4747.97, 0.000, 0.000, 0.000, 12:44:39.244
90, -4626.89, -5312.70, -5189.78, -4621.53, 0.000, 0.000, 0.000, 12:44:39.244
91, -4651.14, -5336.28, -5212.55, -4624.88, 0.000, 0.000, 0.000, 12:44:39.259
92, -4610.46, -5326.82, -5142.70, -4684.66, 0.000, 0.000, 0.000, 12:44:39.259
93, -4584.06, -5321.66, -5115.14, -4735.33, 0.000, 0.000, 0.000, 12:44:39.274
94, -4622.71, -5312.17, -5181.91, -4625.55, 0.000, 0.000, 0.000, 12:44:39.274
95, -4648.40, -5341.12, -5203.30, -4632.08, 0.000, 0.000, 0.000, 12:44:39.275
96, -4607.88, -5334.34, -5154.79, -4694.91, 0.000, 0.000, 0.000, 12:44:39.275
97, -4575.58, -5303.85, -5120.50, -4740.30, 0.000, 0.000, 0.000, 12:44:39.288
98, -4618.00, -5307.06, -5188.67, -4623.76, 0.000, 0.000, 0.000, 12:44:39.288
99, -4639.11, -5352.43, -5200.44, -4633.98, 0.000, 0.000, 0.000, 12:44:39.304
100, -4619.22, -5340.17, -5164.58, -4698.38, 0.000, 0.000, 0.000, 12:44:39.304
101, -4573.15, -5301.26, -5122.41, -4736.45, 0.000, 0.000, 0.000, 12:44:39.304
102, -4625.27, -5296.54, -5186.63, -4626.07, 0.000, 0.000, 0.000, 12:44:39.304
103, -4647.87, -5329.04, -5188.70, -4621.87, 0.000, 0.000, 0.000, 12:44:39.325
104, -4613.94, -5329.40, -5147.10, -4701.56, 0.000, 0.000, 0.000, 12:44:39.325
105, -4573.33, -5302.51, -5099.65, -4733.99, 0.000, 0.000, 0.000, 12:44:39.334
106, -4617.83, -5308.53, -5180.11, -4627.45, 0.000, 0.000, 0.000, 12:44:39.334
107, -4638.84, -5328.94, -5193.17, -4629.08, 0.000, 0.000, 0.000, 12:44:39.334
108, -4606.60, -5318.59, -5140.73, -4688.13, 0.000, 0.000, 0.000, 12:44:39.334
109, -4576.06, -5305.80, -5106.45, -4732.05, 0.000, 0.000, 0.000, 12:44:39.348
110, -4614.75, -5309.81, -5185.57, -4626.51, 0.000, 0.000, 0.000, 12:44:39.349
111, -4641.54, -5327.71, -5190.91, -4631.04, 0.000, 0.000, 0.000, 12:44:39.365
112, -4607.88, -5321.77, -5145.65, -4696.15, 0.000, 0.000, 0.000, 12:44:39.365
113, -4595.81, -5326.70, -5126.59, -4748.81, 0.000, 0.000, 0.000, 12:44:39.365
114, -4627.07, -5323.14, -5180.73, -4636.06, 0.000, 0.000, 0.000, 12:44:39.365
115, -4640.54, -5329.82, -5198.85, -4626.26, 0.000, 0.000, 0.000, 12:44:39.379
116, -4611.98, -5332.74, -5154.00, -4685.65, 0.000, 0.000, 0.000, 12:44:39.379
117, -4574.68, -5318.77, -5117.95, -4728.97, 0.000, 0.000, 0.000, 12:44:39.394
118, -4617.53, -5308.23, -5187.26, -4616.31, 0.000, 0.000, 0.000, 12:44:39.394
119, -4645.23, -5343.13, -5199.25, -4615.88, 0.000, 0.000, 0.000, 12:44:39.395
120, -4598.04, -5321.78, -5138.91, -4697.56, 0.000, 0.000, 0.000, 12:44:39.395
121, -4584.15, -5325.11, -5117.08, -4737.43, 0.000, 0.000, 0.000, 12:44:39.408
122, -4606.34, -5308.17, -5181.74, -4619.94, 0.000, 0.000, 0.000, 12:44:39.408
123, -4636.65, -5346.56, -5210.43, -4626.65, 0.000, 0.000, 0.000, 12:44:39.423
124, -4613.20, -5322.96, -5151.30, -4693.70, 0.000, 0.000, 0.000, 12:44:39.423
125, -4576.45, -5308.32, -5106.35, -4732.73, 0.000, 0.000, 0.000, 12:44:39.424
126, -4616.61, -5316.31, -5179.22, -4623.18, 0.000, 0.000, 0.000, 12:44:39.425
127, -4633.64, -5328.56, -5186.78, -4625.36, 0.000, 0.000, 0.000, 12:44:39.438
128, -4596.89, -5329.51, -5143.23, -4703.19, 0.000, 0.000, 0.000, 12:44:39.438
129, -4567.69, -5305.21, -5102.58, -4730.90, 0.000, 0.000, 0.000, 12:44:39.453
130, -4615.41, -5306.33, -5188.45, -4615.72, 0.000, 0.000, 0.000, 12:44:39.453
131, -4643.27, -5328.66, -5199.07, -4628.08, 0.000, 0.000, 0.000, 12:44:39.454
132, -4608.10, -5325.20, -5146.48, -4683.01, 0.000, 0.000, 0.000, 12:44:39.454
133, -4580.79, -5316.78, -5128.58, -4739.95, 0.000, 0.000, 0.000, 12:44:39.468
134, -4624.57, -5305.55, -5181.83, -4625.12, 0.000, 0.000, 0.000, 12:44:39.469
135, -4636.63, -5337.74, -5186.49, -4619.87, 0.000, 0.000, 0.000, 12:44:39.484
136, -4612.04, -5328.53, -5141.39, -4693.23, 0.000, 0.000, 0.000, 12:44:39.484
137, -4589.17, -5311.21, -5114.97, -4746.07, 0.000, 0.000, 0.000, 12:44:39.484
138, -4617.34, -5303.49, -5189.26, -4609.37, 0.000, 0.000, 0.000, 12:44:39.485
139, -4644.75, -5341.86, -5203.01, -4623.20, 0.000, 0.000, 0.000, 12:44:39.499
140, -4609.18, -5329.64, -5150.79, -4695.56, 0.000, 0.000, 0.000, 12:44:39.499
141, -4588.89, -5322.01, -5127.46, -4732.80, 0.000, 0.000, 0.000, 12:44:39.514
142, -4621.56, -5322.79, -5193.56, -4610.85, 0.000, 0.000, 0.000, 12:44:39.514
143, -4647.83, -5325.20, -5203.95, -4625.34, 0.000, 0.000, 0.000, 12:44:39.515
144, -4615.20, -5322.42, -5152.73, -4695.41, 0.000, 0.000, 0.000, 12:44:39.515
145, -4578.64, -5308.17, -5124.68, -4728.56, 0.000, 0.000, 0.000, 12:44:39.528
146, -4626.66, -5305.61, -5189.33, -4621.20, 0.000, 0.000, 0.000, 12:44:39.528
147, -4638.15, -5326.91, -5194.23, -4628.72, 0.000, 0.000, 0.000, 12:44:39.544
148, -4622.57, -5339.89, -5150.33, -4696.42, 0.000, 0.000, 0.000, 12:44:39.544
149, -4591.06, -5321.44, -5133.12, -4741.73, 0.000, 0.000, 0.000, 12:44:39.544
150, -4626.39, -5307.66, -5177.44, -4623.31, 0.000, 0.000, 0.000, 12:44:39.544
151, -4641.63, -5339.62, -5220.72, -4625.03, 0.000, 0.000, 0.000, 12:44:39.559
152, -4606.91, -5326.86, -5147.38, -4694.77, 0.000, 0.000, 0.000, 12:44:39.559
153, -4579.48, -5311.82, -5107.47, -4733.42, 0.000, 0.000, 0.000, 12:44:39.574
154, -4614.02, -5309.27, -5181.61, -4615.38, 0.000, 0.000, 0.000, 12:44:39.574
155, -4635.36, -5342.79, -5204.20, -4621.79, 0.000, 0.000, 0.000, 12:44:39.574
156, -4614.27, -5334.83, -5158.22, -4695.07, 0.000, 0.000, 0.000, 12:44:39.574
157, -4580.29, -5315.34, -5125.61, -4727.77, 0.000, 0.000, 0.000, 12:44:39.589
158, -4620.35, -5312.79, -5182.01, -4623.73, 0.000, 0.000, 0.000, 12:44:39.589
159, -4649.14, -5347.40, -5203.56, -4635.81, 0.000, 0.000, 0.000, 12:44:39.603
160, -4612.38, -5335.11, -5161.94, -4703.25, 0.000, 0.000, 0.000, 12:44:39.603
161, -4592.17, -5318.23, -5121.18, -4734.50, 0.000, 0.000, 0.000, 12:44:39.604
162, -4620.29, -5310.49, -5173.35, -4629.81, 0.000, 0.000, 0.000, 12:44:39.604
163, -4634.80, -5319.58, -5194.36, -4631.42, 0.000, 0.000, 0.000, 12:44:39.619
164, -4603.35, -5319.01, -5149.76, -4699.76, 0.000, 0.000, 0.000, 12:44:39.619
165, -4584.64, -5306.99, -5125.44, -4732.74, 0.000, 0.000, 0.000, 12:44:39.634
166, -4624.70, -5313.24, -5189.71, -4626.87, 0.000, 0.000, 0.000, 12:44:39.634
167, -4635.03, -5339.26, -5191.48, -4634.46, 0.000, 0.000, 0.000, 12:44:39.634
168, -4607.87, -5339.58, -5145.20, -4700.26, 0.000, 0.000, 0.000, 12:44:39.634
169, -4580.42, -5310.44, -5121.22, -4738.07, 0.000, 0.000, 0.000, 12:44:39.649
170, -4617.96, -5306.42, -5179.86, -4620.32, 0.000, 0.000, 0.000, 12:44:39.649
171, -4643.09, -5345.45, -5200.37, -4627.31, 0.000, 0.000, 0.000, 12:44:39.664
172, -4605.96, -5331.79, -5145.99, -4695.28, 0.000, 0.000, 0.000, 12:44:39.664
173, -4579.77, -5305.48, -5125.65, -4736.54, 0.000, 0.000, 0.000, 12:44:39.671
174, -4626.73, -5308.40, -5191.97, -4625.59, 0.000, 0.000, 0.000, 12:44:39.671
175, -4634.51, -5337.60, -5190.46, -4628.87, 0.000, 0.000, 0.000, 12:44:39.679
176, -4611.15, -5328.47, -5154.11, -4703.52, 0.000, 0.000, 0.000, 12:44:39.679
177, -4580.82, -5324.62, -5126.23, -4741.90, 0.000, 0.000, 0.000, 12:44:39.695
178, -4620.61, -5317.10, -5197.39, -4625.08, 0.000, 0.000, 0.000, 12:44:39.695
179, -4640.02, -5340.11, -5202.42, -4630.71, 0.000, 0.000, 0.000, 12:44:39.695
180, -4608.77, -5328.48, -5145.48, -4704.53, 0.000, 0.000, 0.000, 12:44:39.695
181, -4579.88, -5305.30, -5113.94, -4738.64, 0.000, 0.000, 0.000, 12:44:39.709
182, -4627.10, -5311.11, -5194.27, -4615.43, 0.000, 0.000, 0.000, 12:44:39.709
183, -4643.30, -5345.08, -5205.21, -4625.99, 0.000, 0.000, 0.000, 12:44:39.723
184, -4616.14, -5334.79, -5154.52, -4709.00, 0.000, 0.000, 0.000, 12:44:39.723
185, -4586.52, -5303.02, -5120.48, -4734.31, 0.000, 0.000, 0.000, 12:44:39.724
186, -4629.37, -5317.53, -5188.98, -4628.44, 0.000, 0.000, 0.000, 12:44:39.724
187, -4633.00, -5333.22, -5194.70, -4630.84, 0.000, 0.000, 0.000, 12:44:39.739
188, -4612.52, -5333.95, -5152.13, -4700.62, 0.000, 0.000, 0.000, 12:44:39.739
189, -4579.68, -5324.92, -5118.06, -4735.71, 0.000, 0.000, 0.000, 12:44:39.753
190, -4619.35, -5300.90, -5196.35, -4617.76, 0.000, 0.000, 0.000, 12:44:39.753
191, -4639.33, -5324.76, -5193.48, -4630.56, 0.000, 0.000, 0.000, 12:44:39.754
192, -4611.64, -5326.82, -5156.29, -4698.29, 0.000, 0.000, 0.000, 12:44:39.754
193, -4579.08, -5318.14, -5120.17, -4737.09, 0.000, 0.000, 0.000, 12:44:39.769
194, -4627.22, -5309.70, -5184.52, -4626.90, 0.000, 0.000, 0.000, 12:44:39.769
195, -4640.32, -5332.55, -5196.33, -4626.74, 0.000, 0.000, 0.000, 12:44:39.783
196, -4609.53, -5332.21, -5147.34, -4700.60, 0.000, 0.000, 0.000, 12:44:39.783
197, -4585.60, -5318.03, -5107.38, -4740.41, 0.000, 0.000, 0.000, 12:44:39.784
198, -4615.42, -5303.52, -5186.83, -4620.17, 0.000, 0.000, 0.000, 12:44:39.784
199, -4632.48, -5323.05, -5196.10, -4620.49, 0.000, 0.000, 0.000, 12:44:39.798
200, -4599.38, -5324.60, -5148.77, -4698.78, 0.000, 0.000, 0.000, 12:44:39.798
0, -4572.72, -5314.54, -5114.99, -4725.83, 0.000, 0.000, 0.000, 12:44:39.799
1, -4613.54, -5306.76, -5185.11, -4615.17, 0.000, 0.000, 0.000, 12:44:39.815
2, -4632.99, -5338.29, -5179.25, -4619.31, 0.000, 0.000, 0.000, 12:44:39.815
3, -4607.20, -5339.41, -5154.76, -4694.95, 0.000, 0.000, 0.000, 12:44:39.829
4, -4576.24, -5317.71, -5107.22, -4726.44, 0.000, 0.000, 0.000, 12:44:39.829
5, -4621.96, -5309.35, -5196.73, -4616.62, 0.000, 0.000, 0.000, 12:44:39.829
6, -4651.15, -5337.54, -5196.31, -4638.34, 0.000, 0.000, 0.000, 12:44:39.829
7, -4606.48, -5328.44, -5159.60, -4696.79, 0.000, 0.000, 0.000, 12:44:39.845
8, -4582.27, -5308.92, -5110.22, -4726.67, 0.000, 0.000, 0.000, 12:44:39.845
9, -4624.35, -5306.98, -5194.63, -4624.84, 0.000, 0.000, 0.000, 12:44:39.858
10, -4637.33, -5331.89, -5203.30, -4629.56, 0.000, 0.000, 0.000, 12:44:39.858
11, -4605.73, -5333.88, -5149.14, -4699.17, 0.000, 0.000, 0.000, 12:44:39.859
12, -4584.71, -5318.29, -5118.73, -4734.64, 0.000, 0.000, 0.000, 12:44:39.859
13, -4628.49, -5322.39, -5208.96, -4623.66, 0.000, 0.000, 0.000, 12:44:39.874
14, -4656.25, -5354.41, -5201.64, -4641.06, 0.000, 0.000, 0.000, 12:44:39.874
15, -4611.01, -5323.90, -5141.46, -4711.53, 0.000, 0.000, 0.000, 12:44:39.888
16, -4581.23, -5309.44, -5114.58, -4727.46, 0.000, 0.000, 0.000, 12:44:39.888
17, -4626.02, -5312.81, -5190.89, -4616.96, 0.000, 0.000, 0.000, 12:44:39.889
18, -4640.46, -5353.78, -5196.52, -4630.80, 0.000, 0.000, 0.000, 12:44:39.889
19, -4610.97, -5330.98, -5151.95, -4702.75, 0.000, 0.000, 0.000, 12:44:39.904
20, -4586.36, -5304.91, -5121.88, -4739.50, 0.000, 0.000, 0.000, 12:44:39.904
21, -4628.67, -5308.76, -5195.03, -4614.55, 0.000, 0.000, 0.000, 12:44:39.918
22, -4631.45, -5324.62, -5182.43, -4630.77, 0.000, 0.000, 0.000, 12:44:39.918
23, -4600.28, -5331.61, -5145.37, -4692.01, 0.000, 0.000, 0.000, 12:44:39.919
24, -4579.18, -5311.77, -5117.36, -4730.02, 0.000, 0.000, 0.000, 12:44:39.919
25, -4624.32, -5311.10, -5183.51, -4610.31, 0.000, 0.000, 0.000, 12:44:39.933
26, -4644.79, -5349.64, -5196.56, -4632.28, 0.000, 0.000, 0.000, 12:44:39.933
27, -4616.01, -5331.98, -5152.02, -4700.48, 0.000, 0.000, 0.000, 12:44:39.949
28, -4588.12, -5317.62, -5118.85, -4737.48, 0.000, 0.000, 0.000, 12:44:39.949
29, -4622.45, -5310.61, -5186.96, -4609.22, 0.000, 0.000, 0.000, 12:44:39.949
30, -4634.28, -5335.94, -5193.31, -4632.93, 0.000, 0.000, 0.000, 12:44:39.949
31, -4611.16, -5342.76, -5158.33, -4705.21, 0.000, 0.000, 0.000, 12:44:39.964
32, -4586.77, -5313.17, -5130.24, -4733.96, 0.000, 0.000, 0.000, 12:44:39.964
33, -4623.00, -5309.67, -5191.64, -4607.19, 0.000, 0.000, 0.000, 12:44:39.979
34, -4628.01, -5335.40, -5196.06, -4628.16, 0.000, 0.000, 0.000, 12:44:39.979
35, -4596.62, -5325.10, -5145.30, -4704.36, 0.000, 0.000, 0.000, 12:44:39.979
36, -4571.38, -5300.36, -5108.09, -4732.91, 0.000, 0.000, 0.000, 12:44:39.979
37, -4617.18, -5305.48, -5179.56, -4618.97, 0.000, 0.000, 0.000, 12:44:39.994
38, -4634.50, -5330.73, -5192.85, -4626.83, 0.000, 0.000, 0.000, 12:44:39.994
39, -4597.99, -5323.39, -5146.11, -4709.54, 0.000, 0.000, 0.000, 12:44:40.009
40, -4573.18, -5312.79, -5121.47, -4722.54, 0.000, 0.000, 0.000, 12:44:40.009
41, -4617.55, -5319.84, -5191.42, -4613.93, 0.000, 0.000, 0.000, 12:44:40.010
42, -4633.74, -5339.09, -5201.51, -4630.38, 0.000, 0.000, 0.000, 12:44:40.010
43, -4601.90, -5329.47, -5146.55, -4701.54, 0.000, 0.000, 0.000, 12:44:40.024
44, -4566.38, -5293.88, -5107.34, -4724.83, 0.000, 0.000, 0.000, 12:44:40.024
45, -4629.42, -5316.74, -5191.87, -4615.99, 0.000, 0.000, 0.000, 12:44:40.039
46, -4630.77, -5337.88, -5181.37, -4632.07, 0.000, 0.000, 0.000, 12:44:40.039
47, -4603.90, -5325.38, -5140.86, -4705.70, 0.000, 0.000, 0.000, 12:44:40.039
48, -4576.78, -5296.70, -5116.24, -4741.79, 0.000, 0.000, 0.000, 12:44:40.039
49, -4614.05, -5296.68, -5183.73, -4611.54, 0.000, 0.000, 0.000, 12:44:40.054
50, -4634.66, -5333.40, -5193.37, -4630.47, 0.000, 0.000, 0.000, 12:44:40.054
51, -4604.32, -5338.83, -5142.69, -4703.94, 0.000, 0.000, 0.000, 12:44:40.069
52, -4577.99, -5321.78, -5121.70, -4736.77, 0.000, 0.000, 0.000, 12:44:40.069
53, -4621.47, -5313.33, -5197.04, -4618.89, 0.000, 0.000, 0.000, 12:44:40.069
54, -4641.27, -5333.25, -5196.91, -4638.86, 0.000, 0.000, 0.000, 12:44:40.070
55, -4608.86, -5325.40, -5148.60, -4701.11, 0.000, 0.000, 0.000, 12:44:40.083
56, -4589.65, -5313.73, -5129.34, -4748.58, 0.000, 0.000, 0.000, 12:44:40.083
57, -4624.14, -5304.66, -5194.73, -4611.02, 0.000, 0.000, 0.000, 12:44:40.099
58, -4644.50, -5341.24, -5196.18, -4635.61, 0.000, 0.000, 0.000, 12:44:40.099
59, -4596.81, -5327.45, -5140.30, -4708.95, 0.000, 0.000, 0.000, 12:44:40.099
60, -4587.71, -5324.36, -5127.39, -4738.68, 0.000, 0.000, 0.000, 12:44:40.099
61, -4623.86, -5308.04, -5187.91, -4620.98, 0.000, 0.000, 0.000, 12:44:40.114
62, -4625.92, -5332.57, -5185.12, -4630.55, 0.000, 0.000, 0.000, 12:44:40.114
63, -4600.36, -5328.38, -5145.36, -4701.27, 0.000, 0.000, 0.000, 12:44:40.129
64, -4578.53, -5318.74, -5123.70, -4735.52, 0.000, 0.000, 0.000, 12:44:40.129
65, -4624.55, -5304.91, -5194.89, -4620.52, 0.000, 0.000, 0.000, 12:44:40.130
66, -4639.87, -5339.09, -5206.79, -4637.36, 0.000, 0.000, 0.000, 12:44:40.130
67, -4601.92, -5329.81, -5145.61, -4709.25, 0.000, 0.000, 0.000, 12:44:40.144
68, -4583.43, -5312.42, -5112.97, -4745.47, 0.000, 0.000, 0.000, 12:44:40.145
69, -4618.48, -5309.17, -5190.32, -4621.62, 0.000, 0.000, 0.000, 12:44:40.159
70, -4638.01, -5333.23, -5195.24, -4639.03, 0.000, 0.000, 0.000, 12:44:40.159
71, -4601.06, -5333.46, -5148.86, -4707.48, 0.000, 0.000, 0.000, 12:44:40.159
72, -4571.87, -5308.36, -5107.60, -4728.67, 0.000, 0.000, 0.000, 12:44:40.159
73, -4623.50, -5316.53, -5199.06, -4610.09, 0.000, 0.000, 0.000, 12:44:40.189
74, -4632.13, -5340.38, -5199.21, -4629.50, 0.000, 0.000, 0.000, 12:44:40.189
75, -4603.18, -5332.06, -5155.06, -4709.55, 0.000, 0.000, 0.000, 12:44:40.189
76, -4577.66, -5308.48, -5119.35, -4726.35, 0.000, 0.000, 0.000, 12:44:40.189
77, -4635.32, -5322.01, -5194.40, -4618.40, 0.000, 0.000, 0.000, 12:44:40.190
78, -4636.94, -5346.01, -5189.74, -4634.79, 0.000, 0.000, 0.000, 12:44:40.190
79, -4602.48, -5329.19, -5154.02, -4701.46, 0.000, 0.000, 0.000, 12:44:40.204
80, -4586.30, -5326.10, -5127.62, -4737.87, 0.000, 0.000, 0.000, 12:44:40.204
81, -4624.73, -5316.88, -5196.38, -4607.67, 0.000, 0.000, 0.000, 12:44:40.219
82, -4634.11, -5352.37, -5196.62, -4633.96, 0.000, 0.000, 0.000, 12:44:40.219
83, -4594.84, -5320.40, -5143.60, -4700.06, 0.000, 0.000, 0.000, 12:44:40.219
84, -4565.46, -5297.40, -5113.18, -4723.89, 0.000, 0.000, 0.000, 12:44:40.219
85, -4618.53, -5311.41, -5189.24, -4607.81, 0.000, 0.000, 0.000, 12:44:40.234
86, -4633.39, -5330.01, -5191.59, -4627.00, 0.000, 0.000, 0.000, 12:44:40.234
87, -4596.70, -5321.30, -5146.00, -4703.18, 0.000, 0.000, 0.000, 12:44:40.248
88, -4572.45, -5299.04, -5105.41, -4721.41, 0.000, 0.000, 0.000, 12:44:40.248
89, -4626.70, -5313.26, -5195.06, -4611.70, 0.000, 0.000, 0.000, 12:44:40.249
90, -4635.06, -5337.17, -5193.88, -4635.39, 0.000, 0.000, 0.000, 12:44:40.249
91, -4596.74, -5326.16, -5139.04, -4704.32, 0.000, 0.000, 0.000, 12:44:40.264
92, -4578.89, -5308.03, -5114.97, -4727.00, 0.000, 0.000, 0.000, 12:44:40.264
93, -4620.29, -5304.11, -5186.46, -4610.83, 0.000, 0.000, 0.000, 12:44:40.279
94, -4632.02, -5326.93, -5189.02, -4627.48, 0.000, 0.000, 0.000, 12:44:40.279
95, -4595.38, -5327.58, -5149.69, -4709.50, 0.000, 0.000, 0.000, 12:44:40.279
96, -4572.90, -5306.45, -5114.97, -4737.72, 0.000, 0.000, 0.000, 12:44:40.280
97, -4619.12, -5310.08, -5188.73, -4611.03, 0.000, 0.000, 0.000, 12:44:40.295
98, -4644.02, -5338.65, -5188.71, -4637.58, 0.000, 0.000, 0.000, 12:44:40.295
99, -4609.72, -5326.63, -5142.77, -4700.37, 0.000, 0.000, 0.000, 12:44:40.308
100, -4572.94, -5298.80, -5103.38, -4724.73, 0.000, 0.000, 0.000, 12:44:40.309
