%OpenBCI Raw EEG Data
%
%Sample Rate = 200.0 Hz
%First Column = SampleIndex
%Last Column = Timestamp 
%Other Columns = EEG data in microvolts followed by Accel Data (in G) interleaved with Aux Data
0, -4696.93, -5361.77, -5214.49, -4678.35, 0.000, 0.000, 0.000, 12:42:39.753
1, -4688.18, -5337.17, -5203.19, -4690.55, 0.000, 0.000, 0.000, 12:42:39.767
2, -4682.16, -5338.31, -5197.62, -4696.86, 0.000, 0.000, 0.000, 12:42:39.767
3, -4694.43, -5366.60, -5198.35, -4697.05, 0.000, 0.000, 0.000, 12:42:39.783
4, -4651.58, -5316.88, -5178.26, -4661.97, 0.000, 0.000, 0.000, 12:42:39.783
5, -4630.25, -5300.76, -5151.32, -4654.05, 0.000, 0.000, 0.000, 12:42:39.784
6, -4633.02, -5313.55, -5149.89, -4655.51, 0.000, 0.000, 0.000, 12:42:39.784
7, -4647.73, -5338.94, -5163.45, -4668.41, 0.000, 0.000, 0.000, 12:42:39.798
8, -4615.60, -5287.59, -5134.03, -4637.98, 0.000, 0.000, 0.000, 12:42:39.798
9, -4602.17, -5282.53, -5132.37, -4608.75, 0.000, 0.000, 0.000, 12:42:39.813
10, -4613.03, -5295.84, -5167.84, -4635.23, 0.000, 0.000, 0.000, 12:42:39.813
11, -4614.48, -5322.36, -5141.67, -4647.41, 0.000, 0.000, 0.000, 12:42:39.813
12, -4578.43, -5267.77, -5109.94, -4601.26, 0.000, 0.000, 0.000, 12:42:39.813
13, -4576.62, -5276.56, -5100.43, -4589.90, 0.000, 0.000, 0.000, 12:42:39.828
14, -4593.14, -5280.96, -5111.71, -4617.55, 0.000, 0.000, 0.000, 12:42:39.828
15, -4602.38, -5295.75, -5178.91, -4635.74, 0.000, 0.000, 0.000, 12:42:39.843
16, -4568.63, -5274.54, -5106.01, -4596.41, 0.000, 0.000, 0.000, 12:42:39.843
17, -4564.30, -5250.63, -5084.33, -4597.72, 0.000, 0.000, 0.000, 12:42:39.844
18, -4581.51, -5275.54, -5114.43, -4613.25, 0.000, 0.000, 0.000, 12:42:39.844
19, -4588.09, -5296.04, -5119.20, -4616.26, 0.000, 0.000, 0.000, 12:42:39.858
20, -4553.77, -5266.22, -5097.65, -4591.91, 0.000, 0.000, 0.000, 12:42:39.858
21, -4525.54, -5237.59, -5083.72, -4568.97, 0.000, 0.000, 0.000, 12:42:39.873
22, -4555.98, -5266.82, -5137.46, -4608.38, 0.000, 0.000, 0.000, 12:42:39.873
23, -4575.51, -5313.60, -5102.60, -4630.35, 0.000, 0.000, 0.000, 12:42:39.874
24, -4528.78, -5245.30, -5065.88, -4571.58, 0.000, 0.000, 0.000, 12:42:39.874
25, -4517.74, -5224.73, -5072.50, -4575.41, 0.000, 0.000, 0.000, 12:42:39.888
26, -4542.79, -5265.18, -5096.94, -4588.89, 0.000, 0.000, 0.000, 12:42:39.888
27, -4578.72, -5317.74, -5132.95, -4613.66, 0.000, 0.000, 0.000, 12:42:39.903
28, -4542.30, -5285.65, -5130.35, -4582.70, 0.000, 0.000, 0.000, 12:42:39.903
29, -4562.37, -5273.26, -5143.18, -4593.22, 0.000, 0.000, 0.000, 12:42:39.903
30, -4584.31, -5298.67, -5096.30, -4627.23, 0.000, 0.000, 0.000, 12:42:39.903
31, -4576.70, -5302.86, -5102.91, -4623.60, 0.000, 0.000, 0.000, 12:42:39.918
32, -4554.81, -5284.84, -5124.25, -4610.73, 0.000, 0.000, 0.000, 12:42:39.918
33, -4557.47, -5264.38, -5106.40, -4604.20, 0.000, 0.000, 0.000, 12:42:39.932
34, -4555.03, -5280.66, -5092.98, -4602.26, 0.000, 0.000, 0.000, 12:42:39.933
35, -4562.34, -5297.80, -5100.72, -4613.93, 0.000, 0.000, 0.000, 12:42:39.933
36, -4487.41, -5197.64, -5048.10, -4552.50, 0.000, 0.000, 0.000, 12:42:39.933
37, -4518.69, -5252.17, -5086.30, -4571.88, 0.000, 0.000, 0.000, 12:42:39.948
38, -4533.18, -5277.14, -5094.65, -4583.11, 0.000, 0.000, 0.000, 12:42:39.948
39, -4554.24, -5274.50, -5088.38, -4603.97, 0.000, 0.000, 0.000, 12:42:39.963
40, -4505.09, -5220.31, -5043.81, -4553.66, 0.000, 0.000, 0.000, 12:42:39.963
41, -4528.06, -5232.37, -5078.00, -4557.34, 0.000, 0.000, 0.000, 12:42:39.963
42, -4551.40, -5258.71, -5081.08, -4582.50, 0.000, 0.000, 0.000, 12:42:39.963
43, -4553.25, -5261.54, -5085.88, -4590.70, 0.000, 0.000, 0.000, 12:42:39.979
44, -4527.03, -5227.56, -5063.70, -4562.81, 0.000, 0.000, 0.000, 12:42:39.979
45, -4527.81, -5239.56, -5065.94, -4576.60, 0.000, 0.000, 0.000, 12:42:39.993
46, -4537.45, -5249.44, -5070.42, -4576.70, 0.000, 0.000, 0.000, 12:42:39.993
47, -4557.25, -5291.44, -5094.34, -4593.91, 0.000, 0.000, 0.000, 12:42:39.994
48, -4519.75, -5234.00, -5099.47, -4562.99, 0.000, 0.000, 0.000, 12:42:39.994
49, -4512.99, -5234.65, -5035.38, -4567.48, 0.000, 0.000, 0.000, 12:42:40.008
50, -4545.20, -5257.11, -5066.87, -4594.67, 0.000, 0.000, 0.000, 12:42:40.009
51, -4574.40, -5284.98, -5108.39, -4614.19, 0.000, 0.000, 0.000, 12:42:40.026
52, -4532.82, -5233.03, -5059.89, -4578.06, 0.000, 0.000, 0.000, 12:42:40.026
53, -4523.83, -5221.52, -5106.37, -4576.60, 0.000, 0.000, 0.000, 12:42:40.026
54, -4554.14, -5266.76, -5070.21, -4594.40, 0.000, 0.000, 0.000, 12:42:40.026
55, -4587.99, -5305.70, -5106.69, -4614.61, 0.000, 0.000, 0.000, 12:42:40.038
56, -4526.42, -5227.95, -5057.68, -4567.84, 0.000, 0.000, 0.000, 12:42:40.038
57, -4529.92, -5248.18, -5083.80, -4563.28, 0.000, 0.000, 0.000, 12:42:40.053
58, -4556.41, -5264.36, -5091.53, -4592.77, 0.000, 0.000, 0.000, 12:42:40.053
59, -4577.71, -5279.84, -5117.02, -4599.91, 0.000, 0.000, 0.000, 12:42:40.053
60, -4533.02, -5234.74, -5074.25, -4569.82, 0.000, 0.000, 0.000, 12:42:40.054
61, -4529.75, -5242.67, -5044.92, -4567.68, 0.000, 0.000, 0.000, 12:42:40.068
62, -4562.68, -5252.80, -5084.60, -4586.73, 0.000, 0.000, 0.000, 12:42:40.068
63, -4579.83, -5290.86, -5134.09, -4602.69, 0.000, 0.000, 0.000, 12:42:40.083
64, -4542.89, -5214.63, -5089.42, -4569.10, 0.000, 0.000, 0.000, 12:42:40.083
65, -4539.51, -5224.92, -5053.51, -4567.40, 0.000, 0.000, 0.000, 12:42:40.083
66, -4550.75, -5223.49, -5072.42, -4563.84, 0.000, 0.000, 0.000, 12:42:40.084
67, -4567.44, -5254.73, -5075.75, -4588.83, 0.000, 0.000, 0.000, 12:42:40.098
68, -4535.39, -5201.32, -5070.99, -4571.94, 0.000, 0.000, 0.000, 12:42:40.098
69, -4538.93, -5232.61, -5087.22, -4577.12, 0.000, 0.000, 0.000, 12:42:40.113
70, -4564.83, -5265.88, -5086.30, -4575.42, 0.000, 0.000, 0.000, 12:42:40.113
71, -4579.08, -5263.69, -5090.12, -4593.32, 0.000, 0.000, 0.000, 12:42:40.113
72, -4527.58, -5183.99, -5045.77, -4562.05, 0.000, 0.000, 0.000, 12:42:40.113
73, -4532.40, -5209.31, -5071.50, -4560.59, 0.000, 0.000, 0.000, 12:42:40.128
74, -4553.09, -5233.35, -5107.30, -4584.43, 0.000, 0.000, 0.000, 12:42:40.129
75, -4576.40, -5257.18, -5119.24, -4603.60, 0.000, 0.000, 0.000, 12:42:40.143
76, -4538.13, -5226.35, -5054.91, -4573.89, 0.000, 0.000, 0.000, 12:42:40.143
77, -4541.58, -5231.68, -5078.33, -4560.68, 0.000, 0.000, 0.000, 12:42:40.143
78, -4561.97, -5260.12, -5092.51, -4586.79, 0.000, 0.000, 0.000, 12:42:40.144
79, -4603.19, -5317.36, -5133.65, -4624.28, 0.000, 0.000, 0.000, 12:42:40.164
80, -4571.89, -5258.81, -5081.41, -4596.62, 0.000, 0.000, 0.000, 12:42:40.164
81, -4521.00, -5226.88, -5067.53, -4558.10, 0.000, 0.000, 0.000, 12:42:40.173
82, -4565.16, -5279.35, -5126.33, -4599.84, 0.000, 0.000, 0.000, 12:42:40.173
83, -4584.36, -5295.39, -5100.47, -4614.98, 0.000, 0.000, 0.000, 12:42:40.174
84, -4562.25, -5255.16, -5083.56, -4592.55, 0.000, 0.000, 0.000, 12:42:40.174
85, -4547.97, -5255.10, -5064.82, -4583.99, 0.000, 0.000, 0.000, 12:42:40.188
86, -4582.45, -5284.41, -5110.44, -4605.23, 0.000, 0.000, 0.000, 12:42:40.188
87, -4600.28, -5336.24, -5111.14, -4620.71, 0.000, 0.000, 0.000, 12:42:40.203
88, -4566.62, -5262.36, -5128.07, -4593.72, 0.000, 0.000, 0.000, 12:42:40.203
89, -4538.09, -5250.66, -5071.56, -4565.14, 0.000, 0.000, 0.000, 12:42:40.203
90, -4583.20, -5294.13, -5100.58, -4601.70, 0.000, 0.000, 0.000, 12:42:40.204
91, -4588.99, -5300.35, -5100.15, -4604.46, 0.000, 0.000, 0.000, 12:42:40.217
92, -4544.36, -5237.81, -5075.73, -4581.69, 0.000, 0.000, 0.000, 12:42:40.217
93, -4536.84, -5233.07, -5071.30, -4579.80, 0.000, 0.000, 0.000, 12:42:40.233
94, -4566.83, -5296.22, -5137.83, -4588.10, 0.000, 0.000, 0.000, 12:42:40.233
95, -4576.10, -5316.51, -5108.40, -4594.95, 0.000, 0.000, 0.000, 12:42:40.233
96, -4545.36, -5223.59, -5071.31, -4581.12, 0.000, 0.000, 0.000, 12:42:40.233
97, -4521.71, -5226.25, -5069.91, -4567.51, 0.000, 0.000, 0.000, 12:42:40.247
98, -4562.87, -5260.98, -5068.40, -4588.40, 0.000, 0.000, 0.000, 12:42:40.248
99, -4572.38, -5255.65, -5087.57, -4599.31, 0.000, 0.000, 0.000, 12:42:40.262
100, -4533.48, -5210.93, -5071.50, -4573.33, 0.000, 0.000, 0.000, 12:42:40.262
101, -4542.54, -5219.76, -5060.83, -4567.76, 0.000, 0.000, 0.000, 12:42:40.263
102, -4571.14, -5274.74, -5100.64, -4593.71, 0.000, 0.000, 0.000, 12:42:40.263
103, -4598.79, -5315.33, -5141.91, -4620.32, 0.000, 0.000, 0.000, 12:42:40.279
104, -4546.43, -5242.05, -5096.48, -4569.03, 0.000, 0.000, 0.000, 12:42:40.279
105, -4545.34, -5244.52, -5087.41, -4582.44, 0.000, 0.000, 0.000, 12:42:40.293
106, -4568.93, -5281.51, -5084.95, -4587.97, 0.000, 0.000, 0.000, 12:42:40.293
107, -4588.51, -5286.19, -5112.17, -4610.75, 0.000, 0.000, 0.000, 12:42:40.293
108, -4550.18, -5237.70, -5084.16, -4579.28, 0.000, 0.000, 0.000, 12:42:40.293
109, -4550.81, -5235.05, -5102.24, -4569.19, 0.000, 0.000, 0.000, 12:42:40.309
110, -4572.37, -5282.42, -5118.40, -4589.27, 0.000, 0.000, 0.000, 12:42:40.309
111, -4592.77, -5304.82, -5118.73, -4608.45, 0.000, 0.000, 0.000, 12:42:40.323
112, -4546.85, -5222.62, -5063.37, -4564.30, 0.000, 0.000, 0.000, 12:42:40.323
113, -4543.46, -5224.81, -5061.61, -4566.90, 0.000, 0.000, 0.000, 12:42:40.324
114, -4554.76, -5232.93, -5098.36, -4593.18, 0.000, 0.000, 0.000, 12:42:40.324
115, -4577.03, -5270.71, -5118.01, -4602.48, 0.000, 0.000, 0.000, 12:42:40.338
116, -4537.22, -5226.14, -5070.64, -4566.76, 0.000, 0.000, 0.000, 12:42:40.338
117, -4515.75, -5214.92, -5043.53, -4546.92, 0.000, 0.000, 0.000, 12:42:40.353
118, -4543.69, -5232.97, -5084.07, -4584.82, 0.000, 0.000, 0.000, 12:42:40.353
119, -4593.44, -5264.47, -5105.50, -4614.80, 0.000, 0.000, 0.000, 12:42:40.353
120, -4537.72, -5204.04, -5082.70, -4578.27, 0.000, 0.000, 0.000, 12:42:40.353
121, -4517.10, -5192.22, -5051.96, -4551.78, 0.000, 0.000, 0.000, 12:42:40.367
122, -4557.53, -5248.60, -5074.86, -4572.15, 0.000, 0.000, 0.000, 12:42:40.368
123, -4582.06, -5250.56, -5105.89, -4598.35, 0.000, 0.000, 0.000, 12:42:40.382
124, -4545.00, -5224.00, -5091.54, -4580.75, 0.000, 0.000, 0.000, 12:42:40.382
125, -4532.48, -5222.25, -5070.49, -4574.08, 0.000, 0.000, 0.000, 12:42:40.384
126, -4556.61, -5241.71, -5084.50, -4570.72, 0.000, 0.000, 0.000, 12:42:40.384
127, -4597.41, -5288.51, -5115.55, -4602.37, 0.000, 0.000, 0.000, 12:42:40.398
128, -4541.10, -5228.23, -5068.17, -4556.41, 0.000, 0.000, 0.000, 12:42:40.398
129, -4525.64, -5227.07, -5066.09, -4561.30, 0.000, 0.000, 0.000, 12:42:40.412
130, -4553.49, -5249.08, -5100.46, -4598.43, 0.000, 0.000, 0.000, 12:42:40.412
131, -4584.76, -5287.55, -5109.48, -4613.94, 0.000, 0.000, 0.000, 12:42:40.413
132, -4545.15, -5241.31, -5064.72, -4571.24, 0.000, 0.000, 0.000, 12:42:40.413
133, -4543.17, -5241.56, -5081.33, -4572.70, 0.000, 0.000, 0.000, 12:42:40.429
134, -4571.16, -5293.48, -5118.48, -4614.93, 0.000, 0.000, 0.000, 12:42:40.429
135, -4586.13, -5303.07, -5128.52, -4621.91, 0.000, 0.000, 0.000, 12:42:40.443
136, -4537.50, -5245.68, -5063.84, -4585.33, 0.000, 0.000, 0.000, 12:42:40.443
137, -4525.58, -5234.22, -5065.73, -4574.54, 0.000, 0.000, 0.000, 12:42:40.443
138, -4567.47, -5299.37, -5098.82, -4598.36, 0.000, 0.000, 0.000, 12:42:40.444
139, -4579.14, -5309.84, -5138.66, -4614.67, 0.000, 0.000, 0.000, 12:42:40.459
140, -4528.43, -5241.19, -5077.51, -4560.59, 0.000, 0.000, 0.000, 12:42:40.459
141, -4516.09, -5208.64, -5025.32, -4565.55, 0.000, 0.000, 0.000, 12:42:40.473
142, -4557.48, -5258.16, -5081.84, -4589.13, 0.000, 0.000, 0.000, 12:42:40.473
143, -4596.13, -5305.52, -5137.30, -4627.48, 0.000, 0.000, 0.000, 12:42:40.474
144, -4544.77, -5249.59, -5109.92, -4566.38, 0.000, 0.000, 0.000, 12:42:40.474
145, -4530.62, -5244.65, -5094.44, -4571.49, 0.000, 0.000, 0.000, 12:42:40.488
146, -4559.70, -5272.30, -5076.36, -4591.62, 0.000, 0.000, 0.000, 12:42:40.488
147, -4575.36, -5279.08, -5100.55, -4606.31, 0.000, 0.000, 0.000, 12:42:40.502
148, -4520.97, -5212.55, -5058.79, -4573.86, 0.000, 0.000, 0.000, 12:42:40.502
149, -4524.73, -5224.68, -5078.46, -4558.89, 0.000, 0.000, 0.000, 12:42:40.503
150, -4553.86, -5261.29, -5103.53, -4589.76, 0.000, 0.000, 0.000, 12:42:40.503
151, -4577.34, -5290.89, -5114.08, -4604.96, 0.000, 0.000, 0.000, 12:42:40.524
152, -4536.88, -5229.02, -5072.18, -4578.09, 0.000, 0.000, 0.000, 12:42:40.525
153, -4524.71, -5221.39, -5057.36, -4568.73, 0.000, 0.000, 0.000, 12:42:40.533
154, -4549.39, -5268.02, -5082.93, -4593.32, 0.000, 0.000, 0.000, 12:42:40.533
155, -4569.00, -5293.84, -5123.66, -4614.50, 0.000, 0.000, 0.000, 12:42:40.533
156, -4534.09, -5234.70, -5082.24, -4569.95, 0.000, 0.000, 0.000, 12:42:40.533
157, -4555.12, -5270.24, -5080.05, -4582.23, 0.000, 0.000, 0.000, 12:42:40.547
158, -4566.44, -5281.01, -5083.08, -4594.39, 0.000, 0.000, 0.000, 12:42:40.548
159, -4580.87, -5300.85, -5110.52, -4603.14, 0.000, 0.000, 0.000, 12:42:40.563
160, -4524.98, -5214.39, -5076.82, -4565.29, 0.000, 0.000, 0.000, 12:42:40.563
161, -4538.13, -5232.44, -5080.56, -4572.73, 0.000, 0.000, 0.000, 12:42:40.564
162, -4575.43, -5280.78, -5095.21, -4617.10, 0.000, 0.000, 0.000, 12:42:40.564
163, -4581.90, -5285.17, -5102.80, -4600.31, 0.000, 0.000, 0.000, 12:42:40.579
164, -4539.58, -5232.84, -5078.38, -4575.26, 0.000, 0.000, 0.000, 12:42:40.579
165, -4531.44, -5234.59, -5094.63, -4552.48, 0.000, 0.000, 0.000, 12:42:40.592
166, -4560.89, -5272.49, -5079.64, -4598.51, 0.000, 0.000, 0.000, 12:42:40.593
167, -4582.02, -5311.86, -5111.12, -4618.61, 0.000, 0.000, 0.000, 12:42:40.593
168, -4535.72, -5205.62, -5066.26, -4571.51, 0.000, 0.000, 0.000, 12:42:40.593
169, -4533.52, -5214.18, -5086.70, -4564.21, 0.000, 0.000, 0.000, 12:42:40.608
170, -4565.88, -5268.70, -5105.56, -4595.25, 0.000, 0.000, 0.000, 12:42:40.608
171, -4565.19, -5272.17, -5094.47, -4599.49, 0.000, 0.000, 0.000, 12:42:40.624
172, -4527.16, -5225.82, -5063.26, -4558.98, 0.000, 0.000, 0.000, 12:42:40.624
173, -4517.94, -5204.83, -5053.14, -4540.29, 0.000, 0.000, 0.000, 12:42:40.624
174, -4557.84, -5268.24, -5105.42, -4611.52, 0.000, 0.000, 0.000, 12:42:40.624
175, -4585.13, -5303.65, -5112.82, -4609.59, 0.000, 0.000, 0.000, 12:42:40.638
176, -4534.31, -5229.33, -5065.25, -4566.22, 0.000, 0.000, 0.000, 12:42:40.638
177, -4532.38, -5226.52, -5055.86, -4562.92, 0.000, 0.000, 0.000, 12:42:40.653
178, -4571.95, -5278.79, -5098.09, -4600.22, 0.000, 0.000, 0.000, 12:42:40.653
179, -4600.63, -5310.77, -5141.28, -4624.55, 0.000, 0.000, 0.000, 12:42:40.654
180, -4535.72, -5221.17, -5092.66, -4567.73, 0.000, 0.000, 0.000, 12:42:40.654
181, -4535.65, -5261.14, -5073.52, -4551.21, 0.000, 0.000, 0.000, 12:42:40.668
182, -4559.46, -5269.78, -5070.68, -4586.53, 0.000, 0.000, 0.000, 12:42:40.668
183, -4606.70, -5303.81, -5135.65, -4634.30, 0.000, 0.000, 0.000, 12:42:40.683
184, -4549.54, -5236.42, -5098.66, -4559.72, 0.000, 0.000, 0.000, 12:42:40.684
185, -4556.47, -5255.83, -5071.66, -4570.39, 0.000, 0.000, 0.000, 12:42:40.684
186, -4573.11, -5258.54, -5070.31, -4598.90, 0.000, 0.000, 0.000, 12:42:40.684
187, -4585.91, -5279.85, -5098.31, -4601.52, 0.000, 0.000, 0.000, 12:42:40.698
188, -4537.14, -5201.94, -5055.81, -4550.23, 0.000, 0.000, 0.000, 12:42:40.698
189, -4540.24, -5207.65, -5078.53, -4543.36, 0.000, 0.000, 0.000, 12:42:40.712
190, -4569.62, -5289.79, -5097.78, -4583.24, 0.000, 0.000, 0.000, 12:42:40.712
191, -4584.55, -5262.52, -5118.22, -4614.60, 0.000, 0.000, 0.000, 12:42:40.713
192, -4530.22, -5189.50, -5055.25, -4531.74, 0.000, 0.000, 0.000, 12:42:40.713
193, -4535.40, -5211.70, -5059.88, -4564.46, 0.000, 0.000, 0.000, 12:42:40.728
194, -4558.04, -5263.17, -5094.39, -4582.13, 0.000, 0.000, 0.000, 12:42:40.729
195, -4612.04, -5307.16, -5125.94, -4643.23, 0.000, 0.000, 0.000, 12:42:40.743
196, -4541.46, -5212.98, -5051.50, -4553.96, 0.000, 0.000, 0.000, 12:42:40.743
197, -4525.46, -5206.26, -5040.72, -4536.80, 0.000, 0.000, 0.000, 12:42:40.744
198, -4562.67, -5262.62, -5105.47, -4594.10, 0.000, 0.000, 0.000, 12:42:40.744
199, -4590.52, -5302.03, -5133.33, -4637.99, 0.000, 0.000, 0.000, 12:42:40.759
200, -4533.57, -5205.76, -5054.17, -4558.42, 0.000, 0.000, 0.000, 12:42:40.759
0, -4514.54, -5196.25, -5035.74, -4556.90, 0.000, 0.000, 0.000, 12:42:40.759
1, -4564.48, -5258.88, -5087.25, -4600.04, 0.000, 0.000, 0.000, 12:42:40.773
2, -4595.13, -5296.31, -5125.24, -4642.23, 0.000, 0.000, 0.000, 12:42:40.773
3, -4548.47, -5211.66, -5054.26, -4545.75, 0.000, 0.000, 0.000, 12:42:40.788
4, -4534.42, -5215.40, -5049.54, -4551.39, 0.000, 0.000, 0.000, 12:42:40.788
5, -4557.81, -5262.57, -5088.30, -4591.30, 0.000, 0.000, 0.000, 12:42:40.788
6, -4597.00, -5295.70, -5127.64, -4640.28, 0.000, 0.000, 0.000, 12:42:40.788
7, -4540.22, -5234.71, -5089.86, -4546.91, 0.000, 0.000, 0.000, 12:42:40.803
8, -4535.28, -5217.89, -5059.08, -4545.48, 0.000, 0.000, 0.000, 12:42:40.803
9, -4567.44, -5281.94, -5088.32, -4602.14, 0.000, 0.000, 0.000, 12:42:40.818
10, -4618.42, -5348.80, -5140.25, -4651.54, 0.000, 0.000, 0.000, 12:42:40.818
11, -4545.78, -5246.90, -5066.33, -4570.31, 0.000, 0.000, 0.000, 12:42:40.818
12, -4510.33, -5221.15, -5050.09, -4548.70, 0.000, 0.000, 0.000, 12:42:40.818
13, -4569.69, -5284.97, -5112.45, -4606.21, 0.000, 0.000, 0.000, 12:42:40.833
14, -4603.46, -5302.05, -5112.62, -4640.62, 0.000, 0.000, 0.000, 12:42:40.833
15, -4530.65, -5213.21, -5055.37, -4549.09, 0.000, 0.000, 0.000, 12:42:40.848
16, -4527.12, -5196.11, -5060.25, -4554.05, 0.000, 0.000, 0.000, 12:42:40.848
17, -4573.14, -5240.13, -5100.57, -4620.40, 0.000, 0.000, 0.000, 12:42:40.849
18, -4602.93, -5274.35, -5109.05, -4641.75, 0.000, 0.000, 0.000, 12:42:40.849
19, -4529.80, -5209.34, -5053.74, -4532.02, 0.000, 0.000, 0.000, 12:42:40.862
20, -4523.87, -5185.28, -5056.50, -4537.03, 0.000, 0.000, 0.000, 12:42:40.863
21, -4569.13, -5250.42, -5101.58, -4604.57, 0.000, 0.000, 0.000, 12:42:40.879
22, -4616.55, -5301.14, -5120.29, -4663.82, 0.000, 0.000, 0.000, 12:42:40.879
23, -4536.96, -5166.87, -5062.80, -4534.46, 0.000, 0.000, 0.000, 12:42:40.879
24, -4522.64, -5192.14, -5049.65, -4523.07, 0.000, 0.000, 0.000, 12:42:40.879
25, -4587.52, -5298.42, -5085.00, -4615.44, 0.000, 0.000, 0.000, 12:42:40.909
26, -4616.28, -5302.18, -5129.76, -4660.09, 0.000, 0.000, 0.000, 12:42:40.909
27, -4553.22, -5206.90, -5069.05, -4550.27, 0.000, 0.000, 0.000, 12:42:40.909
28, -4539.14, -5216.05, -5080.19, -4536.72, 0.000, 0.000, 0.000, 12:42:40.909
29, -4582.90, -5269.65, -5092.29, -4613.24, 0.000, 0.000, 0.000, 12:42:40.909
30, -4621.88, -5326.27, -5126.27, -4661.99, 0.000, 0.000, 0.000, 12:42:40.910
31, -4554.14, -5229.10, -5070.22, -4544.83, 0.000, 0.000, 0.000, 12:42:40.923
32, -4538.17, -5211.59, -5058.42, -4547.80, 0.000, 0.000, 0.000, 12:42:40.923
33, -4574.07, -5258.23, -5106.88, -4616.52, 0.000, 0.000, 0.000, 12:42:40.938
34, -4605.26, -5318.85, -5140.53, -4664.23, 0.000, 0.000, 0.000, 12:42:40.938
35, -4529.19, -5202.53, -5077.05, -4534.01, 0.000, 0.000, 0.000, 12:42:40.938
36, -4528.85, -5207.94, -5047.76, -4538.77, 0.000, 0.000, 0.000, 12:42:40.938
37, -4567.20, -5229.95, -5072.10, -4620.96, 0.000, 0.000, 0.000, 12:42:40.953
38, -4602.14, -5291.80, -5117.11, -4663.57, 0.000, 0.000, 0.000, 12:42:40.953
39, -4529.12, -5191.84, -5069.98, -4525.08, 0.000, 0.000, 0.000, 12:42:40.967
40, -4525.33, -5196.95, -5041.54, -4551.69, 0.000, 0.000, 0.000, 12:42:40.967
41, -4561.70, -5265.17, -5107.24, -4631.58, 0.000, 0.000, 0.000, 12:42:40.968
42, -4613.38, -5307.33, -5128.31, -4663.82, 0.000, 0.000, 0.000, 12:42:40.968
43, -4535.84, -5214.04, -5067.77, -4535.74, 0.000, 0.000, 0.000, 12:42:40.983
44, -4529.11, -5204.90, -5057.93, -4542.63, 0.000, 0.000, 0.000, 12:42:40.983
45, -4569.73, -5266.74, -5139.34, -4628.27, 0.000, 0.000, 0.000, 12:42:40.998
46, -4593.61, -5296.12, -5111.95, -4665.58, 0.000, 0.000, 0.000, 12:42:40.998
47, -4527.55, -5189.12, -5029.04, -4521.38, 0.000, 0.000, 0.000, 12:42:40.999
48, -4528.19, -5221.81, -5053.85, -4530.12, 0.000, 0.000, 0.000, 12:42:40.999
49, -4558.21, -5250.84, -5085.99, -4614.94, 0.000, 0.000, 0.000, 12:42:41.013
50, -4583.33, -5270.70, -5124.33, -4651.84, 0.000, 0.000, 0.000, 12:42:41.013
51, -4532.02, -5207.93, -5094.44, -4523.71, 0.000, 0.000, 0.000, 12:42:41.028
52, -4530.16, -5207.92, -5039.87, -4556.65, 0.000, 0.000, 0.000, 12:42:41.028
53, -4570.17, -5271.23, -5083.35, -4617.48, 0.000, 0.000, 0.000, 12:42:41.029
54, -4608.99, -5308.80, -5126.21, -4665.21, 0.000, 0.000, 0.000, 12:42:41.029
55, -4530.98, -5193.03, -5086.40, -4515.78, 0.000, 0.000, 0.000, 12:42:41.043
56, -4527.18, -5214.14, -5065.40, -4535.25, 0.000, 0.000, 0.000, 12:42:41.043
57, -4566.24, -5272.46, -5101.04, -4612.75, 0.000, 0.000, 0.000, 12:42:41.059
58, -4575.29, -5280.94, -5093.95, -4652.06, 0.000, 0.000, 0.000, 12:42:41.059
59, -4524.97, -5192.13, -5055.33, -4524.59, 0.000, 0.000, 0.000, 12:42:41.059
60, -4536.62, -5221.41, -5073.42, -4530.51, 0.000, 0.000, 0.000, 12:42:41.059
61, -4590.61, -5296.94, -5123.72, -4638.55, 0.000, 0.000, 0.000, 12:42:41.073
62, -4588.06, -5289.40, -5108.77, -4649.55, 0.000, 0.000, 0.000, 12:42:41.073
63, -4520.81, -5200.66, -5073.38, -4517.60, 0.000, 0.000, 0.000, 12:42:41.088
64, -4526.91, -5224.08, -5072.29, -4534.56, 0.000, 0.000, 0.000, 12:42:41.088
65, -4570.08, -5277.03, -5079.17, -4631.11, 0.000, 0.000, 0.000, 12:42:41.088
66, -4584.70, -5295.08, -5123.60, -4662.48, 0.000, 0.000, 0.000, 12:42:41.089
67, -4523.46, -5197.77, -5073.80, -4512.27, 0.000, 0.000, 0.000, 12:42:41.103
68, -4532.37, -5214.34, -5058.76, -4527.96, 0.000, 0.000, 0.000, 12:42:41.103
69, -4580.43, -5292.91, -5099.21, -4633.94, 0.000, 0.000, 0.000, 12:42:41.118
70, -4591.15, -5297.79, -5111.09, -4671.50, 0.000, 0.000, 0.000, 12:42:41.118
71, -4522.15, -5189.33, -5050.83, -4504.91, 0.000, 0.000, 0.000, 12:42:41.118
72, -4552.87, -5228.44, -5068.73, -4544.31, 0.000, 0.000, 0.000, 12:42:41.118
73, -4568.18, -5279.01, -5102.97, -4628.53, 0.000, 0.000, 0.000, 12:42:41.132
74, -4588.59, -5293.37, -5131.64, -4660.80, 0.000, 0.000, 0.000, 12:42:41.132
75, -4529.10, -5194.92, -5036.67, -4501.41, 0.000, 0.000, 0.000, 12:42:41.148
76, -4536.69, -5223.54, -5051.42, -4539.32, 0.000, 0.000, 0.000, 12:42:41.148
77, -4570.33, -5283.61, -5089.36, -4625.88, 0.000, 0.000, 0.000, 12:42:41.149
78, -4603.99, -5298.88, -5130.00, -4669.62, 0.000, 0.000, 0.000, 12:42:41.149
79, -4523.51, -5176.63, -5048.06, -4499.72, 0.000, 0.000, 0.000, 12:42:41.163
80, -4554.51, -5242.19, -5071.57, -4553.44, 0.000, 0.000, 0.000, 12:42:41.163
81, -4583.02, -5296.59, -5094.91, -4631.86, 0.000, 0.000, 0.000, 12:42:41.178
82, -4583.94, -5290.88, -5111.04, -4679.21, 0.000, 0.000, 0.000, 12:42:41.179
83, -4523.00, -5212.17, -5074.57, -4495.71, 0.000, 0.000, 0.000, 12:42:41.179
84, -4536.26, -5240.99, -5072.83, -4532.40, 0.000, 0.000, 0.000, 12:42:41.179
85, -4578.82, -5280.31, -5091.99, -4633.14, 0.000, 0.000, 0.000, 12:42:41.193
86, -4594.71, -5291.50, -5106.04, -4671.35, 0.000, 0.000, 0.000, 12:42:41.193
87, -4527.20, -5185.74, -5039.51, -4488.54, 0.000, 0.000, 0.000, 12:42:41.208
88, -4540.91, -5224.84, -5071.12, -4532.90, 0.000, 0.000, 0.000, 12:42:41.208
89, -4577.28, -5305.83, -5108.27, -4634.16, 0.000, 0.000, 0.000, 12:42:41.208
90, -4574.60, -5301.25, -5105.11, -4655.92, 0.000, 0.000, 0.000, 12:42:41.208
91, -4526.37, -5188.19, -5048.62, -4505.09, 0.000, 0.000, 0.000, 12:42:41.223
92, -4548.85, -5221.04, -5094.14, -4550.28, 0.000, 0.000, 0.000, 12:42:41.223
93, -4581.08, -5295.84, -5103.21, -4630.93, 0.000, 0.000, 0.000, 12:42:41.238
94, -4596.50, -5307.13, -5114.05, -4666.99, 0.000, 0.000, 0.000, 12:42:41.238
95, -4542.62, -5212.78, -5078.66, -4498.08, 0.000, 0.000, 0.000, 12:42:41.239
96, -4539.30, -5225.22, -5073.28, -4534.17, 0.000, 0.000, 0.000, 12:42:41.239
97, -4588.36, -5291.48, -5092.15, -4649.88, 0.000, 0.000, 0.000, 12:42:41.253
98, -4584.56, -5293.87, -5098.84, -4662.20, 0.000, 0.000, 0.000, 12:42:41.253
99, -4534.45, -5191.61, -5067.19, -4494.61, 0.000, 0.000, 0.000, 12:42:41.268
100, -4560.94, -5241.40, -5134.41, -4548.42, 0.000, 0.000, 0.000, 12:42:41.268
101, -4592.37, -5301.46, -5080.78, -4647.44, 0.000, 0.000, 0.000, 12:42:41.269
102, -4591.04, -5313.72, -5093.08, -4662.11, 0.000, 0.000, 0.000, 12:42:41.269
103, -4538.05, -5204.55, -5074.15, -4506.38, 0.000, 0.000, 0.000, 12:42:41.283
104, -4553.61, -5239.84, -5084.04, -4537.78, 0.000, 0.000, 0.000, 12:42:41.283
105, -4598.71, -5303.45, -5107.90, -4647.96, 0.000, 0.000, 0.000, 12:42:41.298
106, -4596.80, -5303.30, -5127.25, -4682.05, 0.000, 0.000, 0.000, 12:42:41.298
107, -4527.25, -5200.33, -5100.13, -4499.29, 0.000, 0.000, 0.000, 12:42:41.299
108, -4547.23, -5240.64, -5062.25, -4525.11, 0.000, 0.000, 0.000, 12:42:41.299
109, -4577.67, -5299.54, -5093.68, -4635.61, 0.000, 0.000, 0.000, 12:42:41.319
110, -4572.67, -5284.67, -5108.95, -4667.17, 0.000, 0.000, 0.000, 12:42:41.319
111, -4522.18, -5183.76, -5061.08, -4478.90, 0.000, 0.000, 0.000, 12:42:41.328
112, -4547.04, -5211.64, -5056.02, -4529.72, 0.000, 0.000, 0.000, 12:42:41.329
113, -4572.69, -5272.14, -5089.62, -4639.83, 0.000, 0.000, 0.000, 12:42:41.329
114, -4586.60, -5305.53, -5093.86, -4660.38, 0.000, 0.000, 0.000, 12:42:41.329
115, -4523.94, -5191.19, -5077.57, -4485.16, 0.000, 0.000, 0.000, 12:42:41.345
116, -4547.10, -5234.05, -5094.99, -4531.85, 0.000, 0.000, 0.000, 12:42:41.345
117, -4578.76, -5298.71, -5085.88, -4641.81, 0.000, 0.000, 0.000, 12:42:41.358
118, -4580.88, -5284.77, -5109.54, -4664.65, 0.000, 0.000, 0.000, 12:42:41.359
119, -4530.46, -5199.83, -5071.34, -4493.58, 0.000, 0.000, 0.000, 12:42:41.359
120, -4561.85, -5255.21, -5099.19, -4541.30, 0.000, 0.000, 0.000, 12:42:41.359
121, -4571.99, -5283.62, -5092.63, -4637.94, 0.000, 0.000, 0.000, 12:42:41.373
122, -4579.93, -5272.67, -5109.24, -4672.57, 0.000, 0.000, 0.000, 12:42:41.373
123, -4532.05, -5187.19, -5062.56, -4492.87, 0.000, 0.000, 0.000, 12:42:41.388
124, -4554.40, -5234.59, -5078.01, -4542.26, 0.000, 0.000, 0.000, 12:42:41.388
125, -4573.02, -5271.50, -5094.30, -4648.08, 0.000, 0.000, 0.000, 12:42:41.388
126, -4585.36, -5294.19, -5088.09, -4667.27, 0.000, 0.000, 0.000, 12:42:41.388
127, -4545.69, -5206.03, -5067.15, -4488.25, 0.000, 0.000, 0.000, 12:42:41.403
128, -4554.44, -5226.86, -5073.44, -4541.75, 0.000, 0.000, 0.000, 12:42:41.403
129, -4582.73, -5284.43, -5101.57, -4656.12, 0.000, 0.000, 0.000, 12:42:41.418
130, -4591.45, -5288.32, -5108.86, -4685.36, 0.000, 0.000, 0.000, 12:42:41.418
131, -4534.08, -5196.65, -5063.24, -4492.28, 0.000, 0.000, 0.000, 12:42:41.418
132, -4553.75, -5241.65, -5090.21, -4528.77, 0.000, 0.000, 0.000, 12:42:41.418
133, -4583.42, -5302.75, -5125.12, -4656.40, 0.000, 0.000, 0.000, 12:42:41.433
134, -4580.26, -5284.55, -5081.29, -4669.01, 0.000, 0.000, 0.000, 12:42:41.433
135, -4530.29, -5186.73, -5056.46, -4482.46, 0.000, 0.000, 0.000, 12:42:41.447
136, -4549.49, -5233.68, -5080.36, -4533.50, 0.000, 0.000, 0.000, 12:42:41.447
137, -4582.46, -5313.86, -5122.06, -4658.52, 0.000, 0.000, 0.000, 12:42:41.448
138, -4593.48, -5315.23, -5116.54, -4670.49, 0.000, 0.000, 0.000, 12:42:41.448
139, -4535.03, -5180.49, -5058.90, -4482.75, 0.000, 0.000, 0.000, 12:42:41.463
140, -4544.01, -5209.25, -5052.74, -4534.51, 0.000, 0.000, 0.000, 12:42:41.463
141, -4575.14, -5281.69, -5104.87, -4660.37, 0.000, 0.000, 0.000, 12:42:41.479
142, -4578.17, -5293.26, -5104.51, -4672.72, 0.000, 0.000, 0.000, 12:42:41.479
143, -4527.73, -5205.98, -5053.84, -4483.95, 0.000, 0.000, 0.000, 12:42:41.479
144, -4552.12, -5231.96, -5079.34, -4538.13, 0.000, 0.000, 0.000, 12:42:41.479
145, -4590.48, -5301.71, -5150.21, -4659.48, 0.000, 0.000, 0.000, 12:42:41.493
146, -4592.21, -5291.25, -5108.22, -4677.47, 0.000, 0.000, 0.000, 12:42:41.493
147, -4546.51, -5206.30, -5047.07, -4478.35, 0.000, 0.000, 0.000, 12:42:41.508
148, -4548.23, -5238.88, -5072.62, -4531.04, 0.000, 0.000, 0.000, 12:42:41.508
149, -4577.73, -5289.85, -5101.34, -4668.78, 0.000, 0.000, 0.000, 12:42:41.508
150, -4574.35, -5275.01, -5088.95, -4687.56, 0.000, 0.000, 0.000, 12:42:41.509
151, -4538.40, -5174.88, -5062.00, -4482.51, 0.000, 0.000, 0.000, 12:42:41.523
152, -4546.57, -5239.42, -5092.86, -4526.25, 0.000, 0.000, 0.000, 12:42:41.523
153, -4586.31, -5309.04, -5105.97, -4656.00, 0.000, 0.000, 0.000, 12:42:41.537
154, -4584.83, -5293.16, -5094.53, -4667.43, 0.000, 0.000, 0.000, 12:42:41.537
155, -4532.74, -5182.65, -5053.81, -4490.69, 0.000, 0.000, 0.000, 12:42:41.538
156, -4548.69, -5232.63, -5071.88, -4549.80, 0.000, 0.000, 0.000, 12:42:41.538
157, -4571.49, -5286.74, -5097.71, -4662.30, 0.000, 0.000, 0.000, 12:42:41.553
158, -4576.64, -5291.16, -5132.54, -4676.11, 0.000, 0.000, 0.000, 12:42:41.553
159, -4524.44, -5210.69, -5065.87, -4476.44, 0.000, 0.000, 0.000, 12:42:41.568
160, -4540.52, -5224.56, -5055.21, -4522.15, 0.000, 0.000, 0.000, 12:42:41.568
161, -4583.44, -5290.51, -5105.57, -4665.55, 0.000, 0.000, 0.000, 12:42:41.568
162, -4577.17, -5281.15, -5100.98, -4670.87, 0.000, 0.000, 0.000, 12:42:41.569
163, -4531.50, -5190.59, -5078.77, -4472.10, 0.000, 0.000, 0.000, 12:42:41.583
164, -4541.30, -5230.77, -5065.50, -4541.62, 0.000, 0.000, 0.000, 12:42:41.583
165, -4588.15, -5310.36, -5116.23, -4675.16, 0.000, 0.000, 0.000, 12:42:41.597
166, -4599.22, -5321.58, -5111.95, -4690.46, 0.000, 0.000, 0.000, 12:42:41.597
167, -4520.88, -5205.29, -5062.84, -4483.79, 0.000, 0.000, 0.000, 12:42:41.599
168, -4516.44, -5226.76, -5064.93, -4533.89, 0.000, 0.000, 0.000, 12:42:41.599
169, -4534.87, -5285.10, -5105.34, -4669.75, 0.000, 0.000, 0.000, 12:42:41.613
170, -4519.32, -5276.62, -5085.32, -4685.92, 0.000, 0.000, 0.000, 12:42:41.613
171, -4449.91, -5180.20, -5034.23, -4485.48, 0.000, 0.000, 0.000, 12:42:41.629
172, -4454.50, -5244.48, -5070.20, -4536.15, 0.000, 0.000, 0.000, 12:42:41.629
173, -4479.59, -5295.73, -5071.45, -4666.69, 0.000, 0.000, 0.000, 12:42:41.629
174, -4469.95, -5279.41, -5069.36, -4676.40, 0.000, 0.000, 0.000, 12:42:41.629
175, -4413.13, -5198.26, -5055.11, -4486.86, 0.000, 0.000, 0.000, 12:42:41.650
176, -4436.91, -5251.54, -5057.52, -4545.23, 0.000, 0.000, 0.000, 12:42:41.650
177, -4473.65, -5307.62, -5069.18, -4674.37, 0.000, 0.000, 0.000, 12:42:41.658
178, -4491.42, -5301.48, -5080.67, -4686.18, 0.000, 0.000, 0.000, 12:42:41.658
179, -4444.49, -5195.67, -5047.51, -4472.67, 0.000, 0.000, 0.000, 12:42:41.658
180, -4487.73, -5256.96, -5108.17, -4547.52, 0.000, 0.000, 0.000, 12:42:41.659
181, -4519.78, -5335.99, -5112.11, -4682.66, 0.000, 0.000, 0.000, 12:42:41.673
182, -4514.96, -5298.83, -5073.55, -4659.47, 0.000, 0.000, 0.000, 12:42:41.673
183, -4475.00, -5180.25, -5033.07, -4480.83, 0.000, 0.000, 0.000, 12:42:41.688
184, -4502.23, -5235.55, -5062.79, -4542.11, 0.000, 0.000, 0.000, 12:42:41.688
185, -4541.53, -5291.14, -5095.19, -4660.47, 0.000, 0.000, 0.000, 12:42:41.689
186, -4548.34, -5306.68, -5137.81, -4664.80, 0.000, 0.000, 0.000, 12:42:41.689
187, -4494.48, -5219.58, -5060.97, -4471.72, 0.000, 0.000, 0.000, 12:42:41.703
188, -4535.31, -5255.56, -5054.15, -4545.72, 0.000, 0.000, 0.000, 12:42:41.703
189, -4554.53, -5273.40, -5077.97, -4663.24, 0.000, 0.000, 0.000, 12:42:41.718
190, -4557.82, -5269.10, -5089.79, -4682.14, 0.000, 0.000, 0.000, 12:42:41.718
191, -4517.68, -5185.86, -5079.96, -4478.69, 0.000, 0.000, 0.000, 12:42:41.719
192, -4540.42, -5241.49, -5079.34, -4558.38, 0.000, 0.000, 0.000, 12:42:41.719
193, -4575.80, -5309.70, -5098.15, -4679.72, 0.000, 0.000, 0.000, 12:42:41.733
194, -4571.42, -5298.23, -5092.90, -4670.32, 0.000, 0.000, 0.000, 12:42:41.733
195, -4526.54, -5202.71, -5075.27, -4477.88, 0.000, 0.000, 0.000, 12:42:41.747
196, -4544.00, -5227.41, -5092.34, -4548.65, 0.000, 0.000, 0.000, 12:42:41.747
197, -4579.51, -5300.13, -5094.87, -4674.26, 0.000, 0.000, 0.000, 12:42:41.748
198, -4561.45, -5282.76, -5092.36, -4669.25, 0.000, 0.000, 0.000, 12:42:41.748
199, -4529.94, -5192.61, -5049.57, -4471.86, 0.000, 0.000, 0.000, 12:42:41.763
200, -4550.91, -5246.34, -5106.87, -4542.91, 0.000, 0.000, 0.000, 12:42:41.763
0, -4584.22, -5325.50, -5107.63, -4670.24, 0.000, 0.000, 0.000, 12:42:41.763
1, -4582.92, -5297.00, -5087.70, -4685.97, 0.000, 0.000, 0.000, 12:42:41.779
2, -4539.52, -5177.35, -5069.89, -4478.49, 0.000, 0.000, 0.000, 12:42:41.779
3, -4552.48, -5225.97, -5081.59, -4524.00, 0.000, 0.000, 0.000, 12:42:41.793
4, -4586.70, -5295.95, -5110.71, -4666.10, 0.000, 0.000, 0.000, 12:42:41.793
5, -4582.70, -5297.52, -5094.56, -4675.13, 0.000, 0.000, 0.000, 12:42:41.793
6, -4534.15, -5200.53, -5063.87, -4486.57, 0.000, 0.000, 0.000, 12:42:41.793
7, -4551.25, -5244.43, -5082.94, -4547.13, 0.000, 0.000, 0.000, 12:42:41.808
8, -4579.32, -5297.99, -5098.47, -4660.23, 0.000, 0.000, 0.000, 12:42:41.808
9, -4577.54, -5288.73, -5103.35, -4660.13, 0.000, 0.000, 0.000, 12:42:41.823
10, -4534.80, -5179.22, -5047.55, -4470.17, 0.000, 0.000, 0.000, 12:42:41.823
11, -4558.38, -5235.45, -5088.52, -4545.86, 0.000, 0.000, 0.000, 12:42:41.824
12, -4592.73, -5318.17, -5112.54, -4679.69, 0.000, 0.000, 0.000, 12:42:41.824
13, -4579.37, -5307.71, -5106.98, -4690.51, 0.000, 0.000, 0.000, 12:42:41.837
14, -4541.07, -5209.57, -5080.50, -4490.00, 0.000, 0.000, 0.000, 12:42:41.838
15, -4525.93, -5247.25, -5074.48, -4537.06, 0.000, 0.000, 0.000, 12:42:41.852
16, -4519.14, -5300.60, -5094.45, -4670.29, 0.000, 0.000, 0.000, 12:42:41.852
17, -4490.90, -5308.85, -5105.36, -4676.33, 0.000, 0.000, 0.000, 12:42:41.853
18, -4399.93, -5207.63, -5058.34, -4470.81, 0.000, 0.000, 0.000, 12:42:41.853
19, -4397.47, -5268.28, -5045.37, -4557.84, 0.000, 0.000, 0.000, 12:42:41.868
20, -4396.98, -5342.93, -5097.89, -4682.42, 0.000, 0.000, 0.000, 12:42:41.868
21, -4365.37, -5314.79, -5076.97, -4671.01, 0.000, 0.000, 0.000, 12:42:41.883
22, -4308.64, -5230.33, -5027.56, -4469.36, 0.000, 0.000, 0.000, 12:42:41.883
23, -4302.83, -5272.21, -5041.94, -4533.05, 0.000, 0.000, 0.000, 12:42:41.884
24, -4332.11, -5346.58, -5077.65, -4671.25, 0.000, 0.000, 0.000, 12:42:41.884
25, -4329.69, -5361.48, -5083.89, -4669.21, 0.000, 0.000, 0.000, 12:42:41.897
26, -4291.34, -5243.87, -5062.62, -4474.38, 0.000, 0.000, 0.000, 12:42:41.897
27, -4323.11, -5301.84, -5053.71, -4548.54, 0.000, 0.000, 0.000, 12:42:41.913
28, -4346.93, -5367.02, -5071.22, -4675.54, 0.000, 0.000, 0.000, 12:42:41.913
29, -4362.37, -5372.34, -5097.07, -4678.92, 0.000, 0.000, 0.000, 12:42:41.914
30, -4335.19, -5271.14, -5097.60, -4474.27, 0.000, 0.000, 0.000, 12:42:41.914
31, -4368.74, -5308.43, -5077.89, -4544.13, 0.000, 0.000, 0.000, 12:42:41.929
32, -4412.36, -5363.83, -5085.60, -4701.47, 0.000, 0.000, 0.000, 12:42:41.929
33, -4445.93, -5357.23, -5118.21, -4700.97, 0.000, 0.000, 0.000, 12:42:41.943
34, -4401.44, -5234.27, -5054.60, -4456.30, 0.000, 0.000, 0.000, 12:42:41.943
35, -4462.45, -5294.66, -5084.04, -4542.65, 0.000, 0.000, 0.000, 12:42:41.959
36, -4529.22, -5371.72, -5128.40, -4695.64, 0.000, 0.000, 0.000, 12:42:41.959
37, -4536.78, -5318.94, -5091.54, -4678.51, 0.000, 0.000, 0.000, 12:42:41.959
38, -4506.52, -5211.15, -5073.35, -4490.21, 0.000, 0.000, 0.000, 12:42:41.959
39, -4535.52, -5271.53, -5100.10, -4558.44, 0.000, 0.000, 0.000, 12:42:41.973
40, -4565.52, -5325.45, -5124.03, -4684.33, 0.000, 0.000, 0.000, 12:42:41.973
41, -4565.20, -5302.39, -5104.60, -4663.21, 0.000, 0.000, 0.000, 12:42:41.974
42, -4527.33, -5201.87, -5065.55, -4480.84, 0.000, 0.000, 0.000, 12:42:41.974
43, -4554.89, -5243.46, -5080.82, -4552.74, 0.000, 0.000, 0.000, 12:42:41.988
44, -4593.02, -5294.88, -5105.72, -4671.37, 0.000, 0.000, 0.000, 12:42:41.988
45, -4594.41, -5285.68, -5099.07, -4679.00, 0.000, 0.000, 0.000, 12:42:42.003
46, -4549.90, -5176.33, -5046.56, -4474.40, 0.000, 0.000, 0.000, 12:42:42.003
47, -4581.58, -5237.30, -5089.31, -4545.76, 0.000, 0.000, 0.000, 12:42:42.003
48, -4626.61, -5307.96, -5117.75, -4696.08, 0.000, 0.000, 0.000, 12:42:42.003
49, -4617.06, -5282.57, -5104.61, -4673.11, 0.000, 0.000, 0.000, 12:42:42.018
50, -4569.43, -5176.64, -5050.23, -4475.43, 0.000, 0.000, 0.000, 12:42:42.018
51, -4596.76, -5234.33, -5093.10, -4556.07, 0.000, 0.000, 0.000, 12:42:42.033
52, -4624.20, -5281.28, -5103.75, -4674.41, 0.000, 0.000, 0.000, 12:42:42.033
53, -4622.56, -5284.92, -5129.17, -4679.31, 0.000, 0.000, 0.000, 12:42:42.033
54, -4588.04, -5190.35, -5062.06, -4488.27, 0.000, 0.000, 0.000, 12:42:42.033
55, -4605.20, -5246.63, -5079.11, -4553.15, 0.000, 0.000, 0.000, 12:42:42.048
56, -4628.06, -5273.59, -5091.46, -4678.39, 0.000, 0.000, 0.000, 12:42:42.048
57, -4623.23, -5264.20, -5112.33, -4664.80, 0.000, 0.000, 0.000, 12:42:42.063
58, -4576.65, -5163.92, -5054.00, -4471.06, 0.000, 0.000, 0.000, 12:42:42.063
59, -4604.86, -5239.09, -5082.60, -4549.37, 0.000, 0.000, 0.000, 12:42:42.063
60, -4633.49, -5285.63, -5135.61, -4688.23, 0.000, 0.000, 0.000, 12:42:42.063
61, -4618.90, -5275.93, -5103.54, -4666.22, 0.000, 0.000, 0.000, 12:42:42.078
62, -4587.41, -5181.51, -5065.94, -4472.76, 0.000, 0.000, 0.000, 12:42:42.078
63, -4599.84, -5238.58, -5087.67, -4555.72, 0.000, 0.000, 0.000, 12:42:42.093
64, -4634.60, -5301.57, -5106.17, -4684.21, 0.000, 0.000, 0.000, 12:42:42.093
65, -4623.65, -5279.52, -5111.38, -4674.96, 0.000, 0.000, 0.000, 12:42:42.093
66, -4570.26, -5160.00, -5066.46, -4469.19, 0.000, 0.000, 0.000, 12:42:42.093
67, -4583.42, -5227.77, -5102.10, -4548.02, 0.000, 0.000, 0.000, 12:42:42.109
68, -4618.95, -5294.38, -5116.90, -4680.44, 0.000, 0.000, 0.000, 12:42:42.109
69, -4601.87, -5260.01, -5094.20, -4663.97, 0.000, 0.000, 0.000, 12:42:42.123
70, -4564.40, -5180.10, -5055.29, -4474.98, 0.000, 0.000, 0.000, 12:42:42.124
71, -4576.10, -5228.55, -5079.08, -4544.61, 0.000, 0.000, 0.000, 12:42:42.124
72, -4610.19, -5291.99, -5116.77, -4672.87, 0.000, 0.000, 0.000, 12:42:42.124
73, -4601.06, -5288.13, -5114.64, -4682.16, 0.000, 0.000, 0.000, 12:42:42.138
74, -4551.96, -5200.30, -5050.40, -4487.10, 0.000, 0.000, 0.000, 12:42:42.138
75, -4535.27, -5222.98, -5076.47, -4522.19, 0.000, 0.000, 0.000, 12:42:42.152
76, -4546.42, -5296.87, -5096.94, -4676.85, 0.000, 0.000, 0.000, 12:42:42.152
77, -4520.61, -5286.98, -5092.74, -4661.39, 0.000, 0.000, 0.000, 12:42:42.160
78, -4450.11, -5207.90, -5060.78, -4460.63, 0.000, 0.000, 0.000, 12:42:42.160
79, -4443.75, -5259.49, -5105.74, -4531.27, 0.000, 0.000, 0.000, 12:42:42.168
80, -4467.46, -5355.89, -5110.17, -4678.11, 0.000, 0.000, 0.000, 12:42:42.168
81, -4445.86, -5345.53, -5090.73, -4649.97, 0.000, 0.000, 0.000, 12:42:42.183
82, -4414.71, -5266.13, -5084.43, -4460.53, 0.000, 0.000, 0.000, 12:42:42.183
83, -4421.70, -5296.62, -5098.86, -4538.94, 0.000, 0.000, 0.000, 12:42:42.184
84, -4457.09, -5367.40, -5112.39, -4678.03, 0.000, 0.000, 0.000, 12:42:42.184
85, -4444.03, -5324.60, -5118.66, -4632.24, 0.000, 0.000, 0.000, 12:42:42.197
86, -4419.13, -5247.25, -5094.80, -4445.64, 0.000, 0.000, 0.000, 12:42:42.197
87, -4469.01, -5302.79, -5080.42, -4556.34, 0.000, 0.000, 0.000, 12:42:42.213
88, -4506.13, -5359.02, -5113.70, -4683.89, 0.000, 0.000, 0.000, 12:42:42.213
89, -4507.88, -5309.27, -5103.09, -4654.89, 0.000, 0.000, 0.000, 12:42:42.213
90, -4493.27, -5228.19, -5104.52, -4456.97, 0.000, 0.000, 0.000, 12:42:42.214
91, -4530.41, -5277.55, -5100.66, -4562.65, 0.000, 0.000, 0.000, 12:42:42.229
92, -4570.58, -5358.78, -5146.68, -4700.79, 0.000, 0.000, 0.000, 12:42:42.229
93, -4572.88, -5321.74, -5119.53, -4682.73, 0.000, 0.000, 0.000, 12:42:42.243
94, -4543.63, -5218.58, -5086.97, -4483.67, 0.000, 0.000, 0.000, 12:42:42.243
95, -4558.82, -5272.42, -5111.51, -4544.60, 0.000, 0.000, 0.000, 12:42:42.244
96, -4589.17, -5322.93, -5107.39, -4695.13, 0.000, 0.000, 0.000, 12:42:42.244
97, -4590.07, -5287.11, -5106.44, -4663.09, 0.000, 0.000, 0.000, 12:42:42.258
98, -4557.09, -5207.85, -5078.57, -4473.99, 0.000, 0.000, 0.000, 12:42:42.258
99, -4584.44, -5264.00, -5119.91, -4562.74, 0.000, 0.000, 0.000, 12:42:42.273
100, -4601.31, -5306.51, -5118.01, -4711.55, 0.000, 0.000, 0.000, 12:42:42.273
101, -4584.76, -5264.66, -5097.38, -4653.91, 0.000, 0.000, 0.000, 12:42:42.273
102, -4557.54, -5201.71, -5081.81, -4474.25, 0.000, 0.000, 0.000, 12:42:42.273
103, -4592.41, -5273.17, -5091.35, -4560.29, 0.000, 0.000, 0.000, 12:42:42.288
104, -4617.21, -5309.63, -5104.10, -4687.35, 0.000, 0.000, 0.000, 12:42:42.288
105, -4600.84, -5274.73, -5101.26, -4677.23, 0.000, 0.000, 0.000, 12:42:42.302
106, -4564.74, -5185.09, -5070.73, -4460.64, 0.000, 0.000, 0.000, 12:42:42.303
107, -4590.10, -5248.48, -5110.54, -4560.20, 0.000, 0.000, 0.000, 12:42:42.303
108, -4613.89, -5317.67, -5119.98, -4696.75, 0.000, 0.000, 0.000, 12:42:42.303
109, -4600.31, -5286.37, -5115.18, -4685.47, 0.000, 0.000, 0.000, 12:42:42.318
110, -4565.08, -5197.15, -5086.56, -4465.12, 0.000, 0.000, 0.000, 12:42:42.318
111, -4589.19, -5250.15, -5096.19, -4559.58, 0.000, 0.000, 0.000, 12:42:42.333
112, -4608.78, -5317.16, -5127.94, -4699.12, 0.000, 0.000, 0.000, 12:42:42.333
113, -4606.17, -5278.62, -5096.41, -4666.80, 0.000, 0.000, 0.000, 12:42:42.334
114, -4572.86, -5190.44, -5063.47, -4476.05, 0.000, 0.000, 0.000, 12:42:42.334
115, -4574.57, -5234.08, -5092.21, -4551.38, 0.000, 0.000, 0.000, 12:42:42.348
116, -4606.22, -5304.01, -5120.51, -4704.86, 0.000, 0.000, 0.000, 12:42:42.348
117, -4592.07, -5257.46, -5090.40, -4658.63, 0.000, 0.000, 0.000, 12:42:42.363
118, -4568.56, -5186.17, -5091.07, -4461.11, 0.000, 0.000, 0.000, 12:42:42.363
119, -4584.50, -5251.77, -5094.84, -4563.91, 0.000, 0.000, 0.000, 12:42:42.363
120, -4633.60, -5345.76, -5142.79, -4712.84, 0.000, 0.000, 0.000, 12:42:42.363
121, -4616.05, -5300.72, -5150.35, -4670.45, 0.000, 0.000, 0.000, 12:42:42.378
122, -4544.89, -5170.72, -5065.79, -4464.19, 0.000, 0.000, 0.000, 12:42:42.378
123, -4559.88, -5245.53, -5116.45, -4558.33, 0.000, 0.000, 0.000, 12:42:42.393
124, -4577.35, -5307.89, -5076.06, -4710.79, 0.000, 0.000, 0.000, 12:42:42.393
125, -4578.02, -5288.20, -5080.53, -4689.23, 0.000, 0.000, 0.000, 12:42:42.393
126, -4542.83, -5193.16, -5069.83, -4501.72, 0.000, 0.000, 0.000, 12:42:42.393
127, -4560.67, -5241.92, -5097.74, -4584.35, 0.000, 0.000, 0.000, 12:42:42.409
128, -4574.61, -5293.20, -5088.47, -4726.78, 0.000, 0.000, 0.000, 12:42:42.409
129, -4577.59, -5297.68, -5104.86, -4704.30, 0.000, 0.000, 0.000, 12:42:42.423
130, -4554.46, -5214.03, -5066.98, -4509.20, 0.000, 0.000, 0.000, 12:42:42.423
131, -4568.35, -5268.31, -5072.31, -4580.54, 0.000, 0.000, 0.000, 12:42:42.424
132, -4594.84, -5301.21, -5087.13, -4709.05, 0.000, 0.000, 0.000, 12:42:42.424
133, -4575.54, -5267.32, -5086.77, -4681.26, 0.000, 0.000, 0.000, 12:42:42.438
134, -4551.33, -5193.23, -5086.98, -4486.91, 0.000, 0.000, 0.000, 12:42:42.438
135, -4575.44, -5251.78, -5101.03, -4586.42, 0.000, 0.000, 0.000, 12:42:42.453
136, -4600.30, -5323.17, -5106.08, -4710.13, 0.000, 0.000, 0.000, 12:42:42.453
137, -4598.65, -5288.36, -5088.82, -4682.34, 0.000, 0.000, 0.000, 12:42:42.453
138, -4553.67, -5199.41, -5063.56, -4477.34, 0.000, 0.000, 0.000, 12:42:42.453
139, -4576.84, -5255.13, -5114.10, -4570.30, 0.000, 0.000, 0.000, 12:42:42.467
140, -4589.46, -5307.12, -5082.02, -4707.14, 0.000, 0.000, 0.000, 12:42:42.467
141, -4582.91, -5265.58, -5086.85, -4667.84, 0.000, 0.000, 0.000, 12:42:42.482
142, -4559.70, -5181.99, -5065.10, -4478.65, 0.000, 0.000, 0.000, 12:42:42.482
143, -4570.06, -5249.62, -5105.88, -4569.91, 0.000, 0.000, 0.000, 12:42:42.483
144, -4587.56, -5293.82, -5082.88, -4681.00, 0.000, 0.000, 0.000, 12:42:42.483
145, -4577.07, -5280.52, -5081.52, -4667.19, 0.000, 0.000, 0.000, 12:42:42.498
146, -4551.51, -5179.20, -5075.75, -4479.83, 0.000, 0.000, 0.000, 12:42:42.498
147, -4562.49, -5245.28, -5076.93, -4572.95, 0.000, 0.000, 0.000, 12:42:42.512
148, -4587.71, -5296.52, -5088.06, -4690.93, 0.000, 0.000, 0.000, 12:42:42.512
149, -4577.49, -5252.89, -5092.45, -4659.43, 0.000, 0.000, 0.000, 12:42:42.513
150, -4547.04, -5199.03, -5069.14, -4473.45, 0.000, 0.000, 0.000, 12:42:42.513
151, -4557.99, -5219.22, -5087.12, -4555.35, 0.000, 0.000, 0.000, 12:42:42.529
152, -4586.12, -5296.47, -5092.90, -4697.96, 0.000, 0.000, 0.000, 12:42:42.529
153, -4579.16, -5275.62, -5097.20, -4657.93, 0.000, 0.000, 0.000, 12:42:42.543
154, -4544.20, -5167.33, -5073.02, -4463.54, 0.000, 0.000, 0.000, 12:42:42.543
155, -4577.56, -5244.94, -5099.71, -4568.24, 0.000, 0.000, 0.000, 12:42:42.544
156, -4605.97, -5314.44, -5099.15, -4687.45, 0.000, 0.000, 0.000, 12:42:42.544
157, -4593.75, -5275.62, -5124.26, -4660.32, 0.000, 0.000, 0.000, 12:42:42.559
158, -4571.48, -5225.24, -5083.72, -4499.03, 0.000, 0.000, 0.000, 12:42:42.559
159, -4595.53, -5268.81, -5100.43, -4565.63, 0.000, 0.000, 0.000, 12:42:42.573
160, -4578.54, -5297.38, -5113.44, -4658.88, 0.000, 0.000, 0.000, 12:42:42.573
161, -4571.57, -5282.95, -5114.66, -4633.27, 0.000, 0.000, 0.000, 12:42:42.574
162, -4568.04, -5228.44, -5130.16, -4463.48, 0.000, 0.000, 0.000, 12:42:42.574
163, -4571.44, -5262.54, -5142.72, -4537.76, 0.000, 0.000, 0.000, 12:42:42.588
164, -4586.82, -5291.38, -5136.96, -4644.79, 0.000, 0.000, 0.000, 12:42:42.588
165, -4585.91, -5284.11, -5159.32, -4620.00, 0.000, 0.000, 0.000, 12:42:42.603
166, -4554.81, -5219.89, -5132.12, -4429.12, 0.000, 0.000, 0.000, 12:42:42.603
167, -4596.35, -5303.59, -5172.71, -4523.71, 0.000, 0.000, 0.000, 12:42:42.604
168, -4612.38, -5341.26, -5179.27, -4673.78, 0.000, 0.000, 0.000, 12:42:42.604
169, -4599.86, -5308.14, -5155.83, -4634.34, 0.000, 0.000, 0.000, 12:42:42.618
170, -4569.42, -5233.72, -5124.30, -4451.00, 0.000, 0.000, 0.000, 12:42:42.618
171, -4587.62, -5283.78, -5152.26, -4552.72, 0.000, 0.000, 0.000, 12:42:42.632
172, -4606.62, -5355.79, -5182.57, -4671.13, 0.000, 0.000, 0.000, 12:42:42.632
173, -4605.46, -5308.68, -5139.88, -4636.46, 0.000, 0.000, 0.000, 12:42:42.633
174, -4564.62, -5211.52, -5103.06, -4476.92, 0.000, 0.000, 0.000, 12:42:42.633
175, -4591.21, -5267.04, -5134.35, -4571.80, 0.000, 0.000, 0.000, 12:42:42.648
176, -4618.03, -5338.21, -5166.54, -4686.41, 0.000, 0.000, 0.000, 12:42:42.648
177, -4600.03, -5288.90, -5124.25, -4656.96, 0.000, 0.000, 0.000, 12:42:42.664
178, -4576.59, -5213.62, -5087.23, -4485.22, 0.000, 0.000, 0.000, 12:42:42.664
179, -4602.78, -5274.08, -5122.60, -4572.43, 0.000, 0.000, 0.000, 12:42:42.664
180, -4624.67, -5346.70, -5175.47, -4683.01, 0.000, 0.000, 0.000, 12:42:42.664
181, -4610.62, -5293.40, -5147.17, -4656.68, 0.000, 0.000, 0.000, 12:42:42.678
182, -4584.43, -5220.51, -5088.12, -4491.04, 0.000, 0.000, 0.000, 12:42:42.678
183, -4593.31, -5253.83, -5129.58, -4579.74, 0.000, 0.000, 0.000, 12:42:42.692
184, -4614.00, -5320.98, -5146.63, -4701.80, 0.000, 0.000, 0.000, 12:42:42.693
185, -4605.35, -5286.23, -5101.36, -4655.49, 0.000, 0.000, 0.000, 12:42:42.693
186, -4571.98, -5213.31, -5090.99, -4502.66, 0.000, 0.000, 0.000, 12:42:42.693
187, -4589.92, -5266.58, -5133.24, -4581.40, 0.000, 0.000, 0.000, 12:42:42.709
188, -4613.91, -5332.38, -5147.62, -4709.24, 0.000, 0.000, 0.000, 12:42:42.709
189, -4597.28, -5274.15, -5105.81, -4651.88, 0.000, 0.000, 0.000, 12:42:42.723
190, -4573.02, -5214.56, -5086.81, -4496.46, 0.000, 0.000, 0.000, 12:42:42.724
191, -4577.52, -5266.54, -5112.13, -4561.32, 0.000, 0.000, 0.000, 12:42:42.724
192, -4591.69, -5344.43, -5117.11, -4690.52, 0.000, 0.000, 0.000, 12:42:42.724
193, -4593.07, -5238.30, -5099.03, -4660.91, 0.000, 0.000, 0.000, 12:42:42.738
194, -4553.71, -5180.07, -5067.95, -4498.97, 0.000, 0.000, 0.000, 12:42:42.739
195, -4577.39, -5251.64, -5109.97, -4568.13, 0.000, 0.000, 0.000, 12:42:42.753
196, -4590.35, -5312.89, -5130.84, -4678.24, 0.000, 0.000, 0.000, 12:42:42.753
197, -4579.66, -5282.39, -5116.74, -4643.51, 0.000, 0.000, 0.000, 12:42:42.768
198, -4555.25, -5200.96, -5048.49, -4505.87, 0.000, 0.000, 0.000, 12:42:42.768
199, -4584.45, -5269.06, -5092.97, -4575.63, 0.000, 0.000, 0.000, 12:42:42.768
200, -4600.80, -5308.26, -5118.14, -4704.99, 0.000, 0.000, 0.000, 12:42:42.768
0, -4581.29, -5282.05, -5152.74, -4647.30, 0.000, 0.000, 0.000, 12:42:42.769
1, -4560.10, -5238.48, -5079.06, -4509.70, 0.000, 0.000, 0.000, 12:42:42.783
2, -4609.14, -5300.90, -5114.83, -4601.77, 0.000, 0.000, 0.000, 12:42:42.783
3, -4635.77, -5346.98, -5135.33, -4724.65, 0.000, 0.000, 0.000, 12:42:42.798
4, -4560.61, -5239.16, -5084.44, -4645.23, 0.000, 0.000, 0.000, 12:42:42.798
5, -4517.88, -5161.19, -5057.33, -4509.31, 0.000, 0.000, 0.000, 12:42:42.798
6, -4543.82, -5240.22, -5093.63, -4595.72, 0.000, 0.000, 0.000, 12:42:42.798
7, -4565.16, -5283.04, -5091.50, -4714.83, 0.000, 0.000, 0.000, 12:42:42.813
8, -4552.34, -5245.87, -5038.92, -4674.72, 0.000, 0.000, 0.000, 12:42:42.813
9, -4517.26, -5178.33, -5025.65, -4519.98, 0.000, 0.000, 0.000, 12:42:42.829
10, -4551.71, -5276.62, -5070.92, -4642.34, 0.000, 0.000, 0.000, 12:42:42.829
11, -4567.64, -5298.06, -5086.49, -4724.95, 0.000, 0.000, 0.000, 12:42:42.829
12, -4549.80, -5234.60, -5037.91, -4686.24, 0.000, 0.000, 0.000, 12:42:42.829
13, -4533.02, -5180.29, -5034.26, -4535.19, 0.000, 0.000, 0.000, 12:42:42.843
14, -4553.14, -5252.34, -5066.67, -4612.84, 0.000, 0.000, 0.000, 12:42:42.843
15, -4571.91, -5297.16, -5072.74, -4708.72, 0.000, 0.000, 0.000, 12:42:42.858
16, -4560.15, -5253.34, -5046.58, -4655.59, 0.000, 0.000, 0.000, 12:42:42.858
17, -4539.76, -5192.04, -5044.11, -4522.96, 0.000, 0.000, 0.000, 12:42:42.858
18, -4560.14, -5239.92, -5072.85, -4602.35, 0.000, 0.000, 0.000, 12:42:42.858
19, -4576.65, -5308.61, -5125.11, -4712.76, 0.000, 0.000, 0.000, 12:42:42.873
20, -4550.01, -5247.80, -5065.07, -4655.06, 0.000, 0.000, 0.000, 12:42:42.873
21, -4544.56, -5192.08, -5035.75, -4532.98, 0.000, 0.000, 0.000, 12:42:42.888
22, -4568.18, -5268.22, -5089.42, -4586.39, 0.000, 0.000, 0.000, 12:42:42.888
23, -4586.09, -5315.21, -5116.94, -4700.56, 0.000, 0.000, 0.000, 12:42:42.889
24, -4579.67, -5275.70, -5093.26, -4655.23, 0.000, 0.000, 0.000, 12:42:42.889
25, -4547.43, -5186.45, -5039.46, -4520.17, 0.000, 0.000, 0.000, 12:42:42.909
26, -4566.72, -5252.31, -5085.74, -4598.46, 0.000, 0.000, 0.000, 12:42:42.909
27, -4590.52, -5311.60, -5106.30, -4690.77, 0.000, 0.000, 0.000, 12:42:42.918
28, -4572.07, -5268.16, -5078.18, -4644.67, 0.000, 0.000, 0.000, 12:42:42.918
29, -4552.51, -5214.98, -5092.33, -4515.56, 0.000, 0.000, 0.000, 12:42:42.919
30, -4574.83, -5290.43, -5118.13, -4577.16, 0.000, 0.000, 0.000, 12:42:42.919
31, -4603.35, -5308.41, -5078.02, -4696.59, 0.000, 0.000, 0.000, 12:42:42.933
32, -4580.71, -5256.69, -5079.06, -4645.89, 0.000, 0.000, 0.000, 12:42:42.933
33, -4561.56, -5213.20, -5092.56, -4513.52, 0.000, 0.000, 0.000, 12:42:42.948
34, -4587.38, -5278.56, -5103.26, -4602.40, 0.000, 0.000, 0.000, 12:42:42.948
35, -4596.97, -5313.44, -5104.85, -4681.07, 0.000, 0.000, 0.000, 12:42:42.949
36, -4576.48, -5248.80, -5095.24, -4637.49, 0.000, 0.000, 0.000, 12:42:42.949
37, -4548.14, -5206.06, -5094.86, -4507.85, 0.000, 0.000, 0.000, 12:42:42.962
38, -4582.16, -5268.06, -5101.23, -4591.58, 0.000, 0.000, 0.000, 12:42:42.963
39, -4601.75, -5320.36, -5128.43, -4688.56, 0.000, 0.000, 0.000, 12:42:42.979
40, -4591.85, -5282.84, -5119.03, -4646.30, 0.000, 0.000, 0.000, 12:42:42.979
41, -4560.78, -5219.19, -5093.66, -4510.35, 0.000, 0.000, 0.000, 12:42:42.979
42, -4576.26, -5277.45, -5092.59, -4580.84, 0.000, 0.000, 0.000, 12:42:42.979
43, -4600.66, -5332.33, -5138.49, -4691.39, 0.000, 0.000, 0.000, 12:42:42.994
44, -4581.25, -5263.92, -5103.02, -4634.44, 0.000, 0.000, 0.000, 12:42:42.994
45, -4562.49, -5211.97, -5075.19, -4510.94, 0.000, 0.000, 0.000, 12:42:43.009
46, -4569.02, -5271.50, -5118.19, -4590.65, 0.000, 0.000, 0.000, 12:42:43.009
47, -4604.08, -5335.81, -5149.35, -4693.55, 0.000, 0.000, 0.000, 12:42:43.009
48, -4585.02, -5269.96, -5096.08, -4647.96, 0.000, 0.000, 0.000, 12:42:43.009
49, -4562.96, -5232.79, -5076.26, -4508.43, 0.000, 0.000, 0.000, 12:42:43.023
50, -4586.11, -5263.19, -5120.57, -4599.90, 0.000, 0.000, 0.000, 12:42:43.023
51, -4603.67, -5310.43, -5122.93, -4694.90, 0.000, 0.000, 0.000, 12:42:43.037
52, -4585.01, -5268.18, -5097.09, -4635.18, 0.000, 0.000, 0.000, 12:42:43.037
53, -4558.88, -5214.60, -5122.66, -4519.11, 0.000, 0.000, 0.000, 12:42:43.038
54, -4576.26, -5263.10, -5087.82, -4582.55, 0.000, 0.000, 0.000, 12:42:43.038
55, -4590.79, -5315.49, -5110.88, -4697.93, 0.000, 0.000, 0.000, 12:42:43.053
56, -4567.78, -5254.22, -5074.84, -4621.05, 0.000, 0.000, 0.000, 12:42:43.053
57, -4546.08, -5204.56, -5084.08, -4496.82, 0.000, 0.000, 0.000, 12:42:43.068
58, -4565.67, -5255.46, -5100.01, -4581.61, 0.000, 0.000, 0.000, 12:42:43.068
59, -4592.59, -5335.93, -5123.04, -4691.14, 0.000, 0.000, 0.000, 12:42:43.069
60, -4584.27, -5275.27, -5118.45, -4642.97, 0.000, 0.000, 0.000, 12:42:43.069
61, -4548.65, -5206.58, -5070.76, -4496.18, 0.000, 0.000, 0.000, 12:42:43.083
62, -4573.53, -5265.79, -5096.09, -4585.42, 0.000, 0.000, 0.000, 12:42:43.083
63, -4585.08, -5319.17, -5126.81, -4687.53, 0.000, 0.000, 0.000, 12:42:43.098
64, -4581.57, -5288.61, -5102.54, -4638.64, 0.000, 0.000, 0.000, 12:42:43.098
65, -4548.84, -5210.64, -5085.04, -4508.84, 0.000, 0.000, 0.000, 12:42:43.099
66, -4564.95, -5256.71, -5110.06, -4586.36, 0.000, 0.000, 0.000, 12:42:43.099
67, -4585.78, -5316.98, -5117.83, -4689.13, 0.000, 0.000, 0.000, 12:42:43.112
68, -4573.82, -5271.85, -5110.49, -4645.62, 0.000, 0.000, 0.000, 12:42:43.112
69, -4553.86, -5217.57, -5060.06, -4504.90, 0.000, 0.000, 0.000, 12:42:43.128
70, -4569.81, -5266.38, -5088.64, -4584.59, 0.000, 0.000, 0.000, 12:42:43.128
71, -4596.64, -5310.92, -5118.62, -4694.76, 0.000, 0.000, 0.000, 12:42:43.128
72, -4574.65, -5268.55, -5100.78, -4645.99, 0.000, 0.000, 0.000, 12:42:43.128
73, -4568.78, -5226.16, -5112.19, -4515.64, 0.000, 0.000, 0.000, 12:42:43.143
74, -4586.50, -5269.69, -5094.88, -4586.77, 0.000, 0.000, 0.000, 12:42:43.143
75, -4574.15, -5291.03, -5116.48, -4663.59, 0.000, 0.000, 0.000, 12:42:43.158
76, -4587.71, -5264.46, -5122.42, -4623.66, 0.000, 0.000, 0.000, 12:42:43.158
77, -4579.05, -5242.02, -5108.35, -4486.83, 0.000, 0.000, 0.000, 12:42:43.159
78, -4600.35, -5289.85, -5145.48, -4578.45, 0.000, 0.000, 0.000, 12:42:43.159
79, -4618.13, -5313.67, -5145.69, -4668.08, 0.000, 0.000, 0.000, 12:42:43.173
80, -4597.27, -5271.62, -5143.73, -4599.27, 0.000, 0.000, 0.000, 12:42:43.174
81, -4574.05, -5212.13, -5095.19, -4466.29, 0.000, 0.000, 0.000, 12:42:43.188
82, -4599.12, -5298.38, -5137.25, -4564.95, 0.000, 0.000, 0.000, 12:42:43.188
83, -4613.25, -5347.71, -5169.04, -4678.04, 0.000, 0.000, 0.000, 12:42:43.189
84, -4587.47, -5275.44, -5142.48, -4606.61, 0.000, 0.000, 0.000, 12:42:43.189
85, -4556.86, -5213.92, -5110.55, -4480.01, 0.000, 0.000, 0.000, 12:42:43.203
86, -4578.67, -5263.95, -5120.87, -4557.77, 0.000, 0.000, 0.000, 12:42:43.203
87, -4592.71, -5331.39, -5129.38, -4676.26, 0.000, 0.000, 0.000, 12:42:43.218
88, -4581.01, -5267.16, -5107.13, -4609.81, 0.000, 0.000, 0.000, 12:42:43.218
89, -4555.89, -5219.56, -5097.63, -4501.85, 0.000, 0.000, 0.000, 12:42:43.219
90, -4575.43, -5256.82, -5107.54, -4561.47, 0.000, 0.000, 0.000, 12:42:43.219
91, -4586.54, -5312.61, -5164.87, -4677.32, 0.000, 0.000, 0.000, 12:42:43.233
92, -4577.27, -5273.95, -5096.39, -4625.52, 0.000, 0.000, 0.000, 12:42:43.233
93, -4547.95, -5222.99, -5075.38, -4499.72, 0.000, 0.000, 0.000, 12:42:43.248
94, -4574.36, -5269.23, -5109.74, -4581.64, 0.000, 0.000, 0.000, 12:42:43.248
95, -4582.14, -5322.87, -5131.77, -4678.01, 0.000, 0.000, 0.000, 12:42:43.256
96, -4571.31, -5274.95, -5114.80, -4622.73, 0.000, 0.000, 0.000, 12:42:43.256
97, -4561.58, -5224.30, -5099.22, -4506.04, 0.000, 0.000, 0.000, 12:42:43.263
98, -4560.14, -5272.65, -5111.96, -4571.86, 0.000, 0.000, 0.000, 12:42:43.263
99, -4583.08, -5334.28, -5131.29, -4682.29, 0.000, 0.000, 0.000, 12:42:43.279
100, -4558.21, -5270.30, -5065.35, -4608.73, 0.000, 0.000, 0.000, 12:42:43.279
101, -4538.05, -5206.49, -5063.17, -4493.23, 0.000, 0.000, 0.000, 12:42:43.279
102, -4561.58, -5244.18, -5116.34, -4588.29, 0.000, 0.000, 0.000, 12:42:43.279
103, -4579.24, -5302.92, -5130.68, -4683.03, 0.000, 0.000, 0.000, 12:42:43.293
104, -4563.27, -5261.48, -5120.11, -4627.24, 0.000, 0.000, 0.000, 12:42:43.293
105, -4557.12, -5235.25, -5086.32, -4517.12, 0.000, 0.000, 0.000, 12:42:43.308
106, -4559.08, -5269.48, -5076.45, -4576.54, 0.000, 0.000, 0.000, 12:42:43.308
107, -4581.78, -5310.47, -5120.81, -4675.61, 0.000, 0.000, 0.000, 12:42:43.309
108, -4560.46, -5273.30, -5124.48, -4621.97, 0.000, 0.000, 0.000, 12:42:43.309
109, -4536.35, -5197.30, -5073.55, -4501.51, 0.000, 0.000, 0.000, 12:42:43.323
110, -4570.41, -5277.30, -5089.68, -4596.00, 0.000, 0.000, 0.000, 12:42:43.323
111, -4588.10, -5317.89, -5121.19, -4698.02, 0.000, 0.000, 0.000, 12:42:43.339
112, -4565.77, -5248.73, -5097.13, -4627.36, 0.000, 0.000, 0.000, 12:42:43.339
113, -4549.06, -5210.70, -5052.94, -4503.60, 0.000, 0.000, 0.000, 12:42:43.339
114, -4552.93, -5257.39, -5085.10, -4575.53, 0.000, 0.000, 0.000, 12:42:43.339
115, -4597.76, -5331.18, -5142.35, -4701.21, 0.000, 0.000, 0.000, 12:42:43.368
116, -4594.25, -5308.53, -5126.08, -4638.36, 0.000, 0.000, 0.000, 12:42:43.368
117, -4527.97, -5206.41, -5070.46, -4504.65, 0.000, 0.000, 0.000, 12:42:43.368
118, -4539.62, -5235.77, -5060.24, -4594.28, 0.000, 0.000, 0.000, 12:42:43.368
119, -4557.68, -5286.37, -5078.56, -4694.06, 0.000, 0.000, 0.000, 12:42:43.369
120, -4542.10, -5236.49, -5047.51, -4640.82, 0.000, 0.000, 0.000, 12:42:43.369
121, -4515.56, -5192.26, -5040.21, -4528.09, 0.000, 0.000, 0.000, 12:42:43.383
122, -4528.04, -5237.03, -5057.92, -4617.02, 0.000, 0.000, 0.000, 12:42:43.383
123, -4558.32, -5309.58, -5052.63, -4742.39, 0.000, 0.000, 0.000, 12:42:43.398
124, -4521.95, -5225.98, -5028.68, -4640.28, 0.000, 0.000, 0.000, 12:42:43.398
125, -4508.55, -5178.32, -5025.10, -4534.63, 0.000, 0.000, 0.000, 12:42:43.399
126, -4537.68, -5253.88, -5072.92, -4626.41, 0.000, 0.000, 0.000, 12:42:43.399
127, -4565.77, -5310.89, -5062.68, -4712.47, 0.000, 0.000, 0.000, 12:42:43.413
128, -4534.56, -5239.93, -5041.49, -4632.79, 0.000, 0.000, 0.000, 12:42:43.413
129, -4531.10, -5198.39, -5066.99, -4530.24, 0.000, 0.000, 0.000, 12:42:43.429
130, -4551.70, -5265.46, -5069.64, -4611.72, 0.000, 0.000, 0.000, 12:42:43.429
131, -4573.60, -5313.80, -5082.77, -4724.90, 0.000, 0.000, 0.000, 12:42:43.429
132, -4558.29, -5261.50, -5070.39, -4646.17, 0.000, 0.000, 0.000, 12:42:43.429
133, -4530.55, -5191.34, -5053.29, -4521.60, 0.000, 0.000, 0.000, 12:42:43.443
134, -4557.42, -5254.62, -5080.67, -4601.53, 0.000, 0.000, 0.000, 12:42:43.443
135, -4581.51, -5329.57, -5154.56, -4697.63, 0.000, 0.000, 0.000, 12:42:43.458
136, -4565.07, -5282.79, -5062.73, -4632.45, 0.000, 0.000, 0.000, 12:42:43.458
137, -4561.36, -5224.34, -5061.59, -4529.93, 0.000, 0.000, 0.000, 12:42:43.458
138, -4566.53, -5254.47, -5091.87, -4593.41, 0.000, 0.000, 0.000, 12:42:43.458
139, -4592.72, -5320.04, -5142.46, -4707.91, 0.000, 0.000, 0.000, 12:42:43.473
140, -4560.55, -5258.15, -5078.62, -4644.42, 0.000, 0.000, 0.000, 12:42:43.474
141, -4543.51, -5218.81, -5051.34, -4517.27, 0.000, 0.000, 0.000, 12:42:43.488
142, -4562.75, -5274.82, -5074.01, -4600.39, 0.000, 0.000, 0.000, 12:42:43.488
143, -4589.87, -5315.25, -5116.95, -4693.75, 0.000, 0.000, 0.000, 12:42:43.489
144, -4568.35, -5253.24, -5096.34, -4624.78, 0.000, 0.000, 0.000, 12:42:43.489
145, -4542.18, -5210.84, -5093.52, -4518.55, 0.000, 0.000, 0.000, 12:42:43.503
146, -4554.81, -5278.96, -5130.97, -4599.52, 0.000, 0.000, 0.000, 12:42:43.503
147, -4587.48, -5331.82, -5108.69, -4700.56, 0.000, 0.000, 0.000, 12:42:43.518
148, -4566.54, -5269.84, -5070.22, -4617.21, 0.000, 0.000, 0.000, 12:42:43.518
149, -4550.15, -5220.43, -5076.52, -4510.71, 0.000, 0.000, 0.000, 12:42:43.519
150, -4582.66, -5284.20, -5125.41, -4609.43, 0.000, 0.000, 0.000, 12:42:43.519
151, -4595.10, -5319.24, -5134.37, -4700.11, 0.000, 0.000, 0.000, 12:42:43.533
152, -4565.02, -5251.72, -5064.56, -4620.90, 0.000, 0.000, 0.000, 12:42:43.533
153, -4549.01, -5204.92, -5067.43, -4515.70, 0.000, 0.000, 0.000, 12:42:43.548
154, -4563.96, -5268.41, -5103.36, -4594.81, 0.000, 0.000, 0.000, 12:42:43.548
155, -4590.82, -5322.84, -5154.03, -4701.64, 0.000, 0.000, 0.000, 12:42:43.548
156, -4571.25, -5279.89, -5099.60, -4641.40, 0.000, 0.000, 0.000, 12:42:43.548
157, -4542.60, -5215.07, -5066.66, -4522.39, 0.000, 0.000, 0.000, 12:42:43.563
158, -4565.25, -5262.09, -5084.11, -4592.38, 0.000, 0.000, 0.000, 12:42:43.563
159, -4581.90, -5318.32, -5128.29, -4682.12, 0.000, 0.000, 0.000, 12:42:43.579
160, -4555.75, -5250.10, -5076.74, -4599.73, 0.000, 0.000, 0.000, 12:42:43.579
161, -4541.01, -5211.68, -5067.30, -4500.94, 0.000, 0.000, 0.000, 12:42:43.579
162, -4562.80, -5272.19, -5095.91, -4594.18, 0.000, 0.000, 0.000, 12:42:43.579
163, -4586.05, -5298.74, -5129.95, -4693.80, 0.000, 0.000, 0.000, 12:42:43.593
164, -4550.26, -5239.69, -5122.19, -4622.28, 0.000, 0.000, 0.000, 12:42:43.593
165, -4534.01, -5195.22, -5027.93, -4500.52, 0.000, 0.000, 0.000, 12:42:43.608
166, -4566.05, -5261.50, -5080.29, -4589.94, 0.000, 0.000, 0.000, 12:42:43.608
167, -4584.88, -5316.63, -5114.86, -4686.90, 0.000, 0.000, 0.000, 12:42:43.609
168, -4552.06, -5254.63, -5096.98, -4603.31, 0.000, 0.000, 0.000, 12:42:43.609
169, -4535.11, -5218.36, -5095.22, -4497.69, 0.000, 0.000, 0.000, 12:42:43.623
170, -4547.45, -5263.53, -5110.43, -4587.76, 0.000, 0.000, 0.000, 12:42:43.623
171, -4566.38, -5322.41, -5074.82, -4691.96, 0.000, 0.000, 0.000, 12:42:43.638
172, -4546.53, -5236.13, -5074.23, -4619.16, 0.000, 0.000, 0.000, 12:42:43.638
173, -4533.56, -5194.43, -5068.88, -4508.77, 0.000, 0.000, 0.000, 12:42:43.638
174, -4555.92, -5262.04, -5086.77, -4599.82, 0.000, 0.000, 0.000, 12:42:43.639
175, -4575.30, -5316.84, -5112.22, -4687.51, 0.000, 0.000, 0.000, 12:42:43.653
176, -4557.31, -5255.58, -5084.40, -4592.25, 0.000, 0.000, 0.000, 12:42:43.653
177, -4534.59, -5203.69, -5096.69, -4478.22, 0.000, 0.000, 0.000, 12:42:43.668
178, -4566.09, -5275.93, -5112.85, -4583.34, 0.000, 0.000, 0.000, 12:42:43.668
179, -4587.37, -5331.69, -5157.50, -4668.78, 0.000, 0.000, 0.000, 12:42:43.669
180, -4566.44, -5254.39, -5124.77, -4560.24, 0.000, 0.000, 0.000, 12:42:43.669
181, -4540.58, -5220.94, -5111.34, -4460.66, 0.000, 0.000, 0.000, 12:42:43.683
182, -4582.84, -5274.01, -5150.38, -4541.11, 0.000, 0.000, 0.000, 12:42:43.683
183, -4604.15, -5339.55, -5196.96, -4664.90, 0.000, 0.000, 0.000, 12:42:43.697
184, -4591.76, -5273.32, -5154.81, -4565.32, 0.000, 0.000, 0.000, 12:42:43.698
185, -4558.16, -5222.33, -5108.31, -4459.92, 0.000, 0.000, 0.000, 12:42:43.698
186, -4583.27, -5298.71, -5174.29, -4549.24, 0.000, 0.000, 0.000, 12:42:43.698
187, -4605.40, -5320.26, -5144.33, -4651.73, 0.000, 0.000, 0.000, 12:42:43.720
188, -4578.59, -5246.68, -5119.52, -4569.80, 0.000, 0.000, 0.000, 12:42:43.720
189, -4566.49, -5236.87, -5119.95, -4476.79, 0.000, 0.000, 0.000, 12:42:43.728
190, -4588.21, -5279.27, -5155.11, -4561.26, 0.000, 0.000, 0.000, 12:42:43.729
191, -4600.92, -5325.64, -5177.46, -4679.08, 0.000, 0.000, 0.000, 12:42:43.729
192, -4575.38, -5277.98, -5119.05, -4592.72, 0.000, 0.000, 0.000, 12:42:43.729
193, -4554.58, -5232.07, -5096.02, -4489.39, 0.000, 0.000, 0.000, 12:42:43.743
194, -4577.24, -5283.12, -5111.69, -4572.40, 0.000, 0.000, 0.000, 12:42:43.743
195, -4591.22, -5308.40, -5134.65, -4678.70, 0.000, 0.000, 0.000, 12:42:43.758
196, -4574.83, -5260.21, -5119.72, -4596.16, 0.000, 0.000, 0.000, 12:42:43.758
197, -4554.83, -5226.29, -5118.02, -4511.31, 0.000, 0.000, 0.000, 12:42:43.759
198, -4573.04, -5293.13, -5108.25, -4587.10, 0.000, 0.000, 0.000, 12:42:43.759
199, -4594.44, -5329.05, -5124.84, -4679.74, 0.000, 0.000, 0.000, 12:42:43.773
200, -4563.37, -5258.46, -5115.12, -4589.75, 0.000, 0.000, 0.000, 12:42:43.773
0, -4542.54, -5216.20, -5090.00, -4492.81, 0.000, 0.000, 0.000, 12:42:43.773
1, -4575.16, -5291.86, -5118.75, -4592.77, 0.000, 0.000, 0.000, 12:42:43.788
2, -4584.43, -5329.25, -5127.48, -4699.79, 0.000, 0.000, 0.000, 12:42:43.788
3, -4557.76, -5266.49, -5119.43, -4610.06, 0.000, 0.000, 0.000, 12:42:43.802
4, -4554.43, -5210.24, -5077.63, -4503.42, 0.000, 0.000, 0.000, 12:42:43.802
5, -4560.21, -5269.67, -5113.72, -4599.23, 0.000, 0.000, 0.000, 12:42:43.803
6, -4575.63, -5320.48, -5100.64, -4689.37, 0.000, 0.000, 0.000, 12:42:43.803
7, -4567.44, -5272.52, -5121.92, -4600.78, 0.000, 0.000, 0.000, 12:42:43.817
8, -4542.76, -5224.70, -5075.50, -4490.48, 0.000, 0.000, 0.000, 12:42:43.817
9, -4570.11, -5277.68, -5107.74, -4590.99, 0.000, 0.000, 0.000, 12:42:43.832
10, -4588.17, -5320.22, -5135.53, -4707.50, 0.000, 0.000, 0.000, 12:42:43.832
11, -4556.58, -5237.57, -5073.73, -4601.73, 0.000, 0.000, 0.000, 12:42:43.833
12, -4539.51, -5216.74, -5088.62, -4504.80, 0.000, 0.000, 0.000, 12:42:43.833
13, -4569.96, -5289.06, -5103.10, -4591.93, 0.000, 0.000, 0.000, 12:42:43.847
14, -4581.73, -5315.82, -5109.32, -4704.30, 0.000, 0.000, 0.000, 12:42:43.847
15, -4556.35, -5249.60, -5074.25, -4602.31, 0.000, 0.000, 0.000, 12:42:43.863
16, -4539.55, -5203.31, -5087.11, -4487.48, 0.000, 0.000, 0.000, 12:42:43.863
17, -4563.25, -5262.30, -5099.74, -4603.75, 0.000, 0.000, 0.000, 12:42:43.864
18, -4584.37, -5317.44, -5105.10, -4709.32, 0.000, 0.000, 0.000, 12:42:43.864
19, -4550.09, -5241.91, -5074.49, -4618.14, 0.000, 0.000, 0.000, 12:42:43.878
20, -4531.32, -5208.93, -5073.54, -4485.75, 0.000, 0.000, 0.000, 12:42:43.878
21, -4543.16, -5268.82, -5093.96, -4586.05, 0.000, 0.000, 0.000, 12:42:43.893
22, -4576.97, -5313.82, -5118.56, -4679.65, 0.000, 0.000, 0.000, 12:42:43.893
23, -4563.80, -5255.74, -5078.75, -4619.56, 0.000, 0.000, 0.000, 12:42:43.894
24, -4562.84, -5223.54, -5085.93, -4520.75, 0.000, 0.000, 0.000, 12:42:43.894
25, -4588.73, -5293.23, -5093.95, -4606.17, 0.000, 0.000, 0.000, 12:42:43.908
26, -4575.80, -5325.18, -5106.05, -4689.10, 0.000, 0.000, 0.000, 12:42:43.908
27, -4540.77, -5236.92, -5079.03, -4617.36, 0.000, 0.000, 0.000, 12:42:43.923
28, -4510.57, -5188.42, -5052.82, -4515.62, 0.000, 0.000, 0.000, 12:42:43.923
29, -4543.63, -5260.45, -5080.60, -4625.21, 0.000, 0.000, 0.000, 12:42:43.924
30, -4553.67, -5292.98, -5067.78, -4717.20, 0.000, 0.000, 0.000, 12:42:43.924
31, -4519.05, -5208.71, -5019.44, -4621.77, 0.000, 0.000, 0.000, 12:42:43.938
32, -4494.97, -5160.98, -4994.94, -4526.71, 0.000, 0.000, 0.000, 12:42:43.938
33, -4513.41, -5216.94, -5021.83, -4621.35, 0.000, 0.000, 0.000, 12:42:43.952
34, -4547.26, -5288.32, -5046.75, -4740.79, 0.000, 0.000, 0.000, 12:42:43.953
35, -4521.60, -5193.69, -5022.71, -4631.09, 0.000, 0.000, 0.000, 12:42:43.953
36, -4513.97, -5173.95, -5015.03, -4550.18, 0.000, 0.000, 0.000, 12:42:43.953
37, -4536.73, -5243.98, -5049.05, -4633.16, 0.000, 0.000, 0.000, 12:42:43.967
38, -4558.98, -5288.29, -5062.32, -4714.58, 0.000, 0.000, 0.000, 12:42:43.967
39, -4537.96, -5227.35, -5033.98, -4614.37, 0.000, 0.000, 0.000, 12:42:43.983
40, -4531.73, -5201.76, -5051.26, -4532.71, 0.000, 0.000, 0.000, 12:42:43.983
41, -4558.95, -5275.42, -5075.27, -4616.26, 0.000, 0.000, 0.000, 12:42:43.984
42, -4566.84, -5288.15, -5062.02, -4720.49, 0.000, 0.000, 0.000, 12:42:43.984
43, -4554.41, -5228.79, -5059.50, -4628.46, 0.000, 0.000, 0.000, 12:42:43.998
44, -4545.83, -5213.02, -5057.35, -4532.14, 0.000, 0.000, 0.000, 12:42:43.998
45, -4568.78, -5275.19, -5087.84, -4618.37, 0.000, 0.000, 0.000, 12:42:44.013
46, -4585.59, -5333.18, -5136.65, -4710.62, 0.000, 0.000, 0.000, 12:42:44.013
47, -4556.85, -5226.53, -5044.37, -4622.08, 0.000, 0.000, 0.000, 12:42:44.013
48, -4545.94, -5209.78, -5054.18, -4516.03, 0.000, 0.000, 0.000, 12:42:44.013
49, -4572.44, -5283.06, -5094.39, -4606.01, 0.000, 0.000, 0.000, 12:42:44.029
50, -4588.87, -5313.59, -5092.83, -4703.46, 0.000, 0.000, 0.000, 12:42:44.029
51, -4569.86, -5262.15, -5103.41, -4614.28, 0.000, 0.000, 0.000, 12:42:44.043
52, -4549.62, -5211.68, -5075.91, -4524.61, 0.000, 0.000, 0.000, 12:42:44.043
53, -4579.95, -5274.86, -5089.06, -4601.11, 0.000, 0.000, 0.000, 12:42:44.044
54, -4585.83, -5325.73, -5101.37, -4701.19, 0.000, 0.000, 0.000, 12:42:44.045
55, -4561.83, -5237.84, -5083.06, -4604.71, 0.000, 0.000, 0.000, 12:42:44.064
56, -4547.52, -5217.43, -5089.16, -4517.21, 0.000, 0.000, 0.000, 12:42:44.064
57, -4572.19, -5291.03, -5105.98, -4606.84, 0.000, 0.000, 0.000, 12:42:44.073
58, -4586.69, -5326.78, -5108.23, -4696.32, 0.000, 0.000, 0.000, 12:42:44.074
59, -4571.20, -5269.61, -5096.38, -4617.08, 0.000, 0.000, 0.000, 12:42:44.074
60, -4558.11, -5216.53, -5086.87, -4519.00, 0.000, 0.000, 0.000, 12:42:44.075
61, -4578.58, -5280.65, -5091.82, -4609.42, 0.000, 0.000, 0.000, 12:42:44.088
62, -4584.30, -5359.58, -5124.55, -4706.89, 0.000, 0.000, 0.000, 12:42:44.088
63, -4552.26, -5230.47, -5078.29, -4594.43, 0.000, 0.000, 0.000, 12:42:44.103
64, -4546.19, -5208.02, -5062.93, -4506.55, 0.000, 0.000, 0.000, 12:42:44.103
65, -4566.17, -5273.55, -5107.68, -4591.02, 0.000, 0.000, 0.000, 12:42:44.103
66, -4581.04, -5350.51, -5117.49, -4687.50, 0.000, 0.000, 0.000, 12:42:44.103
67, -4561.36, -5220.49, -5055.53, -4601.04, 0.000, 0.000, 0.000, 12:42:44.118
68, -4548.22, -5221.99, -5102.23, -4510.28, 0.000, 0.000, 0.000, 12:42:44.118
69, -4564.34, -5263.70, -5114.75, -4597.40, 0.000, 0.000, 0.000, 12:42:44.133
70, -4576.57, -5288.91, -5090.41, -4700.08, 0.000, 0.000, 0.000, 12:42:44.133
71, -4547.44, -5244.67, -5078.57, -4583.11, 0.000, 0.000, 0.000, 12:42:44.134
72, -4555.97, -5234.87, -5075.47, -4525.13, 0.000, 0.000, 0.000, 12:42:44.134
73, -4570.55, -5294.95, -5119.51, -4584.59, 0.000, 0.000, 0.000, 12:42:44.148
74, -4603.93, -5379.60, -5176.59, -4703.15, 0.000, 0.000, 0.000, 12:42:44.148
75, -4577.96, -5231.41, -5117.92, -4589.43, 0.000, 0.000, 0.000, 12:42:44.163
76, -4531.30, -5219.23, -5037.22, -4471.28, 0.000, 0.000, 0.000, 12:42:44.163
77, -4564.35, -5282.81, -5138.89, -4596.51, 0.000, 0.000, 0.000, 12:42:44.163
78, -4566.23, -5346.37, -5146.21, -4662.26, 0.000, 0.000, 0.000, 12:42:44.163
79, -4554.48, -5224.96, -5158.26, -4528.47, 0.000, 0.000, 0.000, 12:42:44.178
80, -4552.09, -5239.10, -5098.01, -4497.24, 0.000, 0.000, 0.000, 12:42:44.178
81, -4568.09, -5277.55, -5187.99, -4544.19, 0.000, 0.000, 0.000, 12:42:44.192
82, -4603.38, -5361.37, -5179.33, -4690.80, 0.000, 0.000, 0.000, 12:42:44.193
83, -4588.31, -5288.29, -5134.74, -4525.41, 0.000, 0.000, 0.000, 12:42:44.194
84, -4573.52, -5306.54, -5191.28, -4480.79, 0.000, 0.000, 0.000, 12:42:44.194
85, -4577.45, -5256.34, -5140.15, -4558.92, 0.000, 0.000, 0.000, 12:42:44.208
86, -4597.05, -5301.13, -5166.85, -4657.20, 0.000, 0.000, 0.000, 12:42:44.208
87, -4578.01, -5324.42, -5124.01, -4569.53, 0.000, 0.000, 0.000, 12:42:44.223
88, -4558.68, -5237.52, -5189.33, -4468.13, 0.000, 0.000, 0.000, 12:42:44.223
89, -4585.06, -5286.24, -5151.98, -4611.45, 0.000, 0.000, 0.000, 12:42:44.223
90, -4592.01, -5391.55, -5126.04, -4686.76, 0.000, 0.000, 0.000, 12:42:44.224
91, -4573.42, -5248.08, -5171.40, -4476.80, 0.000, 0.000, 0.000, 12:42:44.238
92, -4572.03, -5191.31, -5156.51, -4492.03, 0.000, 0.000, 0.000, 12:42:44.239
93, -4563.52, -5277.77, -5123.02, -4638.11, 0.000, 0.000, 0.000, 12:42:44.253
94, -4592.68, -5300.06, -5093.26, -4683.49, 0.000, 0.000, 0.000, 12:42:44.253
95, -4554.65, -5221.83, -5087.09, -4540.92, 0.000, 0.000, 0.000, 12:42:44.254
96, -4562.18, -5220.92, -5166.21, -4557.25, 0.000, 0.000, 0.000, 12:42:44.254
97, -4591.49, -5260.55, -5109.47, -4576.16, 0.000, 0.000, 0.000, 12:42:44.268
98, -4593.47, -5311.31, -5230.42, -4663.60, 0.000, 0.000, 0.000, 12:42:44.268
99, -4555.27, -5239.76, -5081.56, -4554.83, 0.000, 0.000, 0.000, 12:42:44.283
100, -4527.51, -5208.00, -4995.97, -4470.40, 0.000, 0.000, 0.000, 12:42:44.283
101, -4528.38, -5213.19, -5081.71, -4528.54, 0.000, 0.000, 0.000, 12:42:44.283
102, -4561.24, -5311.98, -5099.91, -4656.76, 0.000, 0.000, 0.000, 12:42:44.283
103, -4545.07, -5174.17, -5155.52, -4571.46, 0.000, 0.000, 0.000, 12:42:44.298
104, -4555.95, -5321.51, -5107.43, -4490.58, 0.000, 0.000, 0.000, 12:42:44.298
105, -4560.02, -5219.79, -5089.21, -4574.53, 0.000, 0.000, 0.000, 12:42:44.312
106, -4558.07, -5201.42, -5085.24, -4643.26, 0.000, 0.000, 0.000, 12:42:44.312
107, -4547.63, -5236.36, -5096.66, -4569.46, 0.000, 0.000, 0.000, 12:42:44.313
108, -4537.58, -5182.98, -5058.50, -4476.58, 0.000, 0.000, 0.000, 12:42:44.313
109, -4558.13, -5226.49, -5172.40, -4605.37, 0.000, 0.000, 0.000, 12:42:44.328
110, -4564.78, -5303.76, -5099.48, -4676.81, 0.000, 0.000, 0.000, 12:42:44.328
111, -4551.01, -5222.00, -5096.76, -4543.76, 0.000, 0.000, 0.000, 12:42:44.343
112, -4532.64, -5208.49, -5035.66, -4483.75, 0.000, 0.000, 0.000, 12:42:44.343
113, -4567.91, -5290.54, -5149.73, -4609.83, 0.000, 0.000, 0.000, 12:42:44.344
114, -4574.10, -5276.12, -5106.92, -4669.12, 0.000, 0.000, 0.000, 12:42:44.345
115, -4514.68, -5261.79, -5173.58, -4557.35, 0.000, 0.000, 0.000, 12:42:44.358
116, -4541.14, -5158.28, -5024.20, -4492.76, 0.000, 0.000, 0.000, 12:42:44.359
117, -4547.67, -5205.10, -5060.84, -4598.53, 0.000, 0.000, 0.000, 12:42:44.388
118, -4579.01, -5386.19, -5207.22, -4686.65, 0.000, 0.000, 0.000, 12:42:44.388
119, -4561.57, -5222.22, -5108.71, -4568.51, 0.000, 0.000, 0.000, 12:42:44.388
120, -4528.88, -5144.45, -5068.32, -4521.24, 0.000, 0.000, 0.000, 12:42:44.389
121, -4559.80, -5263.15, -5152.59, -4610.15, 0.000, 0.000, 0.000, 12:42:44.389
122, -4563.51, -5335.77, -5121.44, -4676.13, 0.000, 0.000, 0.000, 12:42:44.389
123, -4547.21, -5233.23, -5092.15, -4596.36, 0.000, 0.000, 0.000, 12:42:44.390
124, -4536.51, -5187.41, -5082.84, -4475.33, 0.000, 0.000, 0.000, 12:42:44.390
125, -4577.03, -5298.15, -5152.82, -4649.40, 0.000, 0.000, 0.000, 12:42:44.403
126, -4580.66, -5341.30, -5137.01, -4704.02, 0.000, 0.000, 0.000, 12:42:44.403
127, -4524.28, -5197.69, -5144.80, -4603.16, 0.000, 0.000, 0.000, 12:42:44.418
128, -4569.92, -5244.68, -5072.51, -4506.01, 0.000, 0.000, 0.000, 12:42:44.418
129, -4550.16, -5312.15, -5057.51, -4581.74, 0.000, 0.000, 0.000, 12:42:44.433
130, -4534.26, -5228.81, -5136.36, -4685.11, 0.000, 0.000, 0.000, 12:42:44.433
131, -4513.49, -5211.45, -5125.94, -4565.97, 0.000, 0.000, 0.000, 12:42:44.433
132, -4527.02, -5233.35, -5011.20, -4538.80, 0.000, 0.000, 0.000, 12:42:44.434
133, -4543.79, -5204.24, -5051.46, -4609.75, 0.000, 0.000, 0.000, 12:42:44.448
134, -4533.73, -5258.14, -5117.02, -4683.79, 0.000, 0.000, 0.000, 12:42:44.448
135, -4548.75, -5269.02, -5080.65, -4643.71, 0.000, 0.000, 0.000, 12:42:44.462
136, -4522.96, -5197.82, -5037.66, -4510.86, 0.000, 0.000, 0.000, 12:42:44.462
137, -4573.27, -5288.00, -5185.05, -4639.95, 0.000, 0.000, 0.000, 12:42:44.463
138, -4560.61, -5331.11, -5043.86, -4711.26, 0.000, 0.000, 0.000, 12:42:44.463
139, -4551.40, -5265.17, -5054.20, -4610.06, 0.000, 0.000, 0.000, 12:42:44.477
140, -4547.85, -5229.25, -5080.82, -4498.59, 0.000, 0.000, 0.000, 12:42:44.477
141, -4534.54, -5202.16, -5060.80, -4629.26, 0.000, 0.000, 0.000, 12:42:44.492
142, -4581.78, -5328.68, -5135.29, -4700.52, 0.000, 0.000, 0.000, 12:42:44.492
143, -4549.82, -5220.55, -5059.94, -4577.26, 0.000, 0.000, 0.000, 12:42:44.500
144, -4542.73, -5209.96, -5150.47, -4518.46, 0.000, 0.000, 0.000, 12:42:44.500
145, -4562.72, -5292.58, -5044.12, -4609.50, 0.000, 0.000, 0.000, 12:42:44.508
146, -4567.99, -5308.81, -5102.69, -4689.51, 0.000, 0.000, 0.000, 12:42:44.508
147, -4564.79, -5309.41, -5206.32, -4616.49, 0.000, 0.000, 0.000, 12:42:44.524
148, -4556.20, -5240.07, -5019.40, -4472.28, 0.000, 0.000, 0.000, 12:42:44.524
149, -4544.67, -5214.25, -5037.66, -4606.56, 0.000, 0.000, 0.000, 12:42:44.524
150, -4565.09, -5306.09, -5128.59, -4711.84, 0.000, 0.000, 0.000, 12:42:44.524
151, -4537.57, -5251.83, -5081.67, -4599.33, 0.000, 0.000, 0.000, 12:42:44.538
152, -4552.01, -5265.39, -5112.34, -4497.91, 0.000, 0.000, 0.000, 12:42:44.538
153, -4580.57, -5273.65, -5151.86, -4641.04, 0.000, 0.000, 0.000, 12:42:44.553
154, -4572.64, -5321.89, -5130.76, -4701.01, 0.000, 0.000, 0.000, 12:42:44.553
155, -4553.85, -5233.90, -5069.51, -4576.07, 0.000, 0.000, 0.000, 12:42:44.554
156, -4540.62, -5190.91, -5016.44, -4509.79, 0.000, 0.000, 0.000, 12:42:44.554
157, -4569.15, -5263.73, -5131.07, -4646.65, 0.000, 0.000, 0.000, 12:42:44.567
158, -4578.32, -5362.96, -5198.59, -4679.95, 0.000, 0.000, 0.000, 12:42:44.567
159, -4565.11, -5263.39, -5049.01, -4584.44, 0.000, 0.000, 0.000, 12:42:44.583
160, -4548.05, -5251.65, -5121.47, -4501.58, 0.000, 0.000, 0.000, 12:42:44.583
161, -4545.62, -5251.87, -5085.07, -4588.05, 0.000, 0.000, 0.000, 12:42:44.583
162, -4566.05, -5273.41, -5073.33, -4723.09, 0.000, 0.000, 0.000, 12:42:44.583
163, -4559.17, -5241.81, -5161.23, -4579.67, 0.000, 0.000, 0.000, 12:42:44.598
164, -4542.07, -5295.88, -5048.66, -4499.45, 0.000, 0.000, 0.000, 12:42:44.598
165, -4559.72, -5236.76, -5074.48, -4603.39, 0.000, 0.000, 0.000, 12:42:44.612
166, -4578.32, -5296.27, -5153.73, -4695.21, 0.000, 0.000, 0.000, 12:42:44.612
167, -4557.43, -5254.45, -5087.80, -4566.38, 0.000, 0.000, 0.000, 12:42:44.613
168, -4540.72, -5224.43, -5083.89, -4509.05, 0.000, 0.000, 0.000, 12:42:44.613
169, -4559.53, -5281.46, -5075.86, -4601.31, 0.000, 0.000, 0.000, 12:42:44.628
170, -4549.88, -5261.43, -5070.63, -4661.30, 0.000, 0.000, 0.000, 12:42:44.628
171, -4517.42, -5205.03, -5069.27, -4562.57, 0.000, 0.000, 0.000, 12:42:44.643
172, -4558.33, -5313.96, -5174.21, -4551.13, 0.000, 0.000, 0.000, 12:42:44.643
173, -4581.29, -5364.95, -5087.22, -4585.81, 0.000, 0.000, 0.000, 12:42:44.644
174, -4569.22, -5226.08, -5095.75, -4698.11, 0.000, 0.000, 0.000, 12:42:44.644
175, -4537.84, -5218.84, -5077.46, -4584.61, 0.000, 0.000, 0.000, 12:42:44.658
176, -4511.66, -5184.28, -5063.42, -4494.36, 0.000, 0.000, 0.000, 12:42:44.658
177, -4551.55, -5287.86, -5105.27, -4613.08, 0.000, 0.000, 0.000, 12:42:44.674
178, -4569.11, -5340.75, -5112.91, -4676.83, 0.000, 0.000, 0.000, 12:42:44.674
179, -4562.30, -5270.00, -5138.67, -4575.40, 0.000, 0.000, 0.000, 12:42:44.674
180, -4550.05, -5254.18, -5128.76, -4505.69, 0.000, 0.000, 0.000, 12:42:44.674
181, -4541.30, -5216.28, -5045.26, -4585.36, 0.000, 0.000, 0.000, 12:42:44.688
182, -4568.90, -5286.42, -5057.92, -4698.77, 0.000, 0.000, 0.000, 12:42:44.688
183, -4548.18, -5291.01, -5151.86, -4595.92, 0.000, 0.000, 0.000, 12:42:44.703
184, -4544.34, -5217.26, -5119.64, -4494.13, 0.000, 0.000, 0.000, 12:42:44.703
185, -4558.06, -5251.73, -5106.94, -4625.92, 0.000, 0.000, 0.000, 12:42:44.704
186, -4585.32, -5326.11, -5122.74, -4676.80, 0.000, 0.000, 0.000, 12:42:44.704
187, -4546.60, -5259.64, -5110.23, -4547.48, 0.000, 0.000, 0.000, 12:42:44.717
188, -4549.81, -5258.77, -5082.57, -4536.21, 0.000, 0.000, 0.000, 12:42:44.717
189, -4567.22, -5274.91, -5131.07, -4592.62, 0.000, 0.000, 0.000, 12:42:44.733
190, -4571.75, -5336.53, -5131.24, -4689.80, 0.000, 0.000, 0.000, 12:42:44.733
191, -4553.42, -5263.86, -5115.78, -4578.47, 0.000, 0.000, 0.000, 12:42:44.734
192, -4550.36, -5223.63, -5098.24, -4512.35, 0.000, 0.000, 0.000, 12:42:44.734
193, -4557.83, -5229.93, -5117.13, -4589.82, 0.000, 0.000, 0.000, 12:42:44.748
194, -4567.72, -5293.64, -5117.00, -4666.38, 0.000, 0.000, 0.000, 12:42:44.748
195, -4534.97, -5215.37, -5087.60, -4559.86, 0.000, 0.000, 0.000, 12:42:44.762
196, -4572.38, -5255.63, -5101.20, -4543.69, 0.000, 0.000, 0.000, 12:42:44.762
197, -4563.12, -5258.23, -5143.53, -4606.94, 0.000, 0.000, 0.000, 12:42:44.763
198, -4557.07, -5309.46, -5109.50, -4675.05, 0.000, 0.000, 0.000, 12:42:44.763
199, -4567.80, -5248.75, -5138.32, -4579.77, 0.000, 0.000, 0.000, 12:42:44.778
200, -4558.93, -5257.72, -5107.15, -4510.47, 0.000, 0.000, 0.000, 12:42:44.778
0, -4566.77, -5288.12, -5145.15, -4597.50, 0.000, 0.000, 0.000, 12:42:44.778
1, -4548.53, -5326.68, -5142.50, -4681.46, 0.000, 0.000, 0.000, 12:42:44.800
2, -4565.71, -5253.53, -5086.17, -4573.69, 0.000, 0.000, 0.000, 12:42:44.800
3, -4537.04, -5241.80, -5051.41, -4501.05, 0.000, 0.000, 0.000, 12:42:44.808
4, -4566.39, -5296.20, -5170.91, -4600.18, 0.000, 0.000, 0.000, 12:42:44.808
5, -4573.90, -5290.98, -5124.52, -4691.27, 0.000, 0.000, 0.000, 12:42:44.809
6, -4559.69, -5251.20, -5089.16, -4568.02, 0.000, 0.000, 0.000, 12:42:44.809
7, -4528.77, -5229.84, -5101.39, -4532.06, 0.000, 0.000, 0.000, 12:42:44.823
8, -4565.79, -5286.79, -5181.91, -4576.01, 0.000, 0.000, 0.000, 12:42:44.824
9, -4572.23, -5295.17, -5077.67, -4693.96, 0.000, 0.000, 0.000, 12:42:44.839
10, -4532.94, -5268.31, -5133.09, -4584.76, 0.000, 0.000, 0.000, 12:42:44.839
11, -4533.08, -5202.66, -5079.61, -4491.49, 0.000, 0.000, 0.000, 12:42:44.839
12, -4575.47, -5269.19, -5117.94, -4607.35, 0.000, 0.000, 0.000, 12:42:44.840
13, -4565.52, -5346.20, -5132.64, -4680.37, 0.000, 0.000, 0.000, 12:42:44.853
14, -4557.74, -5356.97, -5159.97, -4576.80, 0.000, 0.000, 0.000, 12:42:44.853
15, -4538.13, -5195.05, -5103.41, -4522.45, 0.000, 0.000, 0.000, 12:42:44.868
16, -4550.72, -5188.15, -5068.31, -4604.58, 0.000, 0.000, 0.000, 12:42:44.868
17, -4573.95, -5269.71, -5090.65, -4703.26, 0.000, 0.000, 0.000, 12:42:44.869
18, -4547.24, -5366.58, -5211.54, -4566.17, 0.000, 0.000, 0.000, 12:42:44.869
19, -4577.46, -5231.09, -5081.78, -4543.87, 0.000, 0.000, 0.000, 12:42:44.882
20, -4569.89, -5209.89, -5075.54, -4620.37, 0.000, 0.000, 0.000, 12:42:44.882
21, -4583.33, -5341.80, -5138.16, -4674.94, 0.000, 0.000, 0.000, 12:42:44.898
22, -4554.80, -5276.12, -5160.53, -4587.73, 0.000, 0.000, 0.000, 12:42:44.898
23, -4553.82, -5227.67, -5113.82, -4517.38, 0.000, 0.000, 0.000, 12:42:44.899
24, -4564.77, -5287.96, -5112.35, -4571.90, 0.000, 0.000, 0.000, 12:42:44.899
25, -4587.66, -5303.23, -5136.31, -4718.28, 0.000, 0.000, 0.000, 12:42:44.913
26, -4540.51, -5257.02, -5051.21, -4555.14, 0.000, 0.000, 0.000, 12:42:44.913
27, -4564.70, -5259.75, -5112.34, -4522.71, 0.000, 0.000, 0.000, 12:42:44.928
28, -4566.98, -5243.95, -5199.52, -4598.21, 0.000, 0.000, 0.000, 12:42:44.928
29, -4586.00, -5380.98, -5143.86, -4709.17, 0.000, 0.000, 0.000, 12:42:44.928
30, -4559.12, -5283.96, -5077.92, -4573.06, 0.000, 0.000, 0.000, 12:42:44.928
31, -4544.28, -5230.31, -5088.05, -4492.82, 0.000, 0.000, 0.000, 12:42:44.943
32, -4574.33, -5260.56, -5132.49, -4616.32, 0.000, 0.000, 0.000, 12:42:44.943
33, -4580.80, -5290.35, -5104.30, -4708.15, 0.000, 0.000, 0.000, 12:42:44.959
34, -4548.90, -5266.97, -5165.69, -4544.27, 0.000, 0.000, 0.000, 12:42:44.959
35, -4550.67, -5288.59, -5056.49, -4523.74, 0.000, 0.000, 0.000, 12:42:44.959
36, -4569.62, -5280.42, -5093.56, -4617.50, 0.000, 0.000, 0.000, 12:42:44.959
37, -4576.12, -5371.36, -5188.89, -4691.63, 0.000, 0.000, 0.000, 12:42:44.973
38, -4547.67, -5174.58, -5112.11, -4564.32, 0.000, 0.000, 0.000, 12:42:44.974
39, -4549.62, -5239.21, -5091.68, -4527.39, 0.000, 0.000, 0.000, 12:42:44.988
40, -4567.39, -5254.05, -5104.41, -4590.11, 0.000, 0.000, 0.000, 12:42:44.989
41, -4579.22, -5318.67, -5154.79, -4688.47, 0.000, 0.000, 0.000, 12:42:44.989
42, -4569.87, -5324.74, -5128.08, -4580.49, 0.000, 0.000, 0.000, 12:42:44.989
43, -4549.45, -5227.74, -5066.47, -4484.11, 0.000, 0.000, 0.000, 12:42:45.003
44, -4564.72, -5338.28, -5147.93, -4614.04, 0.000, 0.000, 0.000, 12:42:45.003
45, -4572.63, -5251.20, -5089.08, -4711.03, 0.000, 0.000, 0.000, 12:42:45.033
46, -4550.94, -5263.25, -5116.96, -4583.71, 0.000, 0.000, 0.000, 12:42:45.033
47, -4527.63, -5233.60, -5076.13, -4496.49, 0.000, 0.000, 0.000, 12:42:45.033
48, -4572.57, -5325.03, -5144.40, -4624.24, 0.000, 0.000, 0.000, 12:42:45.034
49, -4564.99, -5317.53, -5057.35, -4674.53, 0.000, 0.000, 0.000, 12:42:45.034
50, -4523.86, -5154.54, -5137.81, -4564.50, 0.000, 0.000, 0.000, 12:42:45.034
51, -4541.07, -5249.48, -5068.35, -4523.05, 0.000, 0.000, 0.000, 12:42:45.035
52, -4571.89, -5297.27, -5112.75, -4609.19, 0.000, 0.000, 0.000, 12:42:45.035
53, -4583.30, -5359.13, -5115.33, -4657.28, 0.000, 0.000, 0.000, 12:42:45.048
54, -4550.71, -5254.33, -5086.71, -4553.67, 0.000, 0.000, 0.000, 12:42:45.048
55, -4540.94, -5262.41, -5118.69, -4553.73, 0.000, 0.000, 0.000, 12:42:45.063
56, -4571.85, -5332.85, -5189.40, -4604.38, 0.000, 0.000, 0.000, 12:42:45.063
57, -4584.12, -5372.51, -5139.06, -4697.14, 0.000, 0.000, 0.000, 12:42:45.078
58, -4551.07, -5167.67, -5043.65, -4558.64, 0.000, 0.000, 0.000, 12:42:45.078
59, -4561.68, -5272.90, -5105.08, -4510.12, 0.000, 0.000, 0.000, 12:42:45.078
60, -4572.51, -5304.39, -5119.25, -4600.64, 0.000, 0.000, 0.000, 12:42:45.079
61, -4574.36, -5305.86, -5132.64, -4697.60, 0.000, 0.000, 0.000, 12:42:45.108
62, -4546.07, -5278.13, -5121.87, -4583.10, 0.000, 0.000, 0.000, 12:42:45.108
63, -4528.41, -5260.77, -5098.90, -4493.73, 0.000, 0.000, 0.000, 12:42:45.109
64, -4563.01, -5268.07, -5043.08, -4565.88, 0.000, 0.000, 0.000, 12:42:45.109
65, -4575.46, -5324.55, -5078.38, -4712.61, 0.000, 0.000, 0.000, 12:42:45.109
66, -4551.82, -5226.35, -5156.34, -4555.53, 0.000, 0.000, 0.000, 12:42:45.109
67, -4548.09, -5284.06, -5125.21, -4507.25, 0.000, 0.000, 0.000, 12:42:45.124
68, -4575.63, -5270.03, -5090.97, -4646.51, 0.000, 0.000, 0.000, 12:42:45.124
69, -4588.68, -5380.23, -5133.83, -4698.24, 0.000, 0.000, 0.000, 12:42:45.138
70, -4544.98, -5206.77, -5095.55, -4515.36, 0.000, 0.000, 0.000, 12:42:45.138
71, -4551.48, -5303.23, -5119.18, -4545.77, 0.000, 0.000, 0.000, 12:42:45.139
72, -4576.33, -5338.57, -5119.88, -4619.72, 0.000, 0.000, 0.000, 12:42:45.139
73, -4589.46, -5339.43, -5126.29, -4726.19, 0.000, 0.000, 0.000, 12:42:45.153
74, -4540.01, -5231.59, -5155.07, -4581.90, 0.000, 0.000, 0.000, 12:42:45.153
75, -4528.52, -5269.83, -5088.86, -4480.67, 0.000, 0.000, 0.000, 12:42:45.168
76, -4574.44, -5255.65, -5085.33, -4622.46, 0.000, 0.000, 0.000, 12:42:45.168
77, -4591.28, -5317.80, -5127.66, -4709.75, 0.000, 0.000, 0.000, 12:42:45.169
78, -4562.78, -5252.96, -5128.75, -4585.01, 0.000, 0.000, 0.000, 12:42:45.169
79, -4554.29, -5234.06, -5117.38, -4509.26, 0.000, 0.000, 0.000, 12:42:45.183
80, -4609.45, -5302.06, -5144.52, -4633.81, 0.000, 0.000, 0.000, 12:42:45.183
81, -4625.16, -5414.71, -5158.15, -4733.60, 0.000, 0.000, 0.000, 12:42:45.197
82, -4565.30, -5247.15, -5138.41, -4570.50, 0.000, 0.000, 0.000, 12:42:45.198
83, -4554.90, -5222.37, -5112.85, -4535.77, 0.000, 0.000, 0.000, 12:42:45.198
84, -4577.34, -5330.80, -5120.54, -4647.79, 0.000, 0.000, 0.000, 12:42:45.198
85, -4585.77, -5381.43, -5177.27, -4701.88, 0.000, 0.000, 0.000, 12:42:45.212
86, -4544.57, -5223.42, -5046.01, -4577.22, 0.000, 0.000, 0.000, 12:42:45.212
87, -4587.48, -5241.05, -5081.19, -4555.95, 0.000, 0.000, 0.000, 12:42:45.228
88, -4545.48, -5233.05, -5067.06, -4608.88, 0.000, 0.000, 0.000, 12:42:45.228
89, -4542.74, -5281.22, -5055.36, -4670.72, 0.000, 0.000, 0.000, 12:42:45.229
90, -4512.78, -5158.06, -5125.98, -4529.38, 0.000, 0.000, 0.000, 12:42:45.229
91, -4525.64, -5223.89, -5102.19, -4519.69, 0.000, 0.000, 0.000, 12:42:45.243
92, -4550.68, -5272.54, -5053.64, -4595.52, 0.000, 0.000, 0.000, 12:42:45.243
93, -4563.84, -5235.70, -5121.08, -4702.05, 0.000, 0.000, 0.000, 12:42:45.258
94, -4515.38, -5098.20, -5010.63, -4522.33, 0.000, 0.000, 0.000, 12:42:45.258
95, -4513.97, -5178.00, -5050.29, -4483.15, 0.000, 0.000, 0.000, 12:42:45.259
96, -4520.70, -5203.98, -5097.83, -4602.79, 0.000, 0.000, 0.000, 12:42:45.259
97, -4545.42, -5181.36, -5047.46, -4646.46, 0.000, 0.000, 0.000, 12:42:45.273
98, -4531.75, -5148.37, -5064.23, -4558.24, 0.000, 0.000, 0.000, 12:42:45.273
99, -4516.15, -5181.67, -5086.09, -4479.15, 0.000, 0.000, 0.000, 12:42:45.288
100, -4557.47, -5283.33, -5074.03, -4570.83, 0.000, 0.000, 0.000, 12:42:45.288
101, -4550.67, -5268.77, -5074.52, -4651.35, 0.000, 0.000, 0.000, 12:42:45.288
102, -4522.63, -5200.89, -5136.18, -4530.24, 0.000, 0.000, 0.000, 12:42:45.289
103, -4536.92, -5161.28, -5040.44, -4517.94, 0.000, 0.000, 0.000, 12:42:45.303
104, -4557.88, -5176.18, -5078.88, -4584.89, 0.000, 0.000, 0.000, 12:42:45.303
105, -4563.86, -5214.87, -5133.03, -4652.54, 0.000, 0.000, 0.000, 12:42:45.317
106, -4535.21, -5150.09, -5090.12, -4545.36, 0.000, 0.000, 0.000, 12:42:45.317
107, -4527.36, -5223.17, -5083.51, -4498.43, 0.000, 0.000, 0.000, 12:42:45.318
108, -4542.06, -5179.48, -5035.90, -4602.45, 0.000, 0.000, 0.000, 12:42:45.318
109, -4549.06, -5234.63, -5124.91, -4639.99, 0.000, 0.000, 0.000, 12:42:45.333
110, -4526.46, -5139.63, -5115.09, -4534.90, 0.000, 0.000, 0.000, 12:42:45.333
111, -4523.00, -5177.21, -5051.70, -4514.61, 0.000, 0.000, 0.000, 12:42:45.348
112, -4552.78, -5270.24, -5122.93, -4614.19, 0.000, 0.000, 0.000, 12:42:45.348
113, -4561.23, -5244.16, -5138.84, -4657.34, 0.000, 0.000, 0.000, 12:42:45.348
114, -4543.14, -5241.59, -5025.43, -4534.64, 0.000, 0.000, 0.000, 12:42:45.348
115, -4533.82, -5190.27, -5111.54, -4518.67, 0.000, 0.000, 0.000, 12:42:45.363
116, -4535.63, -5237.37, -5151.13, -4564.50, 0.000, 0.000, 0.000, 12:42:45.363
117, -4583.50, -5314.81, -5137.37, -4735.13, 0.000, 0.000, 0.000, 12:42:45.378
118, -4549.42, -5198.67, -5126.51, -4542.74, 0.000, 0.000, 0.000, 12:42:45.378
119, -4544.44, -5198.56, -5060.33, -4539.55, 0.000, 0.000, 0.000, 12:42:45.379
120, -4582.38, -5269.57, -5100.81, -4599.13, 0.000, 0.000, 0.000, 12:42:45.379
121, -4568.07, -5319.86, -5167.20, -4689.00, 0.000, 0.000, 0.000, 12:42:45.393
122, -4556.92, -5294.91, -5137.90, -4572.25, 0.000, 0.000, 0.000, 12:42:45.394
123, -4548.99, -5204.08, -5079.40, -4526.35, 0.000, 0.000, 0.000, 12:42:45.408
124, -4565.25, -5242.40, -5161.03, -4615.14, 0.000, 0.000, 0.000, 12:42:45.408
125, -4601.77, -5258.61, -5112.92, -4687.06, 0.000, 0.000, 0.000, 12:42:45.409
126, -4544.19, -5203.70, -5122.39, -4586.69, 0.000, 0.000, 0.000, 12:42:45.409
127, -4563.78, -5299.23, -5129.06, -4523.04, 0.000, 0.000, 0.000, 12:42:45.424
128, -4546.82, -5212.05, -5086.34, -4602.40, 0.000, 0.000, 0.000, 12:42:45.424
129, -4585.73, -5322.19, -5181.44, -4701.41, 0.000, 0.000, 0.000, 12:42:45.439
130, -4563.91, -5328.65, -5106.86, -4558.15, 0.000, 0.000, 0.000, 12:42:45.439
131, -4550.71, -5233.28, -5104.70, -4504.61, 0.000, 0.000, 0.000, 12:42:45.439
132, -4599.40, -5279.33, -5127.60, -4647.50, 0.000, 0.000, 0.000, 12:42:45.439
133, -4569.33, -5265.12, -5177.99, -4705.22, 0.000, 0.000, 0.000, 12:42:45.453
134, -4537.90, -5219.94, -5110.99, -4503.91, 0.000, 0.000, 0.000, 12:42:45.453
135, -4526.54, -5201.12, -5145.50, -4519.37, 0.000, 0.000, 0.000, 12:42:45.467
136, -4581.09, -5322.17, -5133.59, -4626.31, 0.000, 0.000, 0.000, 12:42:45.467
137, -4632.91, -5339.40, -5102.63, -4755.41, 0.000, 0.000, 0.000, 12:42:45.468
138, -4572.75, -5236.79, -5145.24, -4567.67, 0.000, 0.000, 0.000, 12:42:45.468
139, -4570.13, -5275.14, -5116.12, -4465.40, 0.000, 0.000, 0.000, 12:42:45.483
140, -4629.24, -5340.75, -5103.16, -4656.93, 0.000, 0.000, 0.000, 12:42:45.483
141, -4620.60, -5414.90, -5163.78, -4737.18, 0.000, 0.000, 0.000, 12:42:45.498
142, -4644.35, -5350.83, -5212.97, -4649.47, 0.000, 0.000, 0.000, 12:42:45.498
143, -4518.79, -5240.82, -5037.04, -4456.60, 0.000, 0.000, 0.000, 12:42:45.498
144, -4563.27, -5269.84, -5132.20, -4628.29, 0.000, 0.000, 0.000, 12:42:45.498
145, -4584.73, -5434.67, -5121.78, -4697.11, 0.000, 0.000, 0.000, 12:42:45.513
146, -4582.32, -5253.89, -5111.68, -4532.82, 0.000, 0.000, 0.000, 12:42:45.513
147, -4537.09, -5189.93, -5146.08, -4521.69, 0.000, 0.000, 0.000, 12:42:45.528
148, -4625.98, -5331.87, -5080.83, -4706.67, 0.000, 0.000, 0.000, 12:42:45.528
149, -4642.04, -5441.47, -5184.15, -4714.30, 0.000, 0.000, 0.000, 12:42:45.528
150, -4590.98, -5237.71, -5177.99, -4589.58, 0.000, 0.000, 0.000, 12:42:45.528
151, -4510.84, -5221.82, -5059.50, -4493.45, 0.000, 0.000, 0.000, 12:42:45.544
152, -4560.87, -5265.59, -5049.90, -4657.02, 0.000, 0.000, 0.000, 12:42:45.544
153, -4585.90, -5289.39, -5086.08, -4719.93, 0.000, 0.000, 0.000, 12:42:45.559
154, -4580.21, -5235.57, -5109.00, -4589.74, 0.000, 0.000, 0.000, 12:42:45.559
155, -4510.03, -5155.95, -5046.85, -4518.75, 0.000, 0.000, 0.000, 12:42:45.559
156, -4566.18, -5331.48, -5103.85, -4700.29, 0.000, 0.000, 0.000, 12:42:45.559
157, -4604.74, -5393.24, -5119.78, -4750.11, 0.000, 0.000, 0.000, 12:42:45.588
158, -4541.68, -5174.03, -5048.18, -4586.19, 0.000, 0.000, 0.000, 12:42:45.588
159, -4545.83, -5196.10, -4982.14, -4541.48, 0.000, 0.000, 0.000, 12:42:45.588
160, -4582.65, -5234.71, -5079.27, -4668.08, 0.000, 0.000, 0.000, 12:42:45.589
161, -4558.49, -5281.13, -5142.60, -4737.92, 0.000, 0.000, 0.000, 12:42:45.590
162, -4519.88, -5252.70, -5024.59, -4540.28, 0.000, 0.000, 0.000, 12:42:45.590
163, -4543.01, -5248.24, -5071.48, -4572.04, 0.000, 0.000, 0.000, 12:42:45.602
164, -4584.43, -5292.18, -5140.57, -4637.58, 0.000, 0.000, 0.000, 12:42:45.603
165, -4586.75, -5259.44, -5034.46, -4702.57, 0.000, 0.000, 0.000, 12:42:45.618
166, -4556.33, -5195.50, -5056.63, -4591.90, 0.000, 0.000, 0.000, 12:42:45.618
167, -4581.50, -5216.56, -5105.02, -4572.82, 0.000, 0.000, 0.000, 12:42:45.618
168, -4564.91, -5342.93, -5127.93, -4633.17, 0.000, 0.000, 0.000, 12:42:45.618
169, -4593.69, -5320.89, -5106.93, -4743.94, 0.000, 0.000, 0.000, 12:42:45.633
170, -4566.70, -5182.65, -5101.45, -4592.24, 0.000, 0.000, 0.000, 12:42:45.633
171, -4560.85, -5284.17, -5142.89, -4510.41, 0.000, 0.000, 0.000, 12:42:45.648
172, -4559.52, -5264.89, -5075.48, -4650.74, 0.000, 0.000, 0.000, 12:42:45.648
173, -4569.61, -5268.96, -5152.71, -4728.88, 0.000, 0.000, 0.000, 12:42:45.649
174, -4541.11, -5193.68, -5058.68, -4547.59, 0.000, 0.000, 0.000, 12:42:45.649
175, -4554.53, -5291.78, -5122.07, -4529.46, 0.000, 0.000, 0.000, 12:42:45.663
176, -4532.80, -5207.62, -5116.18, -4605.59, 0.000, 0.000, 0.000, 12:42:45.663
177, -4559.65, -5247.79, -5119.53, -4708.93, 0.000, 0.000, 0.000, 12:42:45.678
178, -4528.98, -5209.11, -5040.06, -4547.67, 0.000, 0.000, 0.000, 12:42:45.678
179, -4535.33, -5202.83, -5088.14, -4505.96, 0.000, 0.000, 0.000, 12:42:45.679
180, -4548.82, -5280.67, -5184.57, -4630.84, 0.000, 0.000, 0.000, 12:42:45.679
181, -4558.70, -5271.41, -5080.34, -4699.43, 0.000, 0.000, 0.000, 12:42:45.694
182, -4540.55, -5308.17, -5103.50, -4540.70, 0.000, 0.000, 0.000, 12:42:45.694
183, -4539.93, -5157.49, -5138.16, -4530.00, 0.000, 0.000, 0.000, 12:42:45.708
184, -4531.61, -5243.38, -5064.11, -4595.87, 0.000, 0.000, 0.000, 12:42:45.708
185, -4566.36, -5305.38, -5106.79, -4704.54, 0.000, 0.000, 0.000, 12:42:45.715
186, -4525.18, -5258.56, -5133.65, -4529.60, 0.000, 0.000, 0.000, 12:42:45.715
187, -4552.38, -5208.92, -5082.74, -4500.70, 0.000, 0.000, 0.000, 12:42:45.723
188, -4568.54, -5212.91, -5106.17, -4631.12, 0.000, 0.000, 0.000, 12:42:45.723
189, -4555.40, -5309.33, -5159.08, -4675.91, 0.000, 0.000, 0.000, 12:42:45.738
190, -4533.18, -5278.83, -5107.58, -4544.87, 0.000, 0.000, 0.000, 12:42:45.739
191, -4557.37, -5276.03, -5168.99, -4534.59, 0.000, 0.000, 0.000, 12:42:45.739
192, -4553.03, -5216.25, -5142.80, -4636.47, 0.000, 0.000, 0.000, 12:42:45.739
193, -4555.65, -5312.51, -5082.34, -4709.19, 0.000, 0.000, 0.000, 12:42:45.752
194, -4550.59, -5262.51, -5118.94, -4541.74, 0.000, 0.000, 0.000, 12:42:45.752
195, -4558.27, -5216.94, -5095.03, -4511.52, 0.000, 0.000, 0.000, 12:42:45.768
196, -4547.62, -5262.04, -5121.85, -4626.17, 0.000, 0.000, 0.000, 12:42:45.768
197, -4558.69, -5305.04, -5166.22, -4702.45, 0.000, 0.000, 0.000, 12:42:45.768
198, -4554.24, -5252.20, -5142.46, -4544.75, 0.000, 0.000, 0.000, 12:42:45.768
199, -4545.55, -5237.69, -5116.97, -4506.78, 0.000, 0.000, 0.000, 12:42:45.782
200, -4563.02, -5285.98, -5130.60, -4601.52, 0.000, 0.000, 0.000, 12:42:45.782
0, -4560.27, -5299.33, -5108.81, -4696.47, 0.000, 0.000, 0.000, 12:42:45.783
1, -4559.49, -5285.06, -5148.61, -4539.16, 0.000, 0.000, 0.000, 12:42:45.798
2, -4561.32, -5302.97, -5158.80, -4536.19, 0.000, 0.000, 0.000, 12:42:45.798
3, -4532.55, -5225.87, -5136.62, -4596.08, 0.000, 0.000, 0.000, 12:42:45.813
4, -4546.60, -5290.93, -5080.45, -4687.46, 0.000, 0.000, 0.000, 12:42:45.813
5, -4545.67, -5249.54, -5130.61, -4531.22, 0.000, 0.000, 0.000, 12:42:45.813
6, -4506.82, -5217.17, -5144.00, -4473.35, 0.000, 0.000, 0.000, 12:42:45.814
7, -4561.18, -5249.04, -5082.63, -4638.86, 0.000, 0.000, 0.000, 12:42:45.828
8, -4573.31, -5328.11, -5180.51, -4699.03, 0.000, 0.000, 0.000, 12:42:45.828
9, -4529.35, -5240.18, -5130.21, -4504.47, 0.000, 0.000, 0.000, 12:42:45.843
10, -4540.06, -5251.72, -5107.35, -4476.03, 0.000, 0.000, 0.000, 12:42:45.843
11, -4556.88, -5313.82, -5155.38, -4624.71, 0.000, 0.000, 0.000, 12:42:45.844
12, -4580.99, -5376.56, -5184.93, -4710.30, 0.000, 0.000, 0.000, 12:42:45.844
13, -4521.21, -5167.06, -5102.45, -4538.98, 0.000, 0.000, 0.000, 12:42:45.858
14, -4507.19, -5258.85, -5126.79, -4505.22, 0.000, 0.000, 0.000, 12:42:45.858
15, -4543.80, -5347.52, -5173.78, -4621.28, 0.000, 0.000, 0.000, 12:42:45.874
16, -4549.02, -5390.38, -5236.39, -4675.75, 0.000, 0.000, 0.000, 12:42:45.874
17, -4527.68, -5229.70, -5094.56, -4544.93, 0.000, 0.000, 0.000, 12:42:45.874
18, -4517.75, -5236.90, -5118.59, -4482.82, 0.000, 0.000, 0.000, 12:42:45.874
19, -4549.41, -5348.51, -5203.74, -4603.11, 0.000, 0.000, 0.000, 12:42:45.888
20, -4578.98, -5309.96, -5098.50, -4706.10, 0.000, 0.000, 0.000, 12:42:45.888
21, -4535.59, -5212.21, -5127.09, -4523.42, 0.000, 0.000, 0.000, 12:42:45.903
22, -4567.69, -5259.37, -5159.51, -4508.14, 0.000, 0.000, 0.000, 12:42:45.903
23, -4565.78, -5283.78, -5160.00, -4615.29, 0.000, 0.000, 0.000, 12:42:45.903
24, -4567.00, -5347.33, -5167.32, -4669.66, 0.000, 0.000, 0.000, 12:42:45.903
25, -4559.81, -5259.81, -5127.05, -4552.16, 0.000, 0.000, 0.000, 12:42:45.917
26, -4553.74, -5238.84, -5190.95, -4512.64, 0.000, 0.000, 0.000, 12:42:45.917
27, -4567.16, -5307.10, -5157.87, -4615.22, 0.000, 0.000, 0.000, 12:42:45.932
28, -4590.42, -5364.59, -5101.32, -4693.01, 0.000, 0.000, 0.000, 12:42:45.932
29, -4550.77, -5210.94, -5127.92, -4520.82, 0.000, 0.000, 0.000, 12:42:45.933
30, -4563.03, -5241.14, -5236.94, -4525.89, 0.000, 0.000, 0.000, 12:42:45.933
31, -4573.43, -5260.06, -5081.04, -4621.30, 0.000, 0.000, 0.000, 12:42:45.948
32, -4580.26, -5278.07, -5131.18, -4667.17, 0.000, 0.000, 0.000, 12:42:45.948
33, -4564.68, -5233.16, -5170.84, -4555.97, 0.000, 0.000, 0.000, 12:42:45.963
34, -4565.60, -5284.01, -5119.93, -4517.30, 0.000, 0.000, 0.000, 12:42:45.963
35, -4591.56, -5265.38, -5129.24, -4623.66, 0.000, 0.000, 0.000, 12:42:45.963
36, -4595.81, -5361.94, -5183.97, -4682.15, 0.000, 0.000, 0.000, 12:42:45.964
37, -4543.49, -5145.18, -5100.93, -4547.44, 0.000, 0.000, 0.000, 12:42:45.978
38, -4581.96, -5246.69, -5125.74, -4524.75, 0.000, 0.000, 0.000, 12:42:45.978
39, -4595.06, -5330.59, -5213.51, -4634.28, 0.000, 0.000, 0.000, 12:42:45.993
40, -4582.09, -5275.47, -5177.60, -4689.62, 0.000, 0.000, 0.000, 12:42:45.993
41, -4579.59, -5279.13, -5106.93, -4520.64, 0.000, 0.000, 0.000, 12:42:45.994
42, -4572.67, -5237.52, -5104.47, -4513.33, 0.000, 0.000, 0.000, 12:42:45.994
43, -4579.87, -5355.35, -5169.57, -4631.22, 0.000, 0.000, 0.000, 12:42:46.008
44, -4572.10, -5249.54, -5156.72, -4691.89, 0.000, 0.000, 0.000, 12:42:46.008
45, -4538.36, -5205.42, -5063.98, -4540.47, 0.000, 0.000, 0.000, 12:42:46.023
46, -4559.33, -5223.53, -5139.77, -4513.76, 0.000, 0.000, 0.000, 12:42:46.023
47, -4584.77, -5284.92, -5166.74, -4626.10, 0.000, 0.000, 0.000, 12:42:46.024
48, -4574.77, -5294.69, -5147.78, -4682.71, 0.000, 0.000, 0.000, 12:42:46.024
49, -4568.97, -5262.23, -5140.75, -4536.79, 0.000, 0.000, 0.000, 12:42:46.038
50, -4542.56, -5221.62, -5134.86, -4514.30, 0.000, 0.000, 0.000, 12:42:46.038
51, -4584.51, -5285.56, -5154.99, -4641.71, 0.000, 0.000, 0.000, 12:42:46.053
52, -4565.37, -5291.60, -5111.95, -4662.40, 0.000, 0.000, 0.000, 12:42:46.053
53, -4545.78, -5210.39, -5073.28, -4532.56, 0.000, 0.000, 0.000, 12:42:46.053
54, -4564.70, -5284.63, -5164.91, -4517.91, 0.000, 0.000, 0.000, 12:42:46.053
55, -4539.90, -5212.68, -5094.02, -4610.03, 0.000, 0.000, 0.000, 12:42:46.083
56, -4551.88, -5281.38, -5185.47, -4703.81, 0.000, 0.000, 0.000, 12:42:46.083
57, -4530.84, -5247.40, -5109.63, -4516.08, 0.000, 0.000, 0.000, 12:42:46.083
58, -4558.12, -5237.46, -5107.36, -4508.60, 0.000, 0.000, 0.000, 12:42:46.083
59, -4559.33, -5232.85, -5091.98, -4607.47, 0.000, 0.000, 0.000, 12:42:46.084
60, -4548.41, -5244.65, -5105.60, -4668.25, 0.000, 0.000, 0.000, 12:42:46.084
61, -4537.77, -5236.63, -5136.71, -4531.64, 0.000, 0.000, 0.000, 12:42:46.098
62, -4537.36, -5235.37, -5102.38, -4524.59, 0.000, 0.000, 0.000, 12:42:46.098
63, -4582.12, -5326.71, -5153.92, -4627.48, 0.000, 0.000, 0.000, 12:42:46.113
64, -4568.03, -5246.12, -5095.85, -4708.11, 0.000, 0.000, 0.000, 12:42:46.113
65, -4565.89, -5234.45, -5126.57, -4536.81, 0.000, 0.000, 0.000, 12:42:46.113
66, -4539.00, -5174.84, -5125.26, -4494.80, 0.000, 0.000, 0.000, 12:42:46.113
67, -4561.42, -5273.78, -5181.69, -4589.04, 0.000, 0.000, 0.000, 12:42:46.143
68, -4588.67, -5311.10, -5162.87, -4676.51, 0.000, 0.000, 0.000, 12:42:46.143
69, -4561.76, -5320.03, -5180.20, -4498.29, 0.000, 0.000, 0.000, 12:42:46.144
70, -4562.58, -5245.26, -5195.30, -4502.38, 0.000, 0.000, 0.000, 12:42:46.144
71, -4571.85, -5303.52, -5176.02, -4579.74, 0.000, 0.000, 0.000, 12:42:46.144
72, -4570.79, -5323.81, -5190.14, -4638.31, 0.000, 0.000, 0.000, 12:42:46.144
73, -4551.62, -5247.50, -5161.61, -4488.60, 0.000, 0.000, 0.000, 12:42:46.158
74, -4554.36, -5244.53, -5188.96, -4472.33, 0.000, 0.000, 0.000, 12:42:46.158
75, -4589.17, -5305.15, -5170.41, -4601.34, 0.000, 0.000, 0.000, 12:42:46.173
76, -4590.72, -5369.25, -5222.22, -4672.22, 0.000, 0.000, 0.000, 12:42:46.174
77, -4544.67, -5240.42, -5205.16, -4509.42, 0.000, 0.000, 0.000, 12:42:46.180
78, -4553.64, -5258.10, -5142.73, -4483.45, 0.000, 0.000, 0.000, 12:42:46.180
79, -4575.50, -5310.06, -5147.30, -4627.82, 0.000, 0.000, 0.000, 12:42:46.189
80, -4592.29, -5367.44, -5219.95, -4699.51, 0.000, 0.000, 0.000, 12:42:46.189
81, -4567.42, -5220.24, -5129.93, -4515.25, 0.000, 0.000, 0.000, 12:42:46.203
82, -4563.37, -5263.99, -5147.25, -4491.27, 0.000, 0.000, 0.000, 12:42:46.203
83, -4588.10, -5255.16, -5141.22, -4616.35, 0.000, 0.000, 0.000, 12:42:46.204
84, -4580.84, -5251.03, -5138.12, -4677.75, 0.000, 0.000, 0.000, 12:42:46.204
85, -4577.67, -5284.33, -5199.15, -4529.92, 0.000, 0.000, 0.000, 12:42:46.218
86, -4569.68, -5286.65, -5151.90, -4513.89, 0.000, 0.000, 0.000, 12:42:46.218
87, -4591.88, -5314.36, -5192.46, -4625.11, 0.000, 0.000, 0.000, 12:42:46.232
88, -4579.51, -5291.59, -5097.97, -4656.47, 0.000, 0.000, 0.000, 12:42:46.232
89, -4566.94, -5258.51, -5172.16, -4544.14, 0.000, 0.000, 0.000, 12:42:46.233
90, -4564.33, -5280.75, -5226.14, -4517.93, 0.000, 0.000, 0.000, 12:42:46.233
91, -4583.03, -5294.78, -5097.12, -4637.02, 0.000, 0.000, 0.000, 12:42:46.247
92, -4596.88, -5327.03, -5175.93, -4710.23, 0.000, 0.000, 0.000, 12:42:46.248
93, -4549.24, -5191.08, -5108.94, -4522.24, 0.000, 0.000, 0.000, 12:42:46.263
94, -4548.48, -5208.71, -5148.31, -4502.62, 0.000, 0.000, 0.000, 12:42:46.263
95, -4586.16, -5353.50, -5173.37, -4655.08, 0.000, 0.000, 0.000, 12:42:46.264
96, -4579.57, -5349.06, -5162.05, -4699.69, 0.000, 0.000, 0.000, 12:42:46.264
97, -4537.93, -5188.85, -5095.61, -4488.08, 0.000, 0.000, 0.000, 12:42:46.278
98, -4557.55, -5235.80, -5110.05, -4524.37, 0.000, 0.000, 0.000, 12:42:46.278
99, -4592.08, -5288.72, -5188.32, -4623.45, 0.000, 0.000, 0.000, 12:42:46.293
100, -4581.07, -5323.42, -5165.09, -4714.12, 0.000, 0.000, 0.000, 12:42:46.294
101, -4542.79, -5221.30, -5099.57, -4512.85, 0.000, 0.000, 0.000, 12:42:46.294
102, -4557.98, -5218.71, -5117.45, -4525.40, 0.000, 0.000, 0.000, 12:42:46.295
103, -4577.75, -5311.32, -5198.92, -4617.82, 0.000, 0.000, 0.000, 12:42:46.308
104, -4592.11, -5319.28, -5170.61, -4705.71, 0.000, 0.000, 0.000, 12:42:46.308
105, -4541.94, -5196.00, -5130.27, -4507.13, 0.000, 0.000, 0.000, 12:42:46.324
106, -4562.28, -5293.54, -5136.26, -4525.80, 0.000, 0.000, 0.000, 12:42:46.324
107, -4573.21, -5272.09, -5090.63, -4618.26, 0.000, 0.000, 0.000, 12:42:46.324
108, -4591.56, -5295.68, -5162.12, -4699.57, 0.000, 0.000, 0.000, 12:42:46.324
109, -4546.95, -5247.75, -5123.03, -4508.96, 0.000, 0.000, 0.000, 12:42:46.338
110, -4544.48, -5238.71, -5154.60, -4521.80, 0.000, 0.000, 0.000, 12:42:46.338
111, -4569.65, -5276.85, -5124.58, -4632.42, 0.000, 0.000, 0.000, 12:42:46.353
112, -4585.80, -5282.66, -5145.10, -4698.71, 0.000, 0.000, 0.000, 12:42:46.353
113, -4520.79, -5263.76, -5176.01, -4504.63, 0.000, 0.000, 0.000, 12:42:46.353
114, -4534.10, -5168.25, -5028.75, -4496.21, 0.000, 0.000, 0.000, 12:42:46.353
115, -4584.18, -5274.37, -5123.99, -4642.55, 0.000, 0.000, 0.000, 12:42:46.368
116, -4565.62, -5309.20, -5192.44, -4689.38, 0.000, 0.000, 0.000, 12:42:46.368
117, -4538.88, -5205.45, -5102.42, -4543.87, 0.000, 0.000, 0.000, 12:42:46.383
118, -4544.05, -5225.49, -5095.00, -4492.18, 0.000, 0.000, 0.000, 12:42:46.383
119, -4566.43, -5295.88, -5149.57, -4612.10, 0.000, 0.000, 0.000, 12:42:46.384
120, -4582.99, -5311.82, -5153.50, -4709.85, 0.000, 0.000, 0.000, 12:42:46.384
121, -4549.10, -5236.57, -5208.11, -4524.60, 0.000, 0.000, 0.000, 12:42:46.398
122, -4570.72, -5306.67, -5159.92, -4535.14, 0.000, 0.000, 0.000, 12:42:46.398
123, -4593.38, -5310.44, -5138.15, -4630.47, 0.000, 0.000, 0.000, 12:42:46.413
124, -4564.05, -5313.23, -5168.04, -4687.68, 0.000, 0.000, 0.000, 12:42:46.413
125, -4562.01, -5183.12, -5062.67, -4526.37, 0.000, 0.000, 0.000, 12:42:46.413
126, -4561.00, -5212.93, -5122.12, -4534.82, 0.000, 0.000, 0.000, 12:42:46.414
127, -4568.51, -5272.37, -5171.43, -4638.99, 0.000, 0.000, 0.000, 12:42:46.428
128, -4578.78, -5385.88, -5159.95, -4702.37, 0.000, 0.000, 0.000, 12:42:46.428
129, -4545.40, -5236.03, -5130.83, -4515.55, 0.000, 0.000, 0.000, 12:42:46.443
130, -4540.29, -5168.79, -5111.87, -4495.99, 0.000, 0.000, 0.000, 12:42:46.444
131, -4572.30, -5293.98, -5116.39, -4655.53, 0.000, 0.000, 0.000, 12:42:46.444
132, -4579.87, -5279.54, -5125.76, -4693.84, 0.000, 0.000, 0.000, 12:42:46.444
133, -4553.81, -5198.30, -5160.76, -4525.49, 0.000, 0.000, 0.000, 12:42:46.458
134, -4566.70, -5317.08, -5147.78, -4524.20, 0.000, 0.000, 0.000, 12:42:46.458
135, -4578.61, -5282.16, -5126.96, -4628.30, 0.000, 0.000, 0.000, 12:42:46.473
136, -4572.69, -5255.53, -5122.54, -4696.47, 0.000, 0.000, 0.000, 12:42:46.473
137, -4548.15, -5223.38, -5132.01, -4508.85, 0.000, 0.000, 0.000, 12:42:46.473
138, -4561.45, -5289.79, -5247.92, -4560.64, 0.000, 0.000, 0.000, 12:42:46.473
139, -4582.03, -5342.44, -5110.20, -4621.44, 0.000, 0.000, 0.000, 12:42:46.494
140, -4577.04, -5281.80, -5100.61, -4683.11, 0.000, 0.000, 0.000, 12:42:46.494
141, -4545.68, -5201.74, -5128.29, -4498.79, 0.000, 0.000, 0.000, 12:42:46.502
142, -4544.16, -5242.71, -5120.83, -4485.50, 0.000, 0.000, 0.000, 12:42:46.503
143, -4586.79, -5328.29, -5175.39, -4682.20, 0.000, 0.000, 0.000, 12:42:46.503
144, -4585.20, -5334.16, -5167.17, -4701.94, 0.000, 0.000, 0.000, 12:42:46.503
145, -4541.13, -5208.31, -5094.57, -4522.64, 0.000, 0.000, 0.000, 12:42:46.518
146, -4554.96, -5248.56, -5179.65, -4537.66, 0.000, 0.000, 0.000, 12:42:46.518
147, -4576.44, -5309.28, -5112.12, -4610.58, 0.000, 0.000, 0.000, 12:42:46.533
148, -4566.92, -5270.90, -5140.17, -4684.09, 0.000, 0.000, 0.000, 12:42:46.533
149, -4552.18, -5250.68, -5127.49, -4535.29, 0.000, 0.000, 0.000, 12:42:46.534
150, -4569.53, -5311.31, -5185.17, -4534.66, 0.000, 0.000, 0.000, 12:42:46.534
151, -4577.98, -5321.85, -5143.81, -4621.62, 0.000, 0.000, 0.000, 12:42:46.548
152, -4562.66, -5260.23, -5117.04, -4662.65, 0.000, 0.000, 0.000, 12:42:46.548
153, -4548.61, -5215.60, -5110.96, -4544.33, 0.000, 0.000, 0.000, 12:42:46.563
154, -4567.72, -5267.98, -5200.45, -4530.17, 0.000, 0.000, 0.000, 12:42:46.563
155, -4573.04, -5318.40, -5125.39, -4613.31, 0.000, 0.000, 0.000, 12:42:46.564
156, -4585.52, -5376.96, -5200.17, -4674.98, 0.000, 0.000, 0.000, 12:42:46.564
157, -4524.35, -5162.25, -5064.34, -4507.50, 0.000, 0.000, 0.000, 12:42:46.578
158, -4579.27, -5269.98, -5181.68, -4554.31, 0.000, 0.000, 0.000, 12:42:46.578
159, -4572.86, -5311.29, -5124.05, -4618.46, 0.000, 0.000, 0.000, 12:42:46.593
160, -4563.93, -5283.89, -5148.22, -4686.88, 0.000, 0.000, 0.000, 12:42:46.593
161, -4537.00, -5222.04, -5114.96, -4514.72, 0.000, 0.000, 0.000, 12:42:46.594
162, -4539.49, -5227.40, -5139.57, -4518.82, 0.000, 0.000, 0.000, 12:42:46.594
163, -4550.59, -5273.18, -5175.01, -4644.78, 0.000, 0.000, 0.000, 12:42:46.608
164, -4555.00, -5386.73, -5147.40, -4673.31, 0.000, 0.000, 0.000, 12:42:46.608
165, -4529.19, -5219.49, -5102.70, -4507.15, 0.000, 0.000, 0.000, 12:42:46.623
166, -4535.32, -5165.84, -5095.52, -4526.99, 0.000, 0.000, 0.000, 12:42:46.623
167, -4573.61, -5283.58, -5120.69, -4621.73, 0.000, 0.000, 0.000, 12:42:46.624
168, -4579.60, -5332.14, -5147.87, -4703.65, 0.000, 0.000, 0.000, 12:42:46.624
169, -4545.65, -5279.07, -5212.33, -4528.09, 0.000, 0.000, 0.000, 12:42:46.638
170, -4531.67, -5227.17, -5144.32, -4554.09, 0.000, 0.000, 0.000, 12:42:46.638
171, -4570.79, -5284.80, -5130.71, -4629.84, 0.000, 0.000, 0.000, 12:42:46.653
172, -4578.45, -5308.59, -5137.82, -4679.50, 0.000, 0.000, 0.000, 12:42:46.653
173, -4542.98, -5216.01, -5124.37, -4521.89, 0.000, 0.000, 0.000, 12:42:46.654
174, -4543.66, -5215.35, -5117.94, -4536.61, 0.000, 0.000, 0.000, 12:42:46.654
175, -4568.34, -5338.85, -5268.14, -4671.64, 0.000, 0.000, 0.000, 12:42:46.667
176, -4545.36, -5294.97, -5113.34, -4677.18, 0.000, 0.000, 0.000, 12:42:46.667
177, -4548.80, -5247.85, -5102.47, -4521.67, 0.000, 0.000, 0.000, 12:42:46.682
178, -4562.10, -5263.88, -5157.62, -4541.63, 0.000, 0.000, 0.000, 12:42:46.682
179, -4560.19, -5276.73, -5147.04, -4648.44, 0.000, 0.000, 0.000, 12:42:46.683
180, -4554.67, -5263.63, -5144.32, -4680.15, 0.000, 0.000, 0.000, 12:42:46.683
181, -4550.19, -5252.21, -5147.40, -4520.83, 0.000, 0.000, 0.000, 12:42:46.698
182, -4568.29, -5296.55, -5220.69, -4532.87, 0.000, 0.000, 0.000, 12:42:46.698
183, -4563.74, -5313.54, -5135.19, -4640.20, 0.000, 0.000, 0.000, 12:42:46.712
184, -4566.48, -5299.31, -5107.30, -4675.39, 0.000, 0.000, 0.000, 12:42:46.713
185, -4555.74, -5256.90, -5181.83, -4531.06, 0.000, 0.000, 0.000, 12:42:46.713
186, -4559.81, -5278.96, -5157.35, -4530.39, 0.000, 0.000, 0.000, 12:42:46.713
187, -4569.84, -5256.15, -5109.02, -4627.37, 0.000, 0.000, 0.000, 12:42:46.728
188, -4581.38, -5313.82, -5151.38, -4701.41, 0.000, 0.000, 0.000, 12:42:46.728
189, -4573.63, -5282.12, -5204.93, -4536.85, 0.000, 0.000, 0.000, 12:42:46.743
190, -4554.81, -5216.68, -5112.71, -4539.24, 0.000, 0.000, 0.000, 12:42:46.744
191, -4562.47, -5267.64, -5138.31, -4634.58, 0.000, 0.000, 0.000, 12:42:46.744
192, -4577.76, -5332.60, -5184.21, -4671.97, 0.000, 0.000, 0.000, 12:42:46.744
193, -4561.69, -5211.34, -5110.98, -4526.54, 0.000, 0.000, 0.000, 12:42:46.758
194, -4567.37, -5257.01, -5162.17, -4529.30, 0.000, 0.000, 0.000, 12:42:46.758
195, -4576.25, -5339.02, -5151.75, -4648.72, 0.000, 0.000, 0.000, 12:42:46.775
196, -4563.55, -5294.32, -5158.75, -4669.39, 0.000, 0.000, 0.000, 12:42:46.775
197, -4544.25, -5236.71, -5166.90, -4501.93, 0.000, 0.000, 0.000, 12:42:46.775
198, -4564.98, -5270.71, -5107.11, -4550.25, 0.000, 0.000, 0.000, 12:42:46.775
199, -4562.23, -5234.83, -5122.35, -4643.10, 0.000, 0.000, 0.000, 12:42:46.788
200, -4557.33, -5264.65, -5168.11, -4679.48, 0.000, 0.000, 0.000, 12:42:46.788
0, -4535.61, -5196.16, -5090.71, -4539.91, 0.000, 0.000, 0.000, 12:42:46.789
1, -4555.26, -5243.45, -5094.09, -4559.74, 0.000, 0.000, 0.000, 12:42:46.803
2, -4588.72, -5291.76, -5162.10, -4641.11, 0.000, 0.000, 0.000, 12:42:46.803
3, -4581.12, -5289.16, -5179.33, -4684.41, 0.000, 0.000, 0.000, 12:42:46.818
4, -4534.69, -5229.39, -5148.70, -4511.09, 0.000, 0.000, 0.000, 12:42:46.818
5, -4548.78, -5273.14, -5101.91, -4558.59, 0.000, 0.000, 0.000, 12:42:46.819
6, -4563.09, -5234.85, -5094.16, -4637.20, 0.000, 0.000, 0.000, 12:42:46.819
7, -4576.91, -5311.95, -5157.69, -4686.85, 0.000, 0.000, 0.000, 12:42:46.848
8, -4564.19, -5238.61, -5150.31, -4541.44, 0.000, 0.000, 0.000, 12:42:46.848
9, -4549.37, -5254.33, -5209.87, -4552.34, 0.000, 0.000, 0.000, 12:42:46.848
10, -4569.75, -5277.99, -5084.48, -4649.14, 0.000, 0.000, 0.000, 12:42:46.848
11, -4576.82, -5303.78, -5152.49, -4673.65, 0.000, 0.000, 0.000, 12:42:46.849
12, -4524.10, -5194.05, -5110.02, -4499.93, 0.000, 0.000, 0.000, 12:42:46.849
13, -4533.79, -5202.22, -5120.72, -4536.89, 0.000, 0.000, 0.000, 12:42:46.863
14, -4578.11, -5315.23, -5206.95, -4670.79, 0.000, 0.000, 0.000, 12:42:46.863
15, -4584.07, -5355.62, -5150.90, -4702.56, 0.000, 0.000, 0.000, 12:42:46.877
16, -4556.35, -5249.85, -5134.48, -4499.34, 0.000, 0.000, 0.000, 12:42:46.877
17, -4548.92, -5203.52, -5112.91, -4529.20, 0.000, 0.000, 0.000, 12:42:46.879
18, -4576.06, -5293.86, -5129.69, -4648.51, 0.000, 0.000, 0.000, 12:42:46.879
19, -4570.88, -5280.75, -5146.60, -4675.67, 0.000, 0.000, 0.000, 12:42:46.894
20, -4550.87, -5267.00, -5155.81, -4516.71, 0.000, 0.000, 0.000, 12:42:46.894
21, -4567.92, -5271.71, -5176.69, -4557.08, 0.000, 0.000, 0.000, 12:42:46.908
22, -4581.21, -5252.30, -5111.13, -4627.94, 0.000, 0.000, 0.000, 12:42:46.908
23, -4562.51, -5255.91, -5128.35, -4690.86, 0.000, 0.000, 0.000, 12:42:46.915
24, -4555.95, -5244.76, -5136.36, -4539.46, 0.000, 0.000, 0.000, 12:42:46.915
25, -4563.16, -5326.78, -5229.97, -4536.38, 0.000, 0.000, 0.000, 12:42:46.923
26, -4571.30, -5283.46, -5141.56, -4651.41, 0.000, 0.000, 0.000, 12:42:46.923
27, -4561.60, -5246.41, -5076.02, -4687.81, 0.000, 0.000, 0.000, 12:42:46.938
28, -4547.21, -5209.30, -5108.28, -4518.22, 0.000, 0.000, 0.000, 12:42:46.938
29, -4570.57, -5286.17, -5181.93, -4558.92, 0.000, 0.000, 0.000, 12:42:46.938
30, -4571.15, -5312.21, -5168.38, -4617.30, 0.000, 0.000, 0.000, 12:42:46.939
31, -4550.46, -5289.59, -5136.95, -4669.54, 0.000, 0.000, 0.000, 12:42:46.953
32, -4539.74, -5197.36, -5131.03, -4506.36, 0.000, 0.000, 0.000, 12:42:46.953
33, -4542.62, -5248.71, -5118.40, -4523.15, 0.000, 0.000, 0.000, 12:42:46.968
34, -4574.40, -5276.59, -5153.23, -4648.45, 0.000, 0.000, 0.000, 12:42:46.968
35, -4567.60, -5300.86, -5170.94, -4679.36, 0.000, 0.000, 0.000, 12:42:46.969
36, -4537.16, -5271.34, -5168.44, -4480.55, 0.000, 0.000, 0.000, 12:42:46.969
37, -4543.39, -5235.68, -5151.01, -4526.42, 0.000, 0.000, 0.000, 12:42:46.983
38, -4569.47, -5311.60, -5135.51, -4650.29, 0.000, 0.000, 0.000, 12:42:46.983
39, -4566.95, -5277.14, -5178.19, -4677.57, 0.000, 0.000, 0.000, 12:42:46.997
40, -4523.73, -5206.36, -5139.13, -4500.03, 0.000, 0.000, 0.000, 12:42:46.997
41, -4549.86, -5229.16, -5209.99, -4556.16, 0.000, 0.000, 0.000, 12:42:46.998
42, -4577.14, -5317.94, -5181.36, -4639.87, 0.000, 0.000, 0.000, 12:42:46.998
43, -4579.78, -5323.44, -5214.21, -4683.57, 0.000, 0.000, 0.000, 12:42:47.013
44, -4537.41, -5238.03, -5158.19, -4506.01, 0.000, 0.000, 0.000, 12:42:47.013
45, -4560.52, -5214.72, -5177.61, -4551.54, 0.000, 0.000, 0.000, 12:42:47.028
46, -4571.55, -5315.42, -5205.61, -4638.01, 0.000, 0.000, 0.000, 12:42:47.028
47, -4576.65, -5328.84, -5193.41, -4694.50, 0.000, 0.000, 0.000, 12:42:47.029
48, -4554.17, -5211.59, -5183.30, -4498.29, 0.000, 0.000, 0.000, 12:42:47.029
49, -4556.48, -5238.05, -5166.62, -4539.32, 0.000, 0.000, 0.000, 12:42:47.043
50, -4581.08, -5377.36, -5199.23, -4647.77, 0.000, 0.000, 0.000, 12:42:47.044
51, -4572.63, -5248.67, -5188.95, -4671.46, 0.000, 0.000, 0.000, 12:42:47.058
52, -4538.31, -5182.96, -5168.66, -4519.97, 0.000, 0.000, 0.000, 12:42:47.058
53, -4549.94, -5241.68, -5140.02, -4533.61, 0.000, 0.000, 0.000, 12:42:47.059
54, -4579.08, -5285.59, -5190.12, -4655.57, 0.000, 0.000, 0.000, 12:42:47.059
55, -4595.73, -5366.06, -5212.30, -4688.62, 0.000, 0.000, 0.000, 12:42:47.074
56, -4557.86, -5250.28, -5191.24, -4519.56, 0.000, 0.000, 0.000, 12:42:47.074
57, -4559.70, -5222.81, -5182.01, -4540.63, 0.000, 0.000, 0.000, 12:42:47.088
58, -4576.27, -5321.25, -5176.09, -4645.93, 0.000, 0.000, 0.000, 12:42:47.088
59, -4562.28, -5258.16, -5180.41, -4667.74, 0.000, 0.000, 0.000, 12:42:47.089
60, -4535.91, -5182.38, -5120.51, -4518.38, 0.000, 0.000, 0.000, 12:42:47.089
61, -4559.06, -5278.17, -5172.71, -4544.44, 0.000, 0.000, 0.000, 12:42:47.103
62, -4576.39, -5310.86, -5216.27, -4648.04, 0.000, 0.000, 0.000, 12:42:47.103
63, -4567.48, -5304.51, -5173.90, -4667.00, 0.000, 0.000, 0.000, 12:42:47.118
64, -4537.39, -5222.42, -5155.07, -4508.11, 0.000, 0.000, 0.000, 12:42:47.118
65, -4560.27, -5243.93, -5156.32, -4545.81, 0.000, 0.000, 0.000, 12:42:47.119
66, -4577.90, -5306.80, -5230.58, -4643.64, 0.000, 0.000, 0.000, 12:42:47.119
67, -4567.37, -5353.97, -5200.02, -4669.07, 0.000, 0.000, 0.000, 12:42:47.133
68, -4535.04, -5223.54, -5147.85, -4505.20, 0.000, 0.000, 0.000, 12:42:47.133
69, -4557.76, -5181.79, -5123.78, -4552.22, 0.000, 0.000, 0.000, 12:42:47.148
70, -4581.57, -5282.06, -5165.33, -4631.39, 0.000, 0.000, 0.000, 12:42:47.148
71, -4564.38, -5303.42, -5212.66, -4664.40, 0.000, 0.000, 0.000, 12:42:47.148
72, -4555.71, -5279.55, -5243.51, -4528.93, 0.000, 0.000, 0.000, 12:42:47.148
73, -4567.25, -5267.08, -5143.69, -4529.70, 0.000, 0.000, 0.000, 12:42:47.163
74, -4570.84, -5290.85, -5203.08, -4661.15, 0.000, 0.000, 0.000, 12:42:47.163
75, -4565.87, -5268.51, -5153.24, -4660.10, 0.000, 0.000, 0.000, 12:42:47.177
76, -4541.54, -5207.88, -5147.53, -4503.28, 0.000, 0.000, 0.000, 12:42:47.177
77, -4542.40, -5247.11, -5203.03, -4533.46, 0.000, 0.000, 0.000, 12:42:47.178
78, -4572.66, -5330.70, -5218.21, -4652.29, 0.000, 0.000, 0.000, 12:42:47.178
79, -4578.90, -5304.82, -5213.35, -4702.05, 0.000, 0.000, 0.000, 12:42:47.194
80, -4535.28, -5236.80, -5144.14, -4492.29, 0.000, 0.000, 0.000, 12:42:47.194
81, -4547.97, -5238.06, -5174.35, -4533.74, 0.000, 0.000, 0.000, 12:42:47.208
82, -4568.53, -5292.28, -5210.51, -4659.36, 0.000, 0.000, 0.000, 12:42:47.208
83, -4567.04, -5307.63, -5185.58, -4669.42, 0.000, 0.000, 0.000, 12:42:47.208
84, -4547.59, -5216.75, -5167.14, -4504.71, 0.000, 0.000, 0.000, 12:42:47.208
85, -4559.89, -5262.13, -5213.95, -4547.54, 0.000, 0.000, 0.000, 12:42:47.224
86, -4575.78, -5310.29, -5183.38, -4650.75, 0.000, 0.000, 0.000, 12:42:47.224
87, -4552.76, -5260.22, -5165.88, -4670.99, 0.000, 0.000, 0.000, 12:42:47.238
88, -4534.91, -5199.52, -5162.11, -4518.35, 0.000, 0.000, 0.000, 12:42:47.238
89, -4558.04, -5244.98, -5180.30, -4541.92, 0.000, 0.000, 0.000, 12:42:47.253
90, -4577.07, -5329.47, -5161.85, -4664.89, 0.000, 0.000, 0.000, 12:42:47.253
91, -4582.56, -5276.81, -5188.55, -4687.19, 0.000, 0.000, 0.000, 12:42:47.261
92, -4552.30, -5242.72, -5160.15, -4514.64, 0.000, 0.000, 0.000, 12:42:47.261
93, -4551.05, -5235.97, -5161.97, -4564.72, 0.000, 0.000, 0.000, 12:42:47.269
94, -4587.87, -5325.62, -5225.43, -4657.88, 0.000, 0.000, 0.000, 12:42:47.269
95, -4577.45, -5344.51, -5209.38, -4686.68, 0.000, 0.000, 0.000, 12:42:47.269
96, -4536.41, -5170.59, -5131.07, -4507.63, 0.000, 0.000, 0.000, 12:42:47.269
97, -4553.15, -5208.85, -5141.35, -4526.63, 0.000, 0.000, 0.000, 12:42:47.283
98, -4583.77, -5311.72, -5185.95, -4653.16, 0.000, 0.000, 0.000, 12:42:47.283
99, -4567.99, -5311.63, -5173.26, -4664.70, 0.000, 0.000, 0.000, 12:42:47.297
100, -4545.69, -5232.96, -5200.05, -4522.73, 0.000, 0.000, 0.000, 12:42:47.298
