%OpenBCI Raw EEG Data
%
%Sample Rate = 200.0 Hz
%First Column = SampleIndex
%Last Column = Timestamp 
%Other Columns = EEG data in microvolts followed by Accel Data (in G) interleaved with Aux Data
0, -4576.14, -5210.19, -5093.91, -4518.57, 0.000, 0.000, 0.000, 12:39:25.382
1, -4564.08, -5178.98, -5063.65, -4430.40, 0.000, 0.000, 0.000, 12:39:25.397
2, -4600.89, -5230.83, -5083.22, -4587.85, 0.000, 0.000, 0.000, 12:39:25.397
3, -4603.67, -5262.60, -5076.60, -4630.31, 0.000, 0.000, 0.000, 12:39:25.411
4, -4545.14, -5145.36, -5010.62, -4479.02, 0.000, 0.000, 0.000, 12:39:25.412
5, -4542.45, -5131.84, -4988.41, -4425.75, 0.000, 0.000, 0.000, 12:39:25.412
6, -4561.68, -5183.93, -5027.53, -4519.24, 0.000, 0.000, 0.000, 12:39:25.412
7, -4572.07, -5230.84, -5057.53, -4599.15, 0.000, 0.000, 0.000, 12:39:25.427
8, -4534.68, -5126.99, -5038.57, -4466.90, 0.000, 0.000, 0.000, 12:39:25.427
9, -4516.31, -5128.57, -5012.31, -4409.06, 0.000, 0.000, 0.000, 12:39:25.443
10, -4528.67, -5167.11, -4974.79, -4471.02, 0.000, 0.000, 0.000, 12:39:25.443
11, -4548.28, -5223.75, -5003.65, -4573.48, 0.000, 0.000, 0.000, 12:39:25.443
12, -4501.43, -5107.04, -4988.98, -4423.58, 0.000, 0.000, 0.000, 12:39:25.443
13, -4493.83, -5100.97, -4987.28, -4385.83, 0.000, 0.000, 0.000, 12:39:25.457
14, -4526.48, -5158.97, -5021.40, -4491.91, 0.000, 0.000, 0.000, 12:39:25.457
15, -4537.45, -5213.07, -5077.25, -4586.51, 0.000, 0.000, 0.000, 12:39:25.472
16, -4475.07, -5143.84, -4986.89, -4442.27, 0.000, 0.000, 0.000, 12:39:25.472
17, -4475.69, -5127.31, -4952.64, -4364.05, 0.000, 0.000, 0.000, 12:39:25.472
18, -4506.35, -5166.82, -4981.82, -4456.19, 0.000, 0.000, 0.000, 12:39:25.473
19, -4528.18, -5225.43, -5022.80, -4559.64, 0.000, 0.000, 0.000, 12:39:25.487
20, -4464.07, -5115.19, -4987.60, -4419.37, 0.000, 0.000, 0.000, 12:39:25.487
21, -4467.83, -5111.18, -4982.99, -4352.53, 0.000, 0.000, 0.000, 12:39:25.502
22, -4493.13, -5170.36, -4980.51, -4447.57, 0.000, 0.000, 0.000, 12:39:25.502
23, -4500.26, -5179.70, -4989.53, -4541.76, 0.000, 0.000, 0.000, 12:39:25.503
24, -4488.31, -5116.13, -4994.24, -4421.22, 0.000, 0.000, 0.000, 12:39:25.503
25, -4455.66, -5113.12, -4956.29, -4349.04, 0.000, 0.000, 0.000, 12:39:25.517
26, -4464.85, -5161.63, -4987.00, -4442.37, 0.000, 0.000, 0.000, 12:39:25.517
27, -4485.33, -5208.90, -5007.05, -4556.59, 0.000, 0.000, 0.000, 12:39:25.531
28, -4449.24, -5132.88, -5003.85, -4418.88, 0.000, 0.000, 0.000, 12:39:25.532
29, -4455.44, -5130.66, -4974.03, -4358.88, 0.000, 0.000, 0.000, 12:39:25.532
30, -4475.66, -5158.97, -4961.17, -4452.69, 0.000, 0.000, 0.000, 12:39:25.532
31, -4486.62, -5177.56, -4988.23, -4565.16, 0.000, 0.000, 0.000, 12:39:25.546
32, -4433.74, -5091.90, -4976.90, -4387.76, 0.000, 0.000, 0.000, 12:39:25.546
33, -4438.20, -5136.09, -4972.13, -4369.85, 0.000, 0.000, 0.000, 12:39:25.561
34, -4470.37, -5192.32, -4981.58, -4456.90, 0.000, 0.000, 0.000, 12:39:25.561
35, -4475.87, -5220.03, -4987.77, -4543.22, 0.000, 0.000, 0.000, 12:39:25.562
36, -4447.23, -5147.56, -4975.15, -4424.90, 0.000, 0.000, 0.000, 12:39:25.563
37, -4425.95, -5102.79, -4958.62, -4359.30, 0.000, 0.000, 0.000, 12:39:25.577
38, -4453.38, -5153.53, -4987.37, -4435.85, 0.000, 0.000, 0.000, 12:39:25.578
39, -4469.42, -5204.54, -5002.60, -4542.85, 0.000, 0.000, 0.000, 12:39:25.592
40, -4426.11, -5106.71, -4980.48, -4397.03, 0.000, 0.000, 0.000, 12:39:25.592
41, -4426.52, -5098.70, -4943.17, -4362.75, 0.000, 0.000, 0.000, 12:39:25.593
42, -4445.70, -5157.57, -4972.22, -4451.15, 0.000, 0.000, 0.000, 12:39:25.593
43, -4455.98, -5187.77, -5000.19, -4540.44, 0.000, 0.000, 0.000, 12:39:25.608
44, -4414.66, -5098.33, -4967.75, -4380.37, 0.000, 0.000, 0.000, 12:39:25.608
45, -4418.27, -5134.69, -4975.78, -4330.28, 0.000, 0.000, 0.000, 12:39:25.621
46, -4464.15, -5171.56, -4971.36, -4479.12, 0.000, 0.000, 0.000, 12:39:25.621
47, -4467.60, -5177.85, -4964.64, -4541.47, 0.000, 0.000, 0.000, 12:39:25.622
48, -4429.37, -5100.43, -4948.44, -4394.76, 0.000, 0.000, 0.000, 12:39:25.622
49, -4435.84, -5110.91, -4951.49, -4354.93, 0.000, 0.000, 0.000, 12:39:25.636
50, -4463.79, -5164.23, -4997.42, -4462.07, 0.000, 0.000, 0.000, 12:39:25.637
51, -4484.99, -5220.18, -5006.77, -4548.88, 0.000, 0.000, 0.000, 12:39:25.652
52, -4431.48, -5108.80, -4973.12, -4386.12, 0.000, 0.000, 0.000, 12:39:25.652
53, -4438.96, -5113.50, -4948.40, -4355.59, 0.000, 0.000, 0.000, 12:39:25.652
54, -4467.02, -5180.35, -4986.19, -4457.21, 0.000, 0.000, 0.000, 12:39:25.652
55, -4483.89, -5179.83, -4986.57, -4542.22, 0.000, 0.000, 0.000, 12:39:25.667
56, -4430.28, -5128.02, -4967.78, -4388.80, 0.000, 0.000, 0.000, 12:39:25.667
57, -4425.87, -5121.27, -4952.07, -4340.35, 0.000, 0.000, 0.000, 12:39:25.681
58, -4453.54, -5149.45, -4982.71, -4445.92, 0.000, 0.000, 0.000, 12:39:25.681
59, -4475.46, -5180.20, -4992.80, -4564.00, 0.000, 0.000, 0.000, 12:39:25.682
60, -4428.48, -5097.96, -4938.71, -4388.69, 0.000, 0.000, 0.000, 12:39:25.682
61, -4430.32, -5108.14, -4949.28, -4364.62, 0.000, 0.000, 0.000, 12:39:25.697
62, -4465.72, -5160.30, -4976.65, -4462.63, 0.000, 0.000, 0.000, 12:39:25.697
63, -4483.89, -5211.57, -5007.25, -4551.25, 0.000, 0.000, 0.000, 12:39:25.711
64, -4440.09, -5123.73, -4986.61, -4363.50, 0.000, 0.000, 0.000, 12:39:25.712
65, -4439.60, -5117.80, -4973.72, -4370.97, 0.000, 0.000, 0.000, 12:39:25.719
66, -4459.04, -5161.75, -4962.96, -4448.65, 0.000, 0.000, 0.000, 12:39:25.719
67, -4485.16, -5200.35, -5011.41, -4489.50, 0.000, 0.000, 0.000, 12:39:25.726
68, -4436.62, -5103.57, -4959.04, -4384.84, 0.000, 0.000, 0.000, 12:39:25.726
69, -4420.32, -5092.46, -4961.83, -4334.82, 0.000, 0.000, 0.000, 12:39:25.741
70, -4450.76, -5155.66, -4969.18, -4433.86, 0.000, 0.000, 0.000, 12:39:25.741
71, -4484.64, -5194.69, -4996.68, -4547.12, 0.000, 0.000, 0.000, 12:39:25.742
72, -4436.08, -5104.63, -4964.13, -4406.39, 0.000, 0.000, 0.000, 12:39:25.742
73, -4429.61, -5102.47, -4979.38, -4341.99, 0.000, 0.000, 0.000, 12:39:25.757
74, -4462.22, -5161.88, -4980.81, -4467.34, 0.000, 0.000, 0.000, 12:39:25.757
75, -4468.42, -5196.30, -4993.50, -4569.59, 0.000, 0.000, 0.000, 12:39:25.772
76, -4440.47, -5112.38, -4961.96, -4430.11, 0.000, 0.000, 0.000, 12:39:25.772
77, -4430.94, -5087.72, -4948.97, -4341.04, 0.000, 0.000, 0.000, 12:39:25.772
78, -4460.47, -5154.25, -4984.62, -4411.20, 0.000, 0.000, 0.000, 12:39:25.772
79, -4494.67, -5213.99, -4998.51, -4557.66, 0.000, 0.000, 0.000, 12:39:25.786
80, -4452.77, -5095.19, -4955.78, -4424.74, 0.000, 0.000, 0.000, 12:39:25.787
81, -4418.42, -5067.18, -4950.77, -4342.80, 0.000, 0.000, 0.000, 12:39:25.802
82, -4458.48, -5152.30, -4985.64, -4435.38, 0.000, 0.000, 0.000, 12:39:25.802
83, -4482.54, -5208.15, -4986.26, -4478.60, 0.000, 0.000, 0.000, 12:39:25.802
84, -4443.71, -5080.90, -4946.83, -4384.44, 0.000, 0.000, 0.000, 12:39:25.803
85, -4419.86, -5109.33, -4955.16, -4333.77, 0.000, 0.000, 0.000, 12:39:25.816
86, -4455.22, -5155.61, -4989.96, -4426.44, 0.000, 0.000, 0.000, 12:39:25.816
87, -4470.36, -5182.11, -4984.54, -4551.50, 0.000, 0.000, 0.000, 12:39:25.831
88, -4422.01, -5102.49, -4964.56, -4376.42, 0.000, 0.000, 0.000, 12:39:25.832
89, -4435.63, -5150.67, -4962.47, -4386.09, 0.000, 0.000, 0.000, 12:39:25.832
90, -4463.05, -5177.47, -4983.01, -4485.71, 0.000, 0.000, 0.000, 12:39:25.832
91, -4488.22, -5175.24, -5002.80, -4602.13, 0.000, 0.000, 0.000, 12:39:25.846
92, -4424.06, -5101.42, -4950.03, -4394.87, 0.000, 0.000, 0.000, 12:39:25.846
93, -4429.23, -5090.62, -4942.82, -4347.55, 0.000, 0.000, 0.000, 12:39:25.861
94, -4459.64, -5177.31, -4986.91, -4460.50, 0.000, 0.000, 0.000, 12:39:25.861
95, -4479.78, -5203.90, -5009.68, -4540.94, 0.000, 0.000, 0.000, 12:39:25.862
96, -4440.66, -5124.15, -4950.68, -4414.77, 0.000, 0.000, 0.000, 12:39:25.863
97, -4421.15, -5084.72, -4956.23, -4341.85, 0.000, 0.000, 0.000, 12:39:25.877
98, -4454.97, -5151.63, -4974.74, -4490.70, 0.000, 0.000, 0.000, 12:39:25.877
99, -4479.43, -5197.59, -4977.29, -4551.72, 0.000, 0.000, 0.000, 12:39:25.892
100, -4438.08, -5104.44, -4946.54, -4387.57, 0.000, 0.000, 0.000, 12:39:25.892
101, -4432.40, -5096.51, -4952.11, -4351.33, 0.000, 0.000, 0.000, 12:39:25.893
102, -4457.22, -5166.93, -4978.79, -4456.00, 0.000, 0.000, 0.000, 12:39:25.893
103, -4472.81, -5201.50, -4990.14, -4550.17, 0.000, 0.000, 0.000, 12:39:25.907
104, -4427.25, -5097.92, -4943.25, -4395.62, 0.000, 0.000, 0.000, 12:39:25.908
105, -4430.44, -5112.56, -4974.92, -4344.35, 0.000, 0.000, 0.000, 12:39:25.923
106, -4461.24, -5176.61, -5003.02, -4459.40, 0.000, 0.000, 0.000, 12:39:25.923
107, -4479.91, -5197.42, -4986.51, -4543.89, 0.000, 0.000, 0.000, 12:39:25.923
108, -4431.39, -5102.94, -4953.93, -4394.85, 0.000, 0.000, 0.000, 12:39:25.923
109, -4429.76, -5092.27, -4956.55, -4349.34, 0.000, 0.000, 0.000, 12:39:25.936
110, -4451.34, -5162.58, -4965.16, -4450.96, 0.000, 0.000, 0.000, 12:39:25.936
111, -4467.13, -5187.43, -4991.98, -4529.16, 0.000, 0.000, 0.000, 12:39:25.951
112, -4418.54, -5099.55, -4937.53, -4395.87, 0.000, 0.000, 0.000, 12:39:25.951
113, -4422.69, -5114.64, -4947.50, -4346.32, 0.000, 0.000, 0.000, 12:39:25.952
114, -4448.15, -5147.92, -4964.75, -4443.06, 0.000, 0.000, 0.000, 12:39:25.952
115, -4454.17, -5185.17, -4984.35, -4518.86, 0.000, 0.000, 0.000, 12:39:25.966
116, -4422.63, -5099.85, -4979.89, -4381.83, 0.000, 0.000, 0.000, 12:39:25.966
117, -4421.88, -5101.54, -4970.49, -4346.91, 0.000, 0.000, 0.000, 12:39:25.982
118, -4443.99, -5167.77, -4977.67, -4447.95, 0.000, 0.000, 0.000, 12:39:25.982
119, -4470.64, -5201.27, -5004.72, -4529.39, 0.000, 0.000, 0.000, 12:39:25.982
120, -4419.24, -5112.85, -4933.76, -4390.07, 0.000, 0.000, 0.000, 12:39:25.982
121, -4421.05, -5106.30, -4936.52, -4358.57, 0.000, 0.000, 0.000, 12:39:25.997
122, -4456.60, -5157.79, -4972.44, -4457.35, 0.000, 0.000, 0.000, 12:39:25.997
123, -4447.42, -5178.87, -4971.93, -4550.92, 0.000, 0.000, 0.000, 12:39:26.011
124, -4420.15, -5115.30, -4964.41, -4395.10, 0.000, 0.000, 0.000, 12:39:26.011
125, -4425.99, -5103.38, -4961.06, -4354.77, 0.000, 0.000, 0.000, 12:39:26.014
126, -4464.58, -5165.69, -4992.25, -4482.00, 0.000, 0.000, 0.000, 12:39:26.014
127, -4467.58, -5191.27, -5004.66, -4552.07, 0.000, 0.000, 0.000, 12:39:26.027
128, -4432.42, -5105.95, -4955.33, -4365.50, 0.000, 0.000, 0.000, 12:39:26.027
129, -4438.85, -5111.99, -4946.92, -4354.51, 0.000, 0.000, 0.000, 12:39:26.043
130, -4451.63, -5164.82, -4964.67, -4440.49, 0.000, 0.000, 0.000, 12:39:26.043
131, -4473.53, -5196.52, -4999.54, -4522.30, 0.000, 0.000, 0.000, 12:39:26.043
132, -4437.60, -5093.35, -4979.92, -4365.76, 0.000, 0.000, 0.000, 12:39:26.043
133, -4424.17, -5087.07, -4942.58, -4378.76, 0.000, 0.000, 0.000, 12:39:26.057
134, -4452.29, -5147.86, -4970.17, -4459.62, 0.000, 0.000, 0.000, 12:39:26.057
135, -4470.41, -5195.35, -5004.47, -4516.59, 0.000, 0.000, 0.000, 12:39:26.071
136, -4434.99, -5109.36, -4954.12, -4396.92, 0.000, 0.000, 0.000, 12:39:26.072
137, -4439.21, -5132.91, -4971.75, -4364.03, 0.000, 0.000, 0.000, 12:39:26.072
138, -4463.79, -5175.89, -4997.78, -4477.03, 0.000, 0.000, 0.000, 12:39:26.072
139, -4466.92, -5198.32, -5010.35, -4562.61, 0.000, 0.000, 0.000, 12:39:26.093
140, -4413.86, -5110.42, -4986.49, -4394.06, 0.000, 0.000, 0.000, 12:39:26.094
141, -4406.11, -5143.95, -4959.89, -4342.86, 0.000, 0.000, 0.000, 12:39:26.102
142, -4422.73, -5174.57, -4967.37, -4445.01, 0.000, 0.000, 0.000, 12:39:26.102
143, -4428.90, -5191.09, -4993.43, -4515.37, 0.000, 0.000, 0.000, 12:39:26.103
144, -4379.94, -5106.69, -4956.54, -4371.96, 0.000, 0.000, 0.000, 12:39:26.103
145, -4390.11, -5119.49, -4966.36, -4348.21, 0.000, 0.000, 0.000, 12:39:26.116
146, -4427.73, -5179.33, -4985.64, -4449.59, 0.000, 0.000, 0.000, 12:39:26.117
147, -4446.15, -5215.08, -5037.12, -4528.93, 0.000, 0.000, 0.000, 12:39:26.131
148, -4410.51, -5131.62, -4984.02, -4376.73, 0.000, 0.000, 0.000, 12:39:26.131
149, -4409.26, -5124.37, -4970.98, -4361.51, 0.000, 0.000, 0.000, 12:39:26.132
150, -4440.42, -5177.66, -4961.95, -4432.60, 0.000, 0.000, 0.000, 12:39:26.132
151, -4456.46, -5202.88, -4995.00, -4524.34, 0.000, 0.000, 0.000, 12:39:26.147
152, -4430.60, -5091.40, -4968.44, -4366.80, 0.000, 0.000, 0.000, 12:39:26.147
153, -4425.00, -5118.32, -4960.40, -4362.25, 0.000, 0.000, 0.000, 12:39:26.162
154, -4459.09, -5191.49, -5013.97, -4477.94, 0.000, 0.000, 0.000, 12:39:26.162
155, -4481.15, -5202.86, -5002.06, -4557.40, 0.000, 0.000, 0.000, 12:39:26.163
156, -4411.16, -5116.67, -4945.21, -4382.97, 0.000, 0.000, 0.000, 12:39:26.164
157, -4419.51, -5103.79, -4949.99, -4355.39, 0.000, 0.000, 0.000, 12:39:26.177
158, -4443.20, -5158.50, -4994.85, -4448.93, 0.000, 0.000, 0.000, 12:39:26.177
159, -4470.59, -5203.12, -4999.34, -4546.46, 0.000, 0.000, 0.000, 12:39:26.192
160, -4426.45, -5095.65, -4942.92, -4365.74, 0.000, 0.000, 0.000, 12:39:26.192
161, -4420.86, -5109.91, -4954.72, -4348.97, 0.000, 0.000, 0.000, 12:39:26.193
162, -4448.24, -5174.96, -4995.57, -4467.41, 0.000, 0.000, 0.000, 12:39:26.193
163, -4476.36, -5214.97, -4979.70, -4561.87, 0.000, 0.000, 0.000, 12:39:26.207
164, -4435.68, -5125.29, -4948.75, -4371.72, 0.000, 0.000, 0.000, 12:39:26.207
165, -4429.20, -5088.73, -4944.19, -4348.98, 0.000, 0.000, 0.000, 12:39:26.222
166, -4464.81, -5194.94, -4989.15, -4448.69, 0.000, 0.000, 0.000, 12:39:26.222
167, -4468.77, -5181.73, -4992.47, -4514.23, 0.000, 0.000, 0.000, 12:39:26.222
168, -4424.11, -5076.08, -4961.77, -4397.19, 0.000, 0.000, 0.000, 12:39:26.223
169, -4427.50, -5089.13, -4935.26, -4355.32, 0.000, 0.000, 0.000, 12:39:26.237
170, -4464.24, -5156.26, -4975.96, -4452.46, 0.000, 0.000, 0.000, 12:39:26.237
171, -4472.73, -5184.57, -4987.68, -4548.70, 0.000, 0.000, 0.000, 12:39:26.251
172, -4422.10, -5101.92, -4944.71, -4383.09, 0.000, 0.000, 0.000, 12:39:26.252
173, -4425.06, -5111.64, -4949.42, -4363.36, 0.000, 0.000, 0.000, 12:39:26.252
174, -4457.41, -5172.92, -4994.08, -4480.45, 0.000, 0.000, 0.000, 12:39:26.252
175, -4475.29, -5194.67, -4994.05, -4538.81, 0.000, 0.000, 0.000, 12:39:26.266
176, -4425.68, -5100.17, -4943.90, -4402.96, 0.000, 0.000, 0.000, 12:39:26.266
177, -4408.37, -5111.94, -4958.17, -4346.77, 0.000, 0.000, 0.000, 12:39:26.282
178, -4456.40, -5143.70, -4979.83, -4452.04, 0.000, 0.000, 0.000, 12:39:26.282
179, -4472.55, -5165.90, -4990.02, -4550.61, 0.000, 0.000, 0.000, 12:39:26.282
180, -4428.46, -5095.36, -4946.50, -4373.17, 0.000, 0.000, 0.000, 12:39:26.282
181, -4412.30, -5118.23, -4946.80, -4348.71, 0.000, 0.000, 0.000, 12:39:26.297
182, -4440.85, -5170.36, -4985.63, -4458.57, 0.000, 0.000, 0.000, 12:39:26.297
183, -4457.39, -5190.90, -4991.85, -4554.39, 0.000, 0.000, 0.000, 12:39:26.312
184, -4428.72, -5098.76, -4947.01, -4370.73, 0.000, 0.000, 0.000, 12:39:26.312
185, -4420.75, -5117.16, -4955.43, -4356.09, 0.000, 0.000, 0.000, 12:39:26.313
186, -4468.20, -5160.69, -5006.46, -4483.57, 0.000, 0.000, 0.000, 12:39:26.313
187, -4496.97, -5211.46, -4992.89, -4570.31, 0.000, 0.000, 0.000, 12:39:26.327
188, -4419.25, -5088.84, -4930.56, -4369.06, 0.000, 0.000, 0.000, 12:39:26.327
189, -4436.33, -5081.77, -4929.85, -4344.66, 0.000, 0.000, 0.000, 12:39:26.341
190, -4486.29, -5145.63, -4982.17, -4483.46, 0.000, 0.000, 0.000, 12:39:26.342
191, -4506.41, -5171.94, -4982.48, -4553.97, 0.000, 0.000, 0.000, 12:39:26.349
192, -4466.15, -5068.47, -4924.24, -4384.87, 0.000, 0.000, 0.000, 12:39:26.349
193, -4474.58, -5063.66, -4922.67, -4378.78, 0.000, 0.000, 0.000, 12:39:26.357
194, -4509.05, -5134.70, -4942.79, -4481.20, 0.000, 0.000, 0.000, 12:39:26.357
195, -4519.81, -5150.36, -4967.87, -4547.79, 0.000, 0.000, 0.000, 12:39:26.371
196, -4473.42, -5089.54, -4946.82, -4398.11, 0.000, 0.000, 0.000, 12:39:26.371
197, -4469.07, -5094.91, -4958.96, -4364.87, 0.000, 0.000, 0.000, 12:39:26.372
198, -4491.52, -5165.43, -4986.24, -4461.71, 0.000, 0.000, 0.000, 12:39:26.372
199, -4490.83, -5186.25, -4989.04, -4532.24, 0.000, 0.000, 0.000, 12:39:26.386
200, -4460.93, -5091.23, -4932.26, -4380.30, 0.000, 0.000, 0.000, 12:39:26.386
0, -4451.78, -5083.85, -4943.62, -4354.15, 0.000, 0.000, 0.000, 12:39:26.387
1, -4480.26, -5154.05, -4953.64, -4490.71, 0.000, 0.000, 0.000, 12:39:26.402
2, -4498.08, -5186.47, -4975.98, -4530.59, 0.000, 0.000, 0.000, 12:39:26.402
3, -4449.00, -5076.16, -4966.12, -4403.68, 0.000, 0.000, 0.000, 12:39:26.417
4, -4453.62, -5119.60, -4963.70, -4369.38, 0.000, 0.000, 0.000, 12:39:26.417
5, -4486.46, -5183.02, -4946.89, -4465.57, 0.000, 0.000, 0.000, 12:39:26.417
6, -4502.91, -5213.38, -4982.64, -4544.89, 0.000, 0.000, 0.000, 12:39:26.418
7, -4456.75, -5089.63, -4942.64, -4376.24, 0.000, 0.000, 0.000, 12:39:26.432
8, -4453.98, -5102.30, -4959.76, -4367.22, 0.000, 0.000, 0.000, 12:39:26.432
9, -4478.98, -5167.03, -4993.00, -4475.08, 0.000, 0.000, 0.000, 12:39:26.446
10, -4492.19, -5200.79, -5024.85, -4558.57, 0.000, 0.000, 0.000, 12:39:26.446
11, -4451.50, -5097.43, -4955.41, -4370.85, 0.000, 0.000, 0.000, 12:39:26.447
12, -4458.71, -5128.28, -4946.43, -4353.28, 0.000, 0.000, 0.000, 12:39:26.447
13, -4465.06, -5159.80, -4954.71, -4456.76, 0.000, 0.000, 0.000, 12:39:26.461
14, -4493.94, -5181.92, -4987.91, -4550.07, 0.000, 0.000, 0.000, 12:39:26.461
15, -4444.46, -5088.07, -4960.38, -4359.58, 0.000, 0.000, 0.000, 12:39:26.477
16, -4426.66, -5087.69, -4968.91, -4353.67, 0.000, 0.000, 0.000, 12:39:26.477
17, -4460.77, -5160.56, -4966.99, -4473.52, 0.000, 0.000, 0.000, 12:39:26.478
18, -4483.54, -5205.14, -4985.25, -4539.79, 0.000, 0.000, 0.000, 12:39:26.478
19, -4432.68, -5109.98, -4976.37, -4390.68, 0.000, 0.000, 0.000, 12:39:26.492
20, -4431.73, -5098.30, -4945.51, -4364.82, 0.000, 0.000, 0.000, 12:39:26.493
21, -4455.28, -5150.28, -4958.89, -4468.95, 0.000, 0.000, 0.000, 12:39:26.507
22, -4480.04, -5183.39, -4972.98, -4538.02, 0.000, 0.000, 0.000, 12:39:26.507
23, -4438.29, -5104.93, -4954.18, -4353.39, 0.000, 0.000, 0.000, 12:39:26.507
24, -4447.91, -5121.18, -4974.89, -4337.15, 0.000, 0.000, 0.000, 12:39:26.507
25, -4466.75, -5154.89, -4990.60, -4450.76, 0.000, 0.000, 0.000, 12:39:26.521
26, -4477.98, -5175.97, -4992.03, -4556.49, 0.000, 0.000, 0.000, 12:39:26.522
27, -4422.84, -5092.34, -4942.30, -4397.86, 0.000, 0.000, 0.000, 12:39:26.537
28, -4430.06, -5107.71, -4935.57, -4384.93, 0.000, 0.000, 0.000, 12:39:26.537
29, -4463.78, -5167.95, -4958.89, -4479.78, 0.000, 0.000, 0.000, 12:39:26.537
30, -4479.83, -5173.92, -4988.10, -4532.61, 0.000, 0.000, 0.000, 12:39:26.537
31, -4436.24, -5099.34, -4955.84, -4369.71, 0.000, 0.000, 0.000, 12:39:26.552
32, -4445.53, -5118.98, -4979.37, -4354.31, 0.000, 0.000, 0.000, 12:39:26.552
33, -4476.09, -5162.21, -4995.78, -4458.27, 0.000, 0.000, 0.000, 12:39:26.566
34, -4472.99, -5173.79, -4995.40, -4545.06, 0.000, 0.000, 0.000, 12:39:26.566
35, -4422.46, -5087.20, -4936.69, -4368.39, 0.000, 0.000, 0.000, 12:39:26.567
36, -4426.81, -5100.42, -4949.99, -4363.94, 0.000, 0.000, 0.000, 12:39:26.567
37, -4469.47, -5168.82, -4975.56, -4461.50, 0.000, 0.000, 0.000, 12:39:26.582
38, -4488.55, -5202.86, -5001.44, -4532.10, 0.000, 0.000, 0.000, 12:39:26.582
39, -4447.53, -5101.35, -4984.65, -4376.81, 0.000, 0.000, 0.000, 12:39:26.597
40, -4449.11, -5119.49, -4967.47, -4345.50, 0.000, 0.000, 0.000, 12:39:26.597
41, -4463.96, -5161.47, -4973.38, -4457.80, 0.000, 0.000, 0.000, 12:39:26.597
42, -4478.61, -5189.33, -5000.71, -4543.35, 0.000, 0.000, 0.000, 12:39:26.597
43, -4435.55, -5099.81, -4960.51, -4380.13, 0.000, 0.000, 0.000, 12:39:26.612
44, -4436.64, -5125.77, -4966.44, -4355.13, 0.000, 0.000, 0.000, 12:39:26.612
45, -4450.43, -5153.61, -4980.84, -4454.82, 0.000, 0.000, 0.000, 12:39:26.627
46, -4468.34, -5193.81, -4992.27, -4526.18, 0.000, 0.000, 0.000, 12:39:26.627
47, -4418.63, -5089.29, -4963.54, -4396.08, 0.000, 0.000, 0.000, 12:39:26.628
48, -4434.10, -5117.09, -4966.41, -4358.52, 0.000, 0.000, 0.000, 12:39:26.628
49, -4453.59, -5168.55, -4981.26, -4494.43, 0.000, 0.000, 0.000, 12:39:26.642
50, -4452.44, -5191.19, -4973.97, -4571.95, 0.000, 0.000, 0.000, 12:39:26.642
51, -4413.60, -5096.63, -4946.19, -4340.95, 0.000, 0.000, 0.000, 12:39:26.657
52, -4420.27, -5105.44, -4951.22, -4360.99, 0.000, 0.000, 0.000, 12:39:26.657
53, -4447.42, -5163.78, -4981.46, -4459.61, 0.000, 0.000, 0.000, 12:39:26.657
54, -4454.49, -5202.14, -4980.50, -4535.47, 0.000, 0.000, 0.000, 12:39:26.658
55, -4414.54, -5100.95, -4947.20, -4374.38, 0.000, 0.000, 0.000, 12:39:26.671
56, -4430.61, -5119.94, -4974.35, -4387.19, 0.000, 0.000, 0.000, 12:39:26.671
57, -4444.24, -5181.15, -4997.64, -4464.44, 0.000, 0.000, 0.000, 12:39:26.687
58, -4464.83, -5194.05, -5002.33, -4509.49, 0.000, 0.000, 0.000, 12:39:26.687
59, -4428.09, -5118.25, -4966.06, -4371.05, 0.000, 0.000, 0.000, 12:39:26.688
60, -4425.12, -5117.41, -4967.00, -4344.55, 0.000, 0.000, 0.000, 12:39:26.688
61, -4460.28, -5157.95, -4980.98, -4471.56, 0.000, 0.000, 0.000, 12:39:26.708
62, -4470.28, -5195.86, -4988.10, -4532.94, 0.000, 0.000, 0.000, 12:39:26.708
63, -4412.09, -5097.12, -4956.89, -4372.14, 0.000, 0.000, 0.000, 12:39:26.716
64, -4415.48, -5114.58, -4947.21, -4344.15, 0.000, 0.000, 0.000, 12:39:26.716
65, -4454.01, -5174.02, -4978.04, -4461.51, 0.000, 0.000, 0.000, 12:39:26.717
66, -4466.40, -5195.78, -4993.73, -4544.29, 0.000, 0.000, 0.000, 12:39:26.717
67, -4418.20, -5111.07, -4952.73, -4396.73, 0.000, 0.000, 0.000, 12:39:26.731
68, -4429.74, -5104.00, -4954.11, -4357.28, 0.000, 0.000, 0.000, 12:39:26.731
69, -4459.42, -5158.68, -4986.53, -4467.43, 0.000, 0.000, 0.000, 12:39:26.761
70, -4458.19, -5177.17, -4971.42, -4537.07, 0.000, 0.000, 0.000, 12:39:26.761
71, -4420.45, -5098.65, -4939.46, -4377.12, 0.000, 0.000, 0.000, 12:39:26.764
72, -4431.73, -5130.66, -4967.83, -4359.97, 0.000, 0.000, 0.000, 12:39:26.764
73, -4454.27, -5185.62, -4976.09, -4468.53, 0.000, 0.000, 0.000, 12:39:26.764
74, -4461.96, -5206.17, -4980.72, -4542.06, 0.000, 0.000, 0.000, 12:39:26.764
75, -4427.03, -5110.07, -4963.60, -4371.33, 0.000, 0.000, 0.000, 12:39:26.764
76, -4425.42, -5125.80, -4957.44, -4363.16, 0.000, 0.000, 0.000, 12:39:26.764
77, -4465.48, -5167.20, -4988.20, -4455.54, 0.000, 0.000, 0.000, 12:39:26.777
78, -4477.95, -5222.01, -4997.80, -4534.40, 0.000, 0.000, 0.000, 12:39:26.777
79, -4421.08, -5070.85, -4956.65, -4370.83, 0.000, 0.000, 0.000, 12:39:26.793
80, -4429.60, -5118.55, -4956.49, -4348.23, 0.000, 0.000, 0.000, 12:39:26.793
81, -4450.46, -5151.11, -4979.59, -4465.41, 0.000, 0.000, 0.000, 12:39:26.807
82, -4458.44, -5182.09, -4973.34, -4517.89, 0.000, 0.000, 0.000, 12:39:26.808
83, -4414.12, -5091.06, -4938.74, -4378.41, 0.000, 0.000, 0.000, 12:39:26.808
84, -4418.42, -5114.54, -4946.07, -4357.55, 0.000, 0.000, 0.000, 12:39:26.808
85, -4451.27, -5159.59, -4964.31, -4446.56, 0.000, 0.000, 0.000, 12:39:26.822
86, -4476.94, -5199.25, -4988.53, -4513.36, 0.000, 0.000, 0.000, 12:39:26.822
87, -4405.93, -5085.16, -4935.16, -4365.88, 0.000, 0.000, 0.000, 12:39:26.837
88, -4423.80, -5107.81, -4935.28, -4345.59, 0.000, 0.000, 0.000, 12:39:26.837
89, -4449.50, -5167.88, -4970.72, -4451.78, 0.000, 0.000, 0.000, 12:39:26.838
90, -4470.75, -5184.21, -4983.60, -4547.66, 0.000, 0.000, 0.000, 12:39:26.838
91, -4435.02, -5086.83, -4952.04, -4371.25, 0.000, 0.000, 0.000, 12:39:26.851
92, -4443.08, -5131.25, -4974.96, -4374.70, 0.000, 0.000, 0.000, 12:39:26.851
93, -4469.52, -5172.46, -4978.16, -4459.87, 0.000, 0.000, 0.000, 12:39:26.867
94, -4473.12, -5188.01, -4971.64, -4522.46, 0.000, 0.000, 0.000, 12:39:26.868
95, -4436.04, -5104.14, -4939.36, -4374.45, 0.000, 0.000, 0.000, 12:39:26.868
96, -4429.16, -5108.65, -4941.05, -4344.35, 0.000, 0.000, 0.000, 12:39:26.868
97, -4460.85, -5165.40, -4961.74, -4483.24, 0.000, 0.000, 0.000, 12:39:26.882
98, -4473.19, -5201.33, -4969.80, -4549.02, 0.000, 0.000, 0.000, 12:39:26.882
99, -4418.96, -5094.30, -4940.18, -4375.17, 0.000, 0.000, 0.000, 12:39:26.896
100, -4421.45, -5095.86, -4939.65, -4342.58, 0.000, 0.000, 0.000, 12:39:26.896
101, -4472.02, -5172.64, -4976.69, -4463.48, 0.000, 0.000, 0.000, 12:39:26.897
102, -4465.62, -5184.07, -4983.04, -4557.29, 0.000, 0.000, 0.000, 12:39:26.897
103, -4423.11, -5084.87, -4933.70, -4347.06, 0.000, 0.000, 0.000, 12:39:26.912
104, -4435.93, -5129.77, -4953.51, -4359.56, 0.000, 0.000, 0.000, 12:39:26.912
105, -4469.26, -5178.54, -4973.43, -4483.72, 0.000, 0.000, 0.000, 12:39:26.927
106, -4469.55, -5176.98, -4977.26, -4546.25, 0.000, 0.000, 0.000, 12:39:26.927
107, -4438.29, -5077.47, -4937.57, -4357.29, 0.000, 0.000, 0.000, 12:39:26.928
108, -4432.70, -5112.05, -4952.36, -4377.76, 0.000, 0.000, 0.000, 12:39:26.928
109, -4467.43, -5165.84, -4966.18, -4487.67, 0.000, 0.000, 0.000, 12:39:26.942
110, -4472.26, -5179.47, -4969.31, -4538.45, 0.000, 0.000, 0.000, 12:39:26.943
111, -4431.40, -5083.12, -4938.93, -4366.04, 0.000, 0.000, 0.000, 12:39:26.957
112, -4420.74, -5070.15, -4943.70, -4361.70, 0.000, 0.000, 0.000, 12:39:26.957
113, -4458.56, -5153.65, -4956.65, -4446.23, 0.000, 0.000, 0.000, 12:39:26.957
114, -4478.69, -5182.60, -4985.70, -4544.60, 0.000, 0.000, 0.000, 12:39:26.958
115, -4436.48, -5115.04, -4956.28, -4359.22, 0.000, 0.000, 0.000, 12:39:26.972
116, -4429.75, -5105.08, -4939.63, -4349.10, 0.000, 0.000, 0.000, 12:39:26.972
117, -4477.94, -5151.61, -4959.08, -4452.86, 0.000, 0.000, 0.000, 12:39:26.986
118, -4474.09, -5187.82, -4967.82, -4524.66, 0.000, 0.000, 0.000, 12:39:26.986
119, -4441.48, -5107.92, -4949.19, -4369.92, 0.000, 0.000, 0.000, 12:39:26.987
120, -4454.26, -5138.50, -4958.06, -4369.27, 0.000, 0.000, 0.000, 12:39:26.987
121, -4471.66, -5194.32, -4976.86, -4463.94, 0.000, 0.000, 0.000, 12:39:27.002
122, -4465.96, -5204.39, -4979.63, -4534.46, 0.000, 0.000, 0.000, 12:39:27.002
123, -4414.95, -5080.72, -4949.36, -4377.29, 0.000, 0.000, 0.000, 12:39:27.016
124, -4409.56, -5127.20, -4954.25, -4379.13, 0.000, 0.000, 0.000, 12:39:27.017
125, -4450.58, -5158.72, -4962.48, -4439.94, 0.000, 0.000, 0.000, 12:39:27.017
126, -4465.51, -5170.56, -4954.35, -4543.22, 0.000, 0.000, 0.000, 12:39:27.017
127, -4416.66, -5092.76, -4925.34, -4359.31, 0.000, 0.000, 0.000, 12:39:27.032
128, -4425.01, -5102.59, -4933.60, -4345.54, 0.000, 0.000, 0.000, 12:39:27.032
129, -4471.01, -5163.84, -4970.19, -4454.37, 0.000, 0.000, 0.000, 12:39:27.046
130, -4484.45, -5193.40, -4986.87, -4537.09, 0.000, 0.000, 0.000, 12:39:27.046
131, -4425.03, -5104.77, -4947.29, -4369.72, 0.000, 0.000, 0.000, 12:39:27.047
132, -4442.63, -5152.64, -4987.07, -4350.90, 0.000, 0.000, 0.000, 12:39:27.047
133, -4471.72, -5180.99, -4986.22, -4447.95, 0.000, 0.000, 0.000, 12:39:27.062
134, -4468.60, -5202.16, -4984.42, -4532.74, 0.000, 0.000, 0.000, 12:39:27.062
135, -4440.51, -5106.05, -4943.44, -4381.18, 0.000, 0.000, 0.000, 12:39:27.077
136, -4428.30, -5102.82, -4926.29, -4352.44, 0.000, 0.000, 0.000, 12:39:27.077
137, -4453.95, -5173.24, -4965.33, -4474.74, 0.000, 0.000, 0.000, 12:39:27.078
138, -4463.01, -5168.98, -4964.82, -4526.48, 0.000, 0.000, 0.000, 12:39:27.078
139, -4439.46, -5079.84, -4946.46, -4379.37, 0.000, 0.000, 0.000, 12:39:27.092
140, -4442.73, -5100.77, -4967.23, -4382.43, 0.000, 0.000, 0.000, 12:39:27.093
141, -4466.96, -5169.63, -4979.52, -4473.04, 0.000, 0.000, 0.000, 12:39:27.107
142, -4460.16, -5206.82, -4983.90, -4526.80, 0.000, 0.000, 0.000, 12:39:27.108
143, -4430.51, -5098.74, -4934.81, -4361.95, 0.000, 0.000, 0.000, 12:39:27.108
144, -4450.39, -5125.77, -4958.75, -4381.39, 0.000, 0.000, 0.000, 12:39:27.108
145, -4478.67, -5186.45, -4973.93, -4469.56, 0.000, 0.000, 0.000, 12:39:27.121
146, -4488.00, -5193.04, -4981.46, -4560.41, 0.000, 0.000, 0.000, 12:39:27.122
147, -4450.06, -5083.42, -4933.43, -4366.67, 0.000, 0.000, 0.000, 12:39:27.136
148, -4453.94, -5133.15, -4962.57, -4381.46, 0.000, 0.000, 0.000, 12:39:27.136
149, -4467.15, -5150.86, -5011.78, -4457.67, 0.000, 0.000, 0.000, 12:39:27.137
150, -4478.68, -5180.84, -4982.96, -4541.93, 0.000, 0.000, 0.000, 12:39:27.137
151, -4447.62, -5102.00, -4926.81, -4367.07, 0.000, 0.000, 0.000, 12:39:27.151
152, -4451.99, -5121.18, -4951.64, -4371.66, 0.000, 0.000, 0.000, 12:39:27.151
153, -4464.68, -5183.60, -4959.19, -4457.45, 0.000, 0.000, 0.000, 12:39:27.166
154, -4477.47, -5195.77, -4976.93, -4527.70, 0.000, 0.000, 0.000, 12:39:27.167
155, -4418.25, -5075.78, -4953.04, -4351.79, 0.000, 0.000, 0.000, 12:39:27.174
156, -4449.01, -5114.22, -4993.14, -4386.77, 0.000, 0.000, 0.000, 12:39:27.174
157, -4464.11, -5165.91, -4947.93, -4462.92, 0.000, 0.000, 0.000, 12:39:27.182
158, -4468.28, -5201.03, -4977.96, -4541.97, 0.000, 0.000, 0.000, 12:39:27.182
159, -4426.92, -5103.25, -4940.52, -4377.46, 0.000, 0.000, 0.000, 12:39:27.197
160, -4439.48, -5115.01, -4955.43, -4354.13, 0.000, 0.000, 0.000, 12:39:27.197
161, -4470.34, -5210.89, -4983.48, -4461.02, 0.000, 0.000, 0.000, 12:39:27.197
162, -4505.36, -5210.93, -5006.64, -4559.65, 0.000, 0.000, 0.000, 12:39:27.198
163, -4431.60, -5064.09, -4929.38, -4354.98, 0.000, 0.000, 0.000, 12:39:27.213
164, -4453.58, -5129.16, -4957.56, -4389.26, 0.000, 0.000, 0.000, 12:39:27.213
165, -4450.47, -5145.40, -4958.40, -4472.35, 0.000, 0.000, 0.000, 12:39:27.226
166, -4511.50, -5241.01, -5025.97, -4544.54, 0.000, 0.000, 0.000, 12:39:27.226
167, -4415.57, -5086.82, -4947.13, -4369.96, 0.000, 0.000, 0.000, 12:39:27.227
168, -4442.81, -5118.32, -4939.54, -4359.94, 0.000, 0.000, 0.000, 12:39:27.227
169, -4463.65, -5175.85, -4972.84, -4446.48, 0.000, 0.000, 0.000, 12:39:27.242
170, -4484.50, -5169.65, -4999.29, -4537.78, 0.000, 0.000, 0.000, 12:39:27.242
171, -4444.93, -5092.38, -4975.78, -4365.08, 0.000, 0.000, 0.000, 12:39:27.256
172, -4429.27, -5108.18, -4926.00, -4385.58, 0.000, 0.000, 0.000, 12:39:27.257
173, -4471.76, -5187.33, -4976.45, -4479.61, 0.000, 0.000, 0.000, 12:39:27.257
174, -4476.68, -5224.03, -5026.78, -4552.11, 0.000, 0.000, 0.000, 12:39:27.257
175, -4422.15, -5067.72, -4929.52, -4372.08, 0.000, 0.000, 0.000, 12:39:27.272
176, -4469.45, -5128.96, -4969.01, -4385.37, 0.000, 0.000, 0.000, 12:39:27.272
177, -4468.53, -5184.27, -4968.30, -4511.99, 0.000, 0.000, 0.000, 12:39:27.286
178, -4456.65, -5120.79, -4957.55, -4535.64, 0.000, 0.000, 0.000, 12:39:27.286
179, -4437.68, -5071.16, -4943.75, -4387.63, 0.000, 0.000, 0.000, 12:39:27.287
180, -4451.46, -5121.76, -4955.20, -4360.19, 0.000, 0.000, 0.000, 12:39:27.287
181, -4456.03, -5169.93, -4969.23, -4467.22, 0.000, 0.000, 0.000, 12:39:27.302
182, -4468.92, -5197.16, -5005.74, -4526.02, 0.000, 0.000, 0.000, 12:39:27.302
183, -4431.75, -5113.56, -4948.62, -4364.24, 0.000, 0.000, 0.000, 12:39:27.317
184, -4418.08, -5088.84, -4926.16, -4381.06, 0.000, 0.000, 0.000, 12:39:27.317
185, -4453.60, -5169.93, -4951.16, -4478.86, 0.000, 0.000, 0.000, 12:39:27.317
186, -4485.41, -5206.45, -4981.07, -4537.29, 0.000, 0.000, 0.000, 12:39:27.317
187, -4439.30, -5109.19, -4965.05, -4397.61, 0.000, 0.000, 0.000, 12:39:27.332
188, -4420.75, -5097.88, -4944.15, -4369.51, 0.000, 0.000, 0.000, 12:39:27.332
189, -4480.02, -5173.39, -4978.01, -4487.96, 0.000, 0.000, 0.000, 12:39:27.346
190, -4493.55, -5176.71, -4985.07, -4554.17, 0.000, 0.000, 0.000, 12:39:27.346
191, -4440.18, -5109.40, -4962.34, -4381.95, 0.000, 0.000, 0.000, 12:39:27.347
192, -4452.20, -5117.51, -4964.67, -4379.28, 0.000, 0.000, 0.000, 12:39:27.347
193, -4485.79, -5197.06, -4991.87, -4501.40, 0.000, 0.000, 0.000, 12:39:27.362
194, -4497.63, -5226.25, -5018.91, -4553.60, 0.000, 0.000, 0.000, 12:39:27.362
195, -4431.31, -5099.70, -4951.03, -4363.04, 0.000, 0.000, 0.000, 12:39:27.377
196, -4442.99, -5093.87, -4959.81, -4357.42, 0.000, 0.000, 0.000, 12:39:27.377
197, -4491.05, -5158.29, -4994.17, -4476.55, 0.000, 0.000, 0.000, 12:39:27.378
198, -4518.24, -5173.68, -5004.65, -4523.62, 0.000, 0.000, 0.000, 12:39:27.378
199, -4475.13, -5069.02, -4968.04, -4341.56, 0.000, 0.000, 0.000, 12:39:27.392
200, -4476.86, -5108.23, -4978.53, -4360.31, 0.000, 0.000, 0.000, 12:39:27.392
0, -4494.09, -5146.03, -4988.68, -4449.51, 0.000, 0.000, 0.000, 12:39:27.393
1, -4522.12, -5179.85, -5004.97, -4536.13, 0.000, 0.000, 0.000, 12:39:27.407
2, -4476.39, -5092.69, -4975.64, -4364.62, 0.000, 0.000, 0.000, 12:39:27.407
3, -4470.10, -5121.87, -4980.80, -4376.25, 0.000, 0.000, 0.000, 12:39:27.422
4, -4493.44, -5175.70, -4989.78, -4475.47, 0.000, 0.000, 0.000, 12:39:27.422
5, -4490.91, -5165.60, -4997.22, -4506.30, 0.000, 0.000, 0.000, 12:39:27.422
6, -4456.67, -5075.80, -4962.78, -4346.15, 0.000, 0.000, 0.000, 12:39:27.422
7, -4461.06, -5112.02, -4975.91, -4365.43, 0.000, 0.000, 0.000, 12:39:27.437
8, -4478.32, -5173.89, -4989.02, -4459.26, 0.000, 0.000, 0.000, 12:39:27.437
9, -4489.97, -5184.97, -5000.81, -4501.54, 0.000, 0.000, 0.000, 12:39:27.451
10, -4436.48, -5083.91, -4957.05, -4352.36, 0.000, 0.000, 0.000, 12:39:27.451
11, -4462.08, -5140.14, -4964.28, -4366.45, 0.000, 0.000, 0.000, 12:39:27.452
12, -4478.42, -5172.86, -4997.20, -4489.85, 0.000, 0.000, 0.000, 12:39:27.452
13, -4484.75, -5182.63, -5001.67, -4542.18, 0.000, 0.000, 0.000, 12:39:27.467
14, -4439.52, -5105.03, -4949.59, -4373.94, 0.000, 0.000, 0.000, 12:39:27.467
15, -4451.63, -5104.57, -4968.30, -4381.57, 0.000, 0.000, 0.000, 12:39:27.482
16, -4464.21, -5160.94, -4986.51, -4489.32, 0.000, 0.000, 0.000, 12:39:27.482
17, -4476.31, -5162.57, -4988.78, -4542.26, 0.000, 0.000, 0.000, 12:39:27.482
18, -4423.46, -5089.07, -4950.52, -4334.46, 0.000, 0.000, 0.000, 12:39:27.483
19, -4447.63, -5127.79, -4968.26, -4381.22, 0.000, 0.000, 0.000, 12:39:27.497
20, -4465.60, -5167.52, -4981.58, -4479.99, 0.000, 0.000, 0.000, 12:39:27.497
21, -4465.90, -5174.61, -4984.08, -4536.97, 0.000, 0.000, 0.000, 12:39:27.513
22, -4422.12, -5100.40, -4954.16, -4346.27, 0.000, 0.000, 0.000, 12:39:27.513
23, -4442.59, -5122.65, -4978.64, -4381.20, 0.000, 0.000, 0.000, 12:39:27.513
24, -4473.32, -5189.63, -4983.61, -4488.67, 0.000, 0.000, 0.000, 12:39:27.513
25, -4476.05, -5207.01, -4990.91, -4542.48, 0.000, 0.000, 0.000, 12:39:27.527
26, -4431.01, -5090.18, -4949.54, -4363.84, 0.000, 0.000, 0.000, 12:39:27.527
27, -4446.26, -5111.58, -4956.15, -4372.01, 0.000, 0.000, 0.000, 12:39:27.542
28, -4458.59, -5161.66, -4966.88, -4464.10, 0.000, 0.000, 0.000, 12:39:27.542
29, -4472.51, -5188.99, -4993.79, -4527.64, 0.000, 0.000, 0.000, 12:39:27.543
30, -4435.05, -5110.84, -4957.59, -4370.28, 0.000, 0.000, 0.000, 12:39:27.543
31, -4447.22, -5116.50, -4962.10, -4377.59, 0.000, 0.000, 0.000, 12:39:27.557
32, -4458.23, -5174.16, -4980.52, -4481.73, 0.000, 0.000, 0.000, 12:39:27.557
33, -4478.50, -5179.92, -4984.79, -4552.82, 0.000, 0.000, 0.000, 12:39:27.572
34, -4425.53, -5098.84, -4952.38, -4370.51, 0.000, 0.000, 0.000, 12:39:27.572
35, -4458.47, -5136.26, -4985.26, -4382.93, 0.000, 0.000, 0.000, 12:39:27.580
36, -4472.76, -5191.50, -4988.78, -4493.44, 0.000, 0.000, 0.000, 12:39:27.580
37, -4479.99, -5178.45, -4983.32, -4543.85, 0.000, 0.000, 0.000, 12:39:27.587
38, -4442.86, -5090.87, -4947.59, -4387.64, 0.000, 0.000, 0.000, 12:39:27.587
39, -4456.60, -5135.58, -4969.18, -4387.19, 0.000, 0.000, 0.000, 12:39:27.601
40, -4483.49, -5188.04, -4991.61, -4484.68, 0.000, 0.000, 0.000, 12:39:27.603
41, -4492.58, -5201.25, -4999.11, -4540.41, 0.000, 0.000, 0.000, 12:39:27.603
42, -4430.63, -5093.38, -4955.49, -4349.08, 0.000, 0.000, 0.000, 12:39:27.603
43, -4430.99, -5104.63, -4949.45, -4356.35, 0.000, 0.000, 0.000, 12:39:27.617
44, -4475.99, -5181.97, -4973.05, -4490.66, 0.000, 0.000, 0.000, 12:39:27.617
45, -4472.49, -5179.32, -4973.29, -4533.61, 0.000, 0.000, 0.000, 12:39:27.632
46, -4429.79, -5080.12, -4939.86, -4342.72, 0.000, 0.000, 0.000, 12:39:27.632
47, -4434.01, -5138.70, -4958.35, -4384.17, 0.000, 0.000, 0.000, 12:39:27.633
48, -4470.88, -5190.57, -4994.89, -4508.40, 0.000, 0.000, 0.000, 12:39:27.633
49, -4482.68, -5202.25, -4984.65, -4559.24, 0.000, 0.000, 0.000, 12:39:27.647
50, -4426.40, -5095.63, -4950.07, -4364.12, 0.000, 0.000, 0.000, 12:39:27.647
51, -4450.83, -5133.96, -4961.44, -4374.29, 0.000, 0.000, 0.000, 12:39:27.663
52, -4477.46, -5205.80, -4998.29, -4472.58, 0.000, 0.000, 0.000, 12:39:27.663
53, -4478.96, -5187.71, -4974.00, -4537.87, 0.000, 0.000, 0.000, 12:39:27.663
54, -4432.95, -5095.26, -4947.18, -4360.21, 0.000, 0.000, 0.000, 12:39:27.663
55, -4428.22, -5113.03, -4949.66, -4366.99, 0.000, 0.000, 0.000, 12:39:27.677
56, -4472.96, -5167.65, -4970.36, -4465.06, 0.000, 0.000, 0.000, 12:39:27.677
57, -4486.66, -5188.96, -4971.75, -4534.25, 0.000, 0.000, 0.000, 12:39:27.693
58, -4423.19, -5098.93, -4941.52, -4357.11, 0.000, 0.000, 0.000, 12:39:27.693
59, -4441.93, -5132.69, -4968.06, -4386.07, 0.000, 0.000, 0.000, 12:39:27.693
60, -4468.56, -5178.06, -4980.28, -4475.76, 0.000, 0.000, 0.000, 12:39:27.693
61, -4473.02, -5198.66, -4982.91, -4523.91, 0.000, 0.000, 0.000, 12:39:27.708
62, -4429.69, -5084.21, -4954.57, -4349.19, 0.000, 0.000, 0.000, 12:39:27.708
63, -4445.49, -5101.75, -4965.64, -4358.98, 0.000, 0.000, 0.000, 12:39:27.722
64, -4467.21, -5152.84, -4975.10, -4471.68, 0.000, 0.000, 0.000, 12:39:27.722
65, -4455.76, -5183.91, -4959.31, -4522.02, 0.000, 0.000, 0.000, 12:39:27.723
66, -4433.08, -5082.05, -4937.53, -4366.11, 0.000, 0.000, 0.000, 12:39:27.723
67, -4446.89, -5121.42, -4954.89, -4364.19, 0.000, 0.000, 0.000, 12:39:27.737
68, -4455.25, -5155.43, -4966.43, -4469.40, 0.000, 0.000, 0.000, 12:39:27.737
69, -4470.72, -5151.47, -4975.22, -4528.41, 0.000, 0.000, 0.000, 12:39:27.752
70, -4417.32, -5084.96, -4955.98, -4350.24, 0.000, 0.000, 0.000, 12:39:27.752
71, -4441.85, -5104.52, -4953.19, -4362.63, 0.000, 0.000, 0.000, 12:39:27.753
72, -4472.69, -5186.48, -4977.29, -4482.85, 0.000, 0.000, 0.000, 12:39:27.753
73, -4467.49, -5185.75, -4980.87, -4529.77, 0.000, 0.000, 0.000, 12:39:27.767
74, -4421.02, -5060.35, -4936.16, -4350.01, 0.000, 0.000, 0.000, 12:39:27.767
75, -4420.67, -5082.24, -4936.90, -4347.74, 0.000, 0.000, 0.000, 12:39:27.781
76, -4457.02, -5178.04, -4987.61, -4496.40, 0.000, 0.000, 0.000, 12:39:27.781
77, -4464.43, -5169.82, -4967.88, -4521.50, 0.000, 0.000, 0.000, 12:39:27.782
78, -4426.84, -5101.99, -4940.23, -4362.44, 0.000, 0.000, 0.000, 12:39:27.782
79, -4446.85, -5124.02, -4959.67, -4374.48, 0.000, 0.000, 0.000, 12:39:27.796
80, -4453.34, -5150.99, -4964.24, -4462.30, 0.000, 0.000, 0.000, 12:39:27.796
81, -4448.22, -5168.53, -4967.67, -4514.77, 0.000, 0.000, 0.000, 12:39:27.813
82, -4426.35, -5072.73, -4938.34, -4364.46, 0.000, 0.000, 0.000, 12:39:27.813
83, -4440.66, -5120.19, -4946.70, -4373.86, 0.000, 0.000, 0.000, 12:39:27.813
84, -4456.87, -5162.44, -4975.92, -4490.42, 0.000, 0.000, 0.000, 12:39:27.813
85, -4452.90, -5191.02, -4981.11, -4555.36, 0.000, 0.000, 0.000, 12:39:27.826
86, -4423.29, -5068.05, -4947.22, -4369.19, 0.000, 0.000, 0.000, 12:39:27.827
87, -4445.00, -5122.03, -4962.05, -4378.87, 0.000, 0.000, 0.000, 12:39:27.842
88, -4480.10, -5211.47, -4987.01, -4466.60, 0.000, 0.000, 0.000, 12:39:27.843
89, -4470.43, -5166.29, -4983.48, -4529.31, 0.000, 0.000, 0.000, 12:39:27.843
90, -4408.02, -5059.84, -4941.03, -4342.83, 0.000, 0.000, 0.000, 12:39:27.843
91, -4411.42, -5063.54, -4928.20, -4342.41, 0.000, 0.000, 0.000, 12:39:27.857
92, -4452.70, -5146.91, -4959.95, -4457.69, 0.000, 0.000, 0.000, 12:39:27.857
93, -4468.61, -5189.34, -4992.69, -4544.52, 0.000, 0.000, 0.000, 12:39:27.872
94, -4425.02, -5080.91, -4953.25, -4335.48, 0.000, 0.000, 0.000, 12:39:27.872
95, -4445.29, -5138.52, -4973.00, -4374.96, 0.000, 0.000, 0.000, 12:39:27.873
96, -4470.01, -5208.03, -4987.16, -4501.52, 0.000, 0.000, 0.000, 12:39:27.873
97, -4479.07, -5187.10, -4993.24, -4536.90, 0.000, 0.000, 0.000, 12:39:27.887
98, -4413.55, -5097.29, -4955.78, -4361.15, 0.000, 0.000, 0.000, 12:39:27.887
99, -4396.38, -5106.09, -4944.05, -4369.81, 0.000, 0.000, 0.000, 12:39:27.902
100, -4416.16, -5188.16, -4974.29, -4481.23, 0.000, 0.000, 0.000, 12:39:27.902
101, -4392.64, -5205.79, -4976.32, -4530.28, 0.000, 0.000, 0.000, 12:39:27.902
102, -4362.91, -5145.74, -4946.63, -4385.05, 0.000, 0.000, 0.000, 12:39:27.902
103, -4334.17, -5161.91, -4947.88, -4381.13, 0.000, 0.000, 0.000, 12:39:27.916
104, -4362.51, -5211.95, -4979.21, -4487.63, 0.000, 0.000, 0.000, 12:39:27.916
105, -4376.77, -5214.80, -4987.43, -4531.91, 0.000, 0.000, 0.000, 12:39:27.932
106, -4334.96, -5127.45, -4947.09, -4358.72, 0.000, 0.000, 0.000, 12:39:27.932
107, -4364.00, -5150.82, -4950.00, -4378.43, 0.000, 0.000, 0.000, 12:39:27.932
108, -4402.97, -5209.96, -4983.34, -4472.45, 0.000, 0.000, 0.000, 12:39:27.933
109, -4404.08, -5217.22, -4990.55, -4563.36, 0.000, 0.000, 0.000, 12:39:27.948
110, -4378.58, -5082.63, -4951.16, -4356.40, 0.000, 0.000, 0.000, 12:39:27.948
111, -4396.71, -5135.81, -4949.70, -4379.70, 0.000, 0.000, 0.000, 12:39:27.963
112, -4423.11, -5176.00, -4972.03, -4474.93, 0.000, 0.000, 0.000, 12:39:27.963
113, -4439.82, -5187.52, -4977.41, -4558.39, 0.000, 0.000, 0.000, 12:39:27.963
114, -4403.65, -5088.41, -4940.54, -4355.44, 0.000, 0.000, 0.000, 12:39:27.963
115, -4416.80, -5097.98, -4951.46, -4409.70, 0.000, 0.000, 0.000, 12:39:27.977
116, -4443.46, -5166.93, -4978.88, -4472.49, 0.000, 0.000, 0.000, 12:39:27.977
117, -4449.59, -5186.75, -4987.43, -4496.32, 0.000, 0.000, 0.000, 12:39:27.992
118, -4409.45, -5091.14, -4958.18, -4372.75, 0.000, 0.000, 0.000, 12:39:27.992
119, -4426.94, -5114.20, -4959.23, -4364.44, 0.000, 0.000, 0.000, 12:39:27.992
120, -4439.97, -5152.84, -4970.26, -4460.09, 0.000, 0.000, 0.000, 12:39:27.992
121, -4458.06, -5177.98, -4973.99, -4529.24, 0.000, 0.000, 0.000, 12:39:28.008
122, -4402.71, -5060.49, -4933.64, -4369.85, 0.000, 0.000, 0.000, 12:39:28.008
123, -4428.34, -5114.33, -4962.33, -4360.42, 0.000, 0.000, 0.000, 12:39:28.022
124, -4450.11, -5147.39, -4966.60, -4446.16, 0.000, 0.000, 0.000, 12:39:28.022
125, -4465.74, -5171.42, -4995.69, -4517.37, 0.000, 0.000, 0.000, 12:39:28.023
126, -4425.57, -5075.63, -4953.41, -4329.26, 0.000, 0.000, 0.000, 12:39:28.023
127, -4437.65, -5117.48, -4965.83, -4342.11, 0.000, 0.000, 0.000, 12:39:28.037
128, -4443.88, -5135.35, -4954.77, -4455.79, 0.000, 0.000, 0.000, 12:39:28.037
129, -4482.39, -5192.80, -4986.94, -4575.40, 0.000, 0.000, 0.000, 12:39:28.052
130, -4433.43, -5086.86, -4957.03, -4399.50, 0.000, 0.000, 0.000, 12:39:28.052
131, -4433.37, -5090.68, -4956.51, -4361.69, 0.000, 0.000, 0.000, 12:39:28.052
132, -4464.91, -5155.31, -4970.64, -4496.36, 0.000, 0.000, 0.000, 12:39:28.052
133, -4480.84, -5213.25, -4999.38, -4539.24, 0.000, 0.000, 0.000, 12:39:28.067
134, -4425.45, -5083.80, -4956.39, -4383.99, 0.000, 0.000, 0.000, 12:39:28.067
135, -4432.66, -5094.29, -4962.93, -4403.76, 0.000, 0.000, 0.000, 12:39:28.081
136, -4461.79, -5155.27, -4979.17, -4455.90, 0.000, 0.000, 0.000, 12:39:28.081
137, -4481.92, -5190.14, -4994.34, -4501.21, 0.000, 0.000, 0.000, 12:39:28.082
138, -4421.73, -5087.20, -4961.98, -4358.49, 0.000, 0.000, 0.000, 12:39:28.082
139, -4440.30, -5116.37, -4971.32, -4408.22, 0.000, 0.000, 0.000, 12:39:28.097
140, -4466.53, -5155.84, -4968.65, -4487.36, 0.000, 0.000, 0.000, 12:39:28.097
141, -4474.92, -5181.70, -4969.89, -4493.77, 0.000, 0.000, 0.000, 12:39:28.113
142, -4441.59, -5094.66, -4957.12, -4343.99, 0.000, 0.000, 0.000, 12:39:28.113
143, -4444.58, -5116.95, -4965.07, -4379.73, 0.000, 0.000, 0.000, 12:39:28.113
144, -4479.02, -5183.37, -4993.09, -4514.42, 0.000, 0.000, 0.000, 12:39:28.113
145, -4472.23, -5181.05, -4995.87, -4464.55, 0.000, 0.000, 0.000, 12:39:28.127
146, -4437.17, -5106.28, -4936.38, -4315.43, 0.000, 0.000, 0.000, 12:39:28.127
147, -4439.65, -5110.29, -4960.60, -4394.46, 0.000, 0.000, 0.000, 12:39:28.142
148, -4457.80, -5174.39, -4980.07, -4494.05, 0.000, 0.000, 0.000, 12:39:28.142
149, -4466.41, -5183.95, -4970.94, -4527.29, 0.000, 0.000, 0.000, 12:39:28.142
150, -4432.59, -5093.21, -4954.21, -4394.15, 0.000, 0.000, 0.000, 12:39:28.142
151, -4446.08, -5125.71, -4962.93, -4379.04, 0.000, 0.000, 0.000, 12:39:28.157
152, -4462.63, -5168.85, -4980.69, -4482.17, 0.000, 0.000, 0.000, 12:39:28.158
153, -4470.12, -5193.02, -4995.86, -4546.41, 0.000, 0.000, 0.000, 12:39:28.172
154, -4404.89, -5072.18, -4946.59, -4358.63, 0.000, 0.000, 0.000, 12:39:28.172
155, -4441.71, -5132.04, -4956.12, -4398.67, 0.000, 0.000, 0.000, 12:39:28.173
156, -4482.94, -5200.13, -4990.90, -4506.70, 0.000, 0.000, 0.000, 12:39:28.173
157, -4478.80, -5165.51, -4982.64, -4538.98, 0.000, 0.000, 0.000, 12:39:28.187
158, -4411.59, -5081.27, -4941.14, -4345.63, 0.000, 0.000, 0.000, 12:39:28.187
159, -4434.10, -5116.88, -4959.17, -4376.62, 0.000, 0.000, 0.000, 12:39:28.202
160, -4464.98, -5174.00, -4978.24, -4510.21, 0.000, 0.000, 0.000, 12:39:28.202
161, -4469.05, -5189.11, -4982.42, -4528.66, 0.000, 0.000, 0.000, 12:39:28.202
162, -4420.82, -5102.44, -4955.46, -4357.42, 0.000, 0.000, 0.000, 12:39:28.202
163, -4432.28, -5122.99, -4961.23, -4367.52, 0.000, 0.000, 0.000, 12:39:28.216
164, -4471.53, -5187.95, -4984.96, -4486.94, 0.000, 0.000, 0.000, 12:39:28.216
165, -4475.39, -5206.77, -5001.53, -4533.79, 0.000, 0.000, 0.000, 12:39:28.232
166, -4435.96, -5098.68, -4975.46, -4361.92, 0.000, 0.000, 0.000, 12:39:28.232
167, -4438.18, -5127.15, -4946.69, -4387.31, 0.000, 0.000, 0.000, 12:39:28.233
168, -4459.54, -5178.67, -4984.63, -4495.23, 0.000, 0.000, 0.000, 12:39:28.233
169, -4468.77, -5171.01, -4977.00, -4518.31, 0.000, 0.000, 0.000, 12:39:28.247
170, -4426.55, -5086.48, -4943.18, -4333.58, 0.000, 0.000, 0.000, 12:39:28.247
171, -4426.69, -5115.78, -4957.51, -4365.12, 0.000, 0.000, 0.000, 12:39:28.263
172, -4478.31, -5187.54, -4989.96, -4512.88, 0.000, 0.000, 0.000, 12:39:28.263
173, -4471.78, -5183.54, -4986.03, -4517.16, 0.000, 0.000, 0.000, 12:39:28.263
174, -4423.00, -5073.24, -4941.00, -4364.60, 0.000, 0.000, 0.000, 12:39:28.263
175, -4446.40, -5120.72, -4964.61, -4365.08, 0.000, 0.000, 0.000, 12:39:28.277
176, -4460.77, -5165.59, -4993.18, -4481.86, 0.000, 0.000, 0.000, 12:39:28.277
177, -4457.67, -5182.85, -4974.83, -4525.42, 0.000, 0.000, 0.000, 12:39:28.292
178, -4432.31, -5103.04, -4946.82, -4372.10, 0.000, 0.000, 0.000, 12:39:28.293
179, -4418.86, -5095.89, -4945.34, -4377.66, 0.000, 0.000, 0.000, 12:39:28.293
180, -4485.67, -5189.19, -4994.64, -4491.06, 0.000, 0.000, 0.000, 12:39:28.293
181, -4457.24, -5174.80, -4969.76, -4514.21, 0.000, 0.000, 0.000, 12:39:28.307
182, -4421.28, -5085.98, -4945.29, -4344.98, 0.000, 0.000, 0.000, 12:39:28.307
183, -4436.87, -5118.58, -4955.43, -4377.61, 0.000, 0.000, 0.000, 12:39:28.322
184, -4444.56, -5160.81, -4967.22, -4479.13, 0.000, 0.000, 0.000, 12:39:28.322
185, -4460.65, -5185.69, -4976.31, -4520.15, 0.000, 0.000, 0.000, 12:39:28.323
186, -4427.81, -5084.10, -4941.76, -4332.61, 0.000, 0.000, 0.000, 12:39:28.323
187, -4456.52, -5141.72, -4971.48, -4370.87, 0.000, 0.000, 0.000, 12:39:28.337
188, -4478.06, -5192.65, -4992.41, -4495.98, 0.000, 0.000, 0.000, 12:39:28.337
189, -4474.37, -5190.15, -4988.30, -4532.46, 0.000, 0.000, 0.000, 12:39:28.351
190, -4420.62, -5105.49, -4959.31, -4370.49, 0.000, 0.000, 0.000, 12:39:28.351
191, -4420.90, -5104.39, -4942.55, -4385.52, 0.000, 0.000, 0.000, 12:39:28.352
192, -4467.47, -5189.20, -4988.15, -4507.72, 0.000, 0.000, 0.000, 12:39:28.352
193, -4472.13, -5183.02, -4975.68, -4510.24, 0.000, 0.000, 0.000, 12:39:28.367
194, -4428.63, -5095.63, -4945.36, -4363.20, 0.000, 0.000, 0.000, 12:39:28.367
195, -4428.65, -5123.90, -4961.67, -4358.75, 0.000, 0.000, 0.000, 12:39:28.382
196, -4470.48, -5183.70, -4989.38, -4492.53, 0.000, 0.000, 0.000, 12:39:28.382
197, -4481.46, -5189.66, -4988.46, -4535.88, 0.000, 0.000, 0.000, 12:39:28.382
198, -4424.34, -5129.21, -4961.42, -4372.16, 0.000, 0.000, 0.000, 12:39:28.382
199, -4440.56, -5134.28, -4962.20, -4391.45, 0.000, 0.000, 0.000, 12:39:28.396
200, -4446.70, -5188.82, -4973.51, -4481.05, 0.000, 0.000, 0.000, 12:39:28.396
0, -4464.17, -5193.42, -4985.78, -4525.85, 0.000, 0.000, 0.000, 12:39:28.397
1, -4438.44, -5096.25, -4953.04, -4379.04, 0.000, 0.000, 0.000, 12:39:28.413
2, -4452.07, -5133.12, -4967.40, -4410.22, 0.000, 0.000, 0.000, 12:39:28.413
3, -4469.00, -5196.41, -4987.03, -4494.51, 0.000, 0.000, 0.000, 12:39:28.427
4, -4478.57, -5188.67, -4998.83, -4527.44, 0.000, 0.000, 0.000, 12:39:28.427
5, -4427.27, -5113.19, -4963.29, -4333.09, 0.000, 0.000, 0.000, 12:39:28.428
6, -4434.45, -5145.44, -4964.97, -4397.70, 0.000, 0.000, 0.000, 12:39:28.428
7, -4465.92, -5171.90, -4987.46, -4500.77, 0.000, 0.000, 0.000, 12:39:28.443
8, -4469.23, -5180.63, -4978.83, -4518.64, 0.000, 0.000, 0.000, 12:39:28.443
9, -4438.66, -5082.94, -4953.91, -4361.92, 0.000, 0.000, 0.000, 12:39:28.457
10, -4450.03, -5150.53, -4965.09, -4394.45, 0.000, 0.000, 0.000, 12:39:28.457
11, -4470.75, -5183.57, -4974.04, -4485.66, 0.000, 0.000, 0.000, 12:39:28.463
12, -4449.37, -5182.99, -4973.92, -4514.39, 0.000, 0.000, 0.000, 12:39:28.463
13, -4426.07, -5104.51, -4961.14, -4369.84, 0.000, 0.000, 0.000, 12:39:28.481
14, -4459.30, -5147.56, -4992.99, -4377.40, 0.000, 0.000, 0.000, 12:39:28.481
15, -4453.51, -5192.65, -4991.97, -4462.90, 0.000, 0.000, 0.000, 12:39:28.487
16, -4463.17, -5145.75, -4975.84, -4521.46, 0.000, 0.000, 0.000, 12:39:28.487
17, -4423.82, -5124.29, -4963.44, -4346.84, 0.000, 0.000, 0.000, 12:39:28.488
18, -4439.82, -5124.67, -4962.90, -4365.09, 0.000, 0.000, 0.000, 12:39:28.488
19, -4464.57, -5173.63, -4982.22, -4512.07, 0.000, 0.000, 0.000, 12:39:28.502
20, -4463.90, -5202.01, -4980.45, -4509.04, 0.000, 0.000, 0.000, 12:39:28.502
21, -4417.75, -5071.81, -4939.20, -4332.94, 0.000, 0.000, 0.000, 12:39:28.517
22, -4444.82, -5099.84, -4971.69, -4393.30, 0.000, 0.000, 0.000, 12:39:28.517
23, -4465.67, -5174.12, -4976.22, -4497.36, 0.000, 0.000, 0.000, 12:39:28.518
24, -4444.88, -5157.83, -4980.38, -4519.92, 0.000, 0.000, 0.000, 12:39:28.518
25, -4415.50, -5089.85, -4976.66, -4356.76, 0.000, 0.000, 0.000, 12:39:28.532
26, -4426.65, -5161.69, -4985.85, -4390.20, 0.000, 0.000, 0.000, 12:39:28.532
27, -4438.81, -5155.01, -4977.77, -4491.93, 0.000, 0.000, 0.000, 12:39:28.547
28, -4435.10, -5140.23, -4969.62, -4491.05, 0.000, 0.000, 0.000, 12:39:28.547
29, -4397.87, -5062.97, -4958.13, -4355.54, 0.000, 0.000, 0.000, 12:39:28.547
30, -4421.68, -5138.55, -4975.31, -4391.13, 0.000, 0.000, 0.000, 12:39:28.547
31, -4433.89, -5206.73, -4996.89, -4522.92, 0.000, 0.000, 0.000, 12:39:28.563
32, -4445.24, -5150.10, -4976.58, -4525.83, 0.000, 0.000, 0.000, 12:39:28.563
33, -4463.39, -5124.63, -5020.07, -4359.07, 0.000, 0.000, 0.000, 12:39:28.577
34, -4426.61, -5174.08, -4998.66, -4417.37, 0.000, 0.000, 0.000, 12:39:28.577
35, -4416.54, -5143.19, -4959.43, -4501.59, 0.000, 0.000, 0.000, 12:39:28.577
36, -4393.16, -5122.91, -4945.85, -4504.97, 0.000, 0.000, 0.000, 12:39:28.578
37, -4337.42, -5067.05, -4918.86, -4311.14, 0.000, 0.000, 0.000, 12:39:28.592
38, -4352.09, -5077.48, -4931.91, -4363.24, 0.000, 0.000, 0.000, 12:39:28.593
39, -4422.63, -5205.36, -5012.70, -4527.84, 0.000, 0.000, 0.000, 12:39:28.607
40, -4377.71, -5150.18, -4973.52, -4538.50, 0.000, 0.000, 0.000, 12:39:28.607
41, -4309.88, -5026.44, -4921.04, -4308.64, 0.000, 0.000, 0.000, 12:39:28.608
42, -4347.91, -5117.24, -4954.77, -4347.89, 0.000, 0.000, 0.000, 12:39:28.608
43, -4387.68, -5175.88, -4978.76, -4479.83, 0.000, 0.000, 0.000, 12:39:28.621
44, -4404.58, -5191.96, -4973.18, -4521.90, 0.000, 0.000, 0.000, 12:39:28.621
45, -4387.01, -5107.06, -4956.04, -4355.78, 0.000, 0.000, 0.000, 12:39:28.637
46, -4377.54, -5121.25, -4949.54, -4377.58, 0.000, 0.000, 0.000, 12:39:28.637
47, -4416.10, -5192.15, -4996.08, -4518.81, 0.000, 0.000, 0.000, 12:39:28.637
48, -4437.46, -5178.73, -4997.19, -4527.38, 0.000, 0.000, 0.000, 12:39:28.637
49, -4390.88, -5102.42, -4963.80, -4344.10, 0.000, 0.000, 0.000, 12:39:28.652
50, -4419.30, -5124.35, -4962.82, -4383.68, 0.000, 0.000, 0.000, 12:39:28.652
51, -4462.29, -5165.60, -4984.37, -4499.50, 0.000, 0.000, 0.000, 12:39:28.666
52, -4471.66, -5171.19, -4989.64, -4507.88, 0.000, 0.000, 0.000, 12:39:28.666
53, -4419.63, -5074.42, -4937.51, -4325.74, 0.000, 0.000, 0.000, 12:39:28.667
54, -4458.78, -5128.80, -4976.97, -4380.11, 0.000, 0.000, 0.000, 12:39:28.667
55, -4485.53, -5195.27, -4990.20, -4499.34, 0.000, 0.000, 0.000, 12:39:28.681
56, -4498.33, -5152.69, -4987.91, -4523.84, 0.000, 0.000, 0.000, 12:39:28.681
57, -4456.11, -5071.34, -4950.24, -4340.76, 0.000, 0.000, 0.000, 12:39:28.697
58, -4463.60, -5103.02, -4953.04, -4372.66, 0.000, 0.000, 0.000, 12:39:28.697
59, -4511.00, -5174.03, -4990.55, -4495.20, 0.000, 0.000, 0.000, 12:39:28.697
60, -4511.30, -5159.23, -4969.33, -4526.33, 0.000, 0.000, 0.000, 12:39:28.697
61, -4470.51, -5081.92, -4950.40, -4361.38, 0.000, 0.000, 0.000, 12:39:28.713
62, -4499.64, -5111.97, -4961.58, -4380.36, 0.000, 0.000, 0.000, 12:39:28.713
63, -4528.86, -5171.90, -4990.71, -4502.37, 0.000, 0.000, 0.000, 12:39:28.727
64, -4530.93, -5174.90, -4980.43, -4525.75, 0.000, 0.000, 0.000, 12:39:28.727
65, -4486.75, -5080.38, -4962.18, -4339.27, 0.000, 0.000, 0.000, 12:39:28.727
66, -4499.11, -5120.58, -4962.68, -4396.46, 0.000, 0.000, 0.000, 12:39:28.728
67, -4501.61, -5157.75, -4969.10, -4484.29, 0.000, 0.000, 0.000, 12:39:28.742
68, -4527.70, -5175.73, -4995.03, -4531.96, 0.000, 0.000, 0.000, 12:39:28.742
69, -4479.38, -5085.78, -4950.73, -4350.34, 0.000, 0.000, 0.000, 12:39:28.757
70, -4484.70, -5107.88, -4949.72, -4379.20, 0.000, 0.000, 0.000, 12:39:28.758
71, -4524.83, -5200.16, -4986.94, -4490.24, 0.000, 0.000, 0.000, 12:39:28.758
72, -4520.29, -5180.79, -4992.87, -4508.33, 0.000, 0.000, 0.000, 12:39:28.758
73, -4497.21, -5100.83, -4969.88, -4366.34, 0.000, 0.000, 0.000, 12:39:28.775
74, -4483.00, -5117.24, -4970.42, -4387.65, 0.000, 0.000, 0.000, 12:39:28.775
75, -4506.84, -5177.64, -4971.48, -4500.92, 0.000, 0.000, 0.000, 12:39:28.786
76, -4519.98, -5187.95, -4993.57, -4527.40, 0.000, 0.000, 0.000, 12:39:28.786
77, -4470.94, -5109.17, -4966.71, -4359.60, 0.000, 0.000, 0.000, 12:39:28.787
78, -4460.49, -5120.08, -4951.97, -4365.21, 0.000, 0.000, 0.000, 12:39:28.787
79, -4497.70, -5189.11, -4991.77, -4483.34, 0.000, 0.000, 0.000, 12:39:28.801
80, -4495.13, -5180.07, -4987.58, -4529.44, 0.000, 0.000, 0.000, 12:39:28.801
81, -4456.61, -5093.65, -4955.56, -4385.11, 0.000, 0.000, 0.000, 12:39:28.817
82, -4469.55, -5125.53, -4966.56, -4387.30, 0.000, 0.000, 0.000, 12:39:28.817
83, -4490.27, -5184.46, -4979.44, -4499.63, 0.000, 0.000, 0.000, 12:39:28.818
84, -4491.00, -5193.33, -4998.40, -4528.86, 0.000, 0.000, 0.000, 12:39:28.818
85, -4441.60, -5085.72, -4946.10, -4356.80, 0.000, 0.000, 0.000, 12:39:28.832
86, -4457.64, -5134.29, -4968.89, -4401.58, 0.000, 0.000, 0.000, 12:39:28.832
87, -4482.00, -5184.47, -4991.93, -4500.90, 0.000, 0.000, 0.000, 12:39:28.847
88, -4499.34, -5214.91, -5000.29, -4556.79, 0.000, 0.000, 0.000, 12:39:28.847
89, -4439.65, -5101.80, -4958.75, -4353.14, 0.000, 0.000, 0.000, 12:39:28.847
90, -4464.32, -5167.00, -4977.32, -4399.39, 0.000, 0.000, 0.000, 12:39:28.847
91, -4478.49, -5192.29, -4983.81, -4495.04, 0.000, 0.000, 0.000, 12:39:28.863
92, -4492.27, -5192.36, -4987.71, -4520.70, 0.000, 0.000, 0.000, 12:39:28.863
93, -4461.16, -5113.37, -4955.95, -4366.25, 0.000, 0.000, 0.000, 12:39:28.877
94, -4474.96, -5167.26, -4996.90, -4383.41, 0.000, 0.000, 0.000, 12:39:28.877
95, -4486.63, -5195.31, -4996.40, -4489.23, 0.000, 0.000, 0.000, 12:39:28.877
96, -4491.27, -5208.21, -4996.21, -4540.68, 0.000, 0.000, 0.000, 12:39:28.877
97, -4426.78, -5093.00, -4936.32, -4359.48, 0.000, 0.000, 0.000, 12:39:28.898
98, -4451.21, -5136.99, -4956.41, -4400.38, 0.000, 0.000, 0.000, 12:39:28.898
99, -4472.59, -5178.28, -4964.74, -4498.32, 0.000, 0.000, 0.000, 12:39:28.906
100, -4474.10, -5152.66, -4962.17, -4511.29, 0.000, 0.000, 0.000, 12:39:28.907
101, -4424.49, -5066.57, -4925.06, -4352.05, 0.000, 0.000, 0.000, 12:39:28.907
102, -4449.03, -5130.81, -4964.02, -4396.18, 0.000, 0.000, 0.000, 12:39:28.907
103, -4484.53, -5204.34, -4987.61, -4514.97, 0.000, 0.000, 0.000, 12:39:28.922
104, -4460.72, -5166.27, -4958.86, -4510.84, 0.000, 0.000, 0.000, 12:39:28.922
105, -4437.28, -5110.94, -4968.56, -4347.22, 0.000, 0.000, 0.000, 12:39:28.936
106, -4476.91, -5166.40, -4997.06, -4395.53, 0.000, 0.000, 0.000, 12:39:28.936
107, -4487.14, -5179.79, -4975.46, -4491.96, 0.000, 0.000, 0.000, 12:39:28.937
108, -4474.86, -5185.08, -4969.87, -4511.61, 0.000, 0.000, 0.000, 12:39:28.937
109, -4433.23, -5081.32, -4944.19, -4346.24, 0.000, 0.000, 0.000, 12:39:28.951
110, -4449.21, -5110.39, -4950.26, -4417.61, 0.000, 0.000, 0.000, 12:39:28.951
111, -4495.89, -5197.80, -5007.07, -4509.08, 0.000, 0.000, 0.000, 12:39:28.967
112, -4476.82, -5175.28, -4968.91, -4506.89, 0.000, 0.000, 0.000, 12:39:28.967
113, -4436.48, -5108.38, -4948.68, -4367.49, 0.000, 0.000, 0.000, 12:39:28.967
114, -4436.50, -5118.99, -4959.91, -4388.12, 0.000, 0.000, 0.000, 12:39:28.967
115, -4464.40, -5159.16, -4972.82, -4489.17, 0.000, 0.000, 0.000, 12:39:28.981
116, -4473.42, -5194.55, -4985.24, -4529.36, 0.000, 0.000, 0.000, 12:39:28.981
117, -4432.28, -5108.25, -4958.88, -4381.47, 0.000, 0.000, 0.000, 12:39:28.997
118, -4456.32, -5138.37, -4973.86, -4404.55, 0.000, 0.000, 0.000, 12:39:28.997
119, -4472.08, -5156.46, -4967.31, -4504.71, 0.000, 0.000, 0.000, 12:39:28.997
120, -4472.92, -5163.80, -4971.00, -4513.73, 0.000, 0.000, 0.000, 12:39:28.998
121, -4427.87, -5076.51, -4943.64, -4349.25, 0.000, 0.000, 0.000, 12:39:29.012
122, -4447.83, -5135.51, -4961.19, -4401.29, 0.000, 0.000, 0.000, 12:39:29.012
123, -4484.81, -5199.08, -4974.40, -4483.71, 0.000, 0.000, 0.000, 12:39:29.027
124, -4479.98, -5182.53, -4974.95, -4508.90, 0.000, 0.000, 0.000, 12:39:29.027
125, -4446.62, -5093.90, -4955.47, -4346.03, 0.000, 0.000, 0.000, 12:39:29.028
126, -4462.23, -5107.16, -4971.95, -4389.88, 0.000, 0.000, 0.000, 12:39:29.028
127, -4467.04, -5178.44, -4985.82, -4470.10, 0.000, 0.000, 0.000, 12:39:29.042
128, -4456.12, -5163.65, -4967.87, -4478.42, 0.000, 0.000, 0.000, 12:39:29.042
129, -4430.63, -5075.48, -4942.08, -4329.99, 0.000, 0.000, 0.000, 12:39:29.057
130, -4436.12, -5126.69, -4954.97, -4380.47, 0.000, 0.000, 0.000, 12:39:29.058
131, -4471.71, -5182.19, -4998.25, -4513.47, 0.000, 0.000, 0.000, 12:39:29.058
132, -4460.77, -5163.85, -4982.34, -4520.65, 0.000, 0.000, 0.000, 12:39:29.058
133, -4433.01, -5094.67, -4954.06, -4375.07, 0.000, 0.000, 0.000, 12:39:29.072
134, -4454.42, -5148.08, -4978.82, -4405.58, 0.000, 0.000, 0.000, 12:39:29.072
135, -4485.34, -5191.88, -4997.94, -4500.92, 0.000, 0.000, 0.000, 12:39:29.087
136, -4469.26, -5188.33, -4986.02, -4525.91, 0.000, 0.000, 0.000, 12:39:29.087
137, -4414.92, -5050.50, -4940.22, -4335.78, 0.000, 0.000, 0.000, 12:39:29.087
138, -4434.28, -5116.53, -4961.05, -4410.04, 0.000, 0.000, 0.000, 12:39:29.087
139, -4468.44, -5168.33, -4993.61, -4496.34, 0.000, 0.000, 0.000, 12:39:29.102
140, -4459.44, -5180.25, -4979.64, -4512.70, 0.000, 0.000, 0.000, 12:39:29.102
141, -4421.00, -5097.04, -4948.34, -4346.16, 0.000, 0.000, 0.000, 12:39:29.117
142, -4447.15, -5134.91, -4979.39, -4398.31, 0.000, 0.000, 0.000, 12:39:29.117
143, -4465.40, -5188.19, -4993.90, -4497.52, 0.000, 0.000, 0.000, 12:39:29.118
144, -4479.57, -5164.17, -4987.84, -4501.65, 0.000, 0.000, 0.000, 12:39:29.118
145, -4434.72, -5081.25, -4956.97, -4357.79, 0.000, 0.000, 0.000, 12:39:29.132
146, -4435.09, -5138.73, -4969.09, -4387.32, 0.000, 0.000, 0.000, 12:39:29.132
147, -4478.66, -5188.01, -4995.22, -4528.39, 0.000, 0.000, 0.000, 12:39:29.146
148, -4465.07, -5166.36, -4981.60, -4509.32, 0.000, 0.000, 0.000, 12:39:29.146
149, -4423.87, -5091.93, -4947.71, -4337.19, 0.000, 0.000, 0.000, 12:39:29.147
150, -4451.72, -5143.68, -4964.54, -4388.80, 0.000, 0.000, 0.000, 12:39:29.147
151, -4465.65, -5191.03, -4981.35, -4504.89, 0.000, 0.000, 0.000, 12:39:29.169
152, -4466.60, -5185.68, -4983.75, -4527.18, 0.000, 0.000, 0.000, 12:39:29.169
153, -4418.21, -5088.78, -4945.31, -4350.30, 0.000, 0.000, 0.000, 12:39:29.177
154, -4433.69, -5123.01, -4967.79, -4365.94, 0.000, 0.000, 0.000, 12:39:29.177
155, -4455.50, -5182.74, -4974.35, -4495.03, 0.000, 0.000, 0.000, 12:39:29.177
156, -4457.78, -5185.50, -4974.59, -4499.01, 0.000, 0.000, 0.000, 12:39:29.178
157, -4416.42, -5085.43, -4937.21, -4352.97, 0.000, 0.000, 0.000, 12:39:29.193
158, -4444.34, -5140.62, -4967.81, -4405.31, 0.000, 0.000, 0.000, 12:39:29.193
159, -4464.97, -5189.59, -4981.08, -4524.65, 0.000, 0.000, 0.000, 12:39:29.207
160, -4446.94, -5153.92, -4962.69, -4494.63, 0.000, 0.000, 0.000, 12:39:29.208
161, -4416.86, -5084.48, -4952.64, -4349.53, 0.000, 0.000, 0.000, 12:39:29.208
162, -4420.12, -5101.71, -4948.98, -4381.04, 0.000, 0.000, 0.000, 12:39:29.208
163, -4441.86, -5133.81, -4973.61, -4484.43, 0.000, 0.000, 0.000, 12:39:29.222
164, -4449.15, -5152.99, -4969.64, -4505.40, 0.000, 0.000, 0.000, 12:39:29.222
165, -4403.83, -5050.14, -4942.25, -4321.04, 0.000, 0.000, 0.000, 12:39:29.237
166, -4421.85, -5098.53, -4959.40, -4363.29, 0.000, 0.000, 0.000, 12:39:29.237
167, -4451.08, -5169.00, -4977.08, -4469.88, 0.000, 0.000, 0.000, 12:39:29.238
168, -4441.69, -5124.20, -4973.94, -4502.03, 0.000, 0.000, 0.000, 12:39:29.238
169, -4414.68, -5051.54, -4942.59, -4306.50, 0.000, 0.000, 0.000, 12:39:29.251
170, -4437.11, -5097.30, -4953.13, -4369.09, 0.000, 0.000, 0.000, 12:39:29.251
171, -4481.28, -5165.12, -4983.96, -4499.82, 0.000, 0.000, 0.000, 12:39:29.267
172, -4455.27, -5140.24, -4966.75, -4512.25, 0.000, 0.000, 0.000, 12:39:29.267
173, -4404.57, -5058.86, -4935.06, -4345.09, 0.000, 0.000, 0.000, 12:39:29.267
174, -4444.05, -5107.88, -4961.61, -4380.56, 0.000, 0.000, 0.000, 12:39:29.268
175, -4462.71, -5151.45, -4989.56, -4511.03, 0.000, 0.000, 0.000, 12:39:29.281
176, -4447.74, -5144.85, -4974.90, -4504.03, 0.000, 0.000, 0.000, 12:39:29.282
177, -4419.86, -5088.48, -4958.86, -4333.56, 0.000, 0.000, 0.000, 12:39:29.296
178, -4445.19, -5119.71, -4990.17, -4367.88, 0.000, 0.000, 0.000, 12:39:29.296
179, -4462.50, -5168.24, -4982.30, -4489.51, 0.000, 0.000, 0.000, 12:39:29.297
180, -4448.13, -5156.81, -4980.56, -4503.57, 0.000, 0.000, 0.000, 12:39:29.297
181, -4406.73, -5060.74, -4939.45, -4330.23, 0.000, 0.000, 0.000, 12:39:29.313
182, -4425.03, -5124.14, -4960.73, -4372.86, 0.000, 0.000, 0.000, 12:39:29.313
183, -4462.64, -5190.56, -4993.90, -4492.87, 0.000, 0.000, 0.000, 12:39:29.327
184, -4453.45, -5176.18, -4988.35, -4498.88, 0.000, 0.000, 0.000, 12:39:29.327
185, -4416.29, -5072.94, -4954.25, -4338.20, 0.000, 0.000, 0.000, 12:39:29.327
186, -4435.31, -5115.06, -4968.47, -4385.10, 0.000, 0.000, 0.000, 12:39:29.328
187, -4460.81, -5168.04, -4985.47, -4489.92, 0.000, 0.000, 0.000, 12:39:29.342
188, -4450.72, -5153.78, -4972.19, -4527.16, 0.000, 0.000, 0.000, 12:39:29.342
189, -4416.75, -5070.74, -4947.86, -4372.65, 0.000, 0.000, 0.000, 12:39:29.357
190, -4433.68, -5105.70, -4973.86, -4400.69, 0.000, 0.000, 0.000, 12:39:29.358
191, -4446.23, -5165.69, -4986.17, -4502.82, 0.000, 0.000, 0.000, 12:39:29.358
192, -4440.50, -5166.12, -4981.01, -4505.28, 0.000, 0.000, 0.000, 12:39:29.358
193, -4424.18, -5093.12, -4961.35, -4338.76, 0.000, 0.000, 0.000, 12:39:29.372
194, -4460.37, -5160.58, -4985.01, -4407.50, 0.000, 0.000, 0.000, 12:39:29.372
195, -4455.26, -5167.36, -4979.97, -4489.22, 0.000, 0.000, 0.000, 12:39:29.387
196, -4453.25, -5149.66, -4958.47, -4523.11, 0.000, 0.000, 0.000, 12:39:29.387
197, -4429.75, -5073.92, -4948.58, -4353.11, 0.000, 0.000, 0.000, 12:39:29.387
198, -4456.52, -5101.40, -4954.98, -4383.18, 0.000, 0.000, 0.000, 12:39:29.387
199, -4478.80, -5167.16, -4971.13, -4509.83, 0.000, 0.000, 0.000, 12:39:29.402
200, -4488.20, -5153.93, -4971.54, -4519.92, 0.000, 0.000, 0.000, 12:39:29.402
0, -4445.08, -5066.09, -4937.05, -4329.94, 0.000, 0.000, 0.000, 12:39:29.402
1, -4465.62, -5123.11, -4948.33, -4403.72, 0.000, 0.000, 0.000, 12:39:29.417
2, -4513.26, -5201.26, -4989.12, -4512.36, 0.000, 0.000, 0.000, 12:39:29.417
3, -4489.45, -5169.71, -4984.75, -4539.31, 0.000, 0.000, 0.000, 12:39:29.432
4, -4459.51, -5088.79, -4962.66, -4341.93, 0.000, 0.000, 0.000, 12:39:29.432
5, -4464.51, -5132.68, -4958.95, -4411.63, 0.000, 0.000, 0.000, 12:39:29.432
6, -4491.41, -5193.70, -4973.40, -4520.58, 0.000, 0.000, 0.000, 12:39:29.433
7, -4471.96, -5188.76, -4968.33, -4534.47, 0.000, 0.000, 0.000, 12:39:29.447
8, -4443.97, -5089.86, -4944.16, -4352.09, 0.000, 0.000, 0.000, 12:39:29.447
9, -4458.68, -5128.55, -4952.61, -4397.47, 0.000, 0.000, 0.000, 12:39:29.462
10, -4486.98, -5186.43, -4984.26, -4530.69, 0.000, 0.000, 0.000, 12:39:29.462
11, -4473.64, -5150.99, -4967.99, -4519.68, 0.000, 0.000, 0.000, 12:39:29.463
12, -4441.74, -5076.36, -4955.20, -4361.32, 0.000, 0.000, 0.000, 12:39:29.463
13, -4460.51, -5144.85, -4973.17, -4405.15, 0.000, 0.000, 0.000, 12:39:29.477
14, -4477.45, -5215.21, -4994.88, -4508.04, 0.000, 0.000, 0.000, 12:39:29.477
15, -4480.83, -5180.15, -4996.20, -4522.01, 0.000, 0.000, 0.000, 12:39:29.492
16, -4433.01, -5091.01, -4943.59, -4344.74, 0.000, 0.000, 0.000, 12:39:29.492
17, -4455.99, -5142.44, -4965.57, -4413.13, 0.000, 0.000, 0.000, 12:39:29.499
18, -4478.96, -5187.95, -4982.83, -4531.15, 0.000, 0.000, 0.000, 12:39:29.499
19, -4474.79, -5183.90, -4982.97, -4523.62, 0.000, 0.000, 0.000, 12:39:29.507
20, -4419.36, -5092.84, -4960.89, -4350.74, 0.000, 0.000, 0.000, 12:39:29.507
21, -4460.79, -5139.81, -4962.40, -4402.24, 0.000, 0.000, 0.000, 12:39:29.522
22, -4474.96, -5201.21, -4980.59, -4506.43, 0.000, 0.000, 0.000, 12:39:29.522
23, -4463.77, -5173.42, -4976.60, -4531.51, 0.000, 0.000, 0.000, 12:39:29.522
24, -4430.46, -5088.54, -4955.85, -4356.58, 0.000, 0.000, 0.000, 12:39:29.522
25, -4456.67, -5111.99, -4958.81, -4386.80, 0.000, 0.000, 0.000, 12:39:29.536
26, -4476.96, -5192.14, -4983.35, -4503.44, 0.000, 0.000, 0.000, 12:39:29.537
27, -4473.28, -5193.70, -4987.34, -4530.49, 0.000, 0.000, 0.000, 12:39:29.551
28, -4451.23, -5096.37, -4967.06, -4335.00, 0.000, 0.000, 0.000, 12:39:29.552
29, -4440.23, -5110.35, -4972.21, -4378.81, 0.000, 0.000, 0.000, 12:39:29.552
30, -4467.36, -5194.98, -4981.94, -4508.19, 0.000, 0.000, 0.000, 12:39:29.552
31, -4476.07, -5187.63, -4986.02, -4511.32, 0.000, 0.000, 0.000, 12:39:29.567
32, -4427.51, -5101.95, -4961.44, -4361.17, 0.000, 0.000, 0.000, 12:39:29.567
33, -4455.27, -5160.18, -4962.39, -4394.98, 0.000, 0.000, 0.000, 12:39:29.582
34, -4479.85, -5199.87, -4992.11, -4509.15, 0.000, 0.000, 0.000, 12:39:29.582
35, -4464.82, -5157.97, -4968.16, -4495.80, 0.000, 0.000, 0.000, 12:39:29.582
36, -4429.67, -5096.81, -4951.48, -4362.84, 0.000, 0.000, 0.000, 12:39:29.582
37, -4446.58, -5131.79, -4970.77, -4409.69, 0.000, 0.000, 0.000, 12:39:29.597
38, -4467.57, -5191.95, -4988.31, -4503.51, 0.000, 0.000, 0.000, 12:39:29.597
39, -4444.13, -5177.21, -4961.99, -4511.99, 0.000, 0.000, 0.000, 12:39:29.613
40, -4425.69, -5118.77, -4955.16, -4331.92, 0.000, 0.000, 0.000, 12:39:29.613
41, -4462.78, -5155.87, -4968.99, -4465.50, 0.000, 0.000, 0.000, 12:39:29.613
42, -4472.72, -5183.40, -4981.38, -4523.56, 0.000, 0.000, 0.000, 12:39:29.613
43, -4468.73, -5187.72, -4979.04, -4524.67, 0.000, 0.000, 0.000, 12:39:29.627
44, -4434.47, -5098.94, -4939.34, -4310.34, 0.000, 0.000, 0.000, 12:39:29.629
45, -4463.26, -5158.26, -4972.11, -4393.99, 0.000, 0.000, 0.000, 12:39:29.642
46, -4483.41, -5218.23, -4989.34, -4487.83, 0.000, 0.000, 0.000, 12:39:29.642
47, -4472.68, -5205.39, -4991.24, -4505.73, 0.000, 0.000, 0.000, 12:39:29.642
48, -4428.10, -5105.55, -4950.53, -4343.09, 0.000, 0.000, 0.000, 12:39:29.642
49, -4467.02, -5147.04, -4973.57, -4403.81, 0.000, 0.000, 0.000, 12:39:29.657
50, -4490.86, -5209.44, -5017.17, -4515.59, 0.000, 0.000, 0.000, 12:39:29.657
51, -4477.55, -5191.99, -4984.42, -4477.74, 0.000, 0.000, 0.000, 12:39:29.672
52, -4440.85, -5111.80, -4949.00, -4402.63, 0.000, 0.000, 0.000, 12:39:29.672
53, -4455.49, -5140.66, -4972.28, -4359.52, 0.000, 0.000, 0.000, 12:39:29.672
54, -4471.68, -5204.46, -4991.51, -4538.37, 0.000, 0.000, 0.000, 12:39:29.672
55, -4467.29, -5188.63, -4986.17, -4520.32, 0.000, 0.000, 0.000, 12:39:29.686
56, -4432.51, -5110.99, -4976.43, -4386.38, 0.000, 0.000, 0.000, 12:39:29.686
57, -4467.14, -5182.65, -5007.32, -4456.52, 0.000, 0.000, 0.000, 12:39:29.702
58, -4484.77, -5221.41, -5018.08, -4540.69, 0.000, 0.000, 0.000, 12:39:29.702
59, -4424.23, -5162.33, -4973.10, -4435.51, 0.000, 0.000, 0.000, 12:39:29.702
60, -4399.63, -5102.64, -4957.13, -4344.06, 0.000, 0.000, 0.000, 12:39:29.702
61, -4424.58, -5146.14, -4979.99, -4387.74, 0.000, 0.000, 0.000, 12:39:29.717
62, -4440.17, -5195.66, -4999.47, -4499.36, 0.000, 0.000, 0.000, 12:39:29.717
63, -4411.80, -5183.45, -4987.60, -4503.33, 0.000, 0.000, 0.000, 12:39:29.731
64, -4379.19, -5100.54, -4951.42, -4289.41, 0.000, 0.000, 0.000, 12:39:29.732
65, -4413.30, -5134.74, -4973.09, -4433.02, 0.000, 0.000, 0.000, 12:39:29.732
66, -4443.33, -5190.09, -4995.26, -4494.17, 0.000, 0.000, 0.000, 12:39:29.732
67, -4433.79, -5169.66, -4979.11, -4487.36, 0.000, 0.000, 0.000, 12:39:29.747
68, -4414.13, -5097.99, -4955.93, -4329.18, 0.000, 0.000, 0.000, 12:39:29.747
69, -4442.82, -5148.66, -4975.40, -4355.60, 0.000, 0.000, 0.000, 12:39:29.762
70, -4462.20, -5216.59, -5008.90, -4481.10, 0.000, 0.000, 0.000, 12:39:29.762
71, -4475.67, -5192.96, -5000.43, -4537.83, 0.000, 0.000, 0.000, 12:39:29.762
72, -4427.30, -5103.07, -4968.18, -4364.76, 0.000, 0.000, 0.000, 12:39:29.762
73, -4428.21, -5129.23, -4968.13, -4389.92, 0.000, 0.000, 0.000, 12:39:29.777
74, -4454.08, -5181.23, -4981.48, -4487.41, 0.000, 0.000, 0.000, 12:39:29.777
75, -4463.07, -5186.63, -4995.21, -4510.07, 0.000, 0.000, 0.000, 12:39:29.792
76, -4424.78, -5095.79, -4963.49, -4294.92, 0.000, 0.000, 0.000, 12:39:29.792
77, -4450.95, -5158.72, -4985.25, -4402.10, 0.000, 0.000, 0.000, 12:39:29.792
78, -4468.98, -5206.36, -4997.26, -4509.53, 0.000, 0.000, 0.000, 12:39:29.792
79, -4460.91, -5172.75, -4993.00, -4504.53, 0.000, 0.000, 0.000, 12:39:29.807
80, -4431.72, -5103.72, -4960.38, -4340.76, 0.000, 0.000, 0.000, 12:39:29.807
81, -4440.56, -5136.89, -4968.01, -4366.08, 0.000, 0.000, 0.000, 12:39:29.823
82, -4463.39, -5199.30, -4984.17, -4525.68, 0.000, 0.000, 0.000, 12:39:29.823
83, -4462.62, -5168.73, -4990.05, -4528.68, 0.000, 0.000, 0.000, 12:39:29.823
84, -4420.95, -5080.11, -4957.60, -4350.06, 0.000, 0.000, 0.000, 12:39:29.823
85, -4458.37, -5154.48, -4974.67, -4417.95, 0.000, 0.000, 0.000, 12:39:29.836
86, -4504.22, -5218.07, -5012.08, -4536.53, 0.000, 0.000, 0.000, 12:39:29.836
87, -4502.06, -5189.30, -5008.17, -4526.38, 0.000, 0.000, 0.000, 12:39:29.852
88, -4434.40, -5087.93, -4961.37, -4334.98, 0.000, 0.000, 0.000, 12:39:29.852
89, -4441.29, -5097.85, -4958.21, -4397.29, 0.000, 0.000, 0.000, 12:39:29.852
90, -4500.09, -5152.10, -4982.09, -4530.55, 0.000, 0.000, 0.000, 12:39:29.852
91, -4501.29, -5155.12, -4967.90, -4511.21, 0.000, 0.000, 0.000, 12:39:29.867
92, -4456.71, -5079.68, -4930.06, -4338.50, 0.000, 0.000, 0.000, 12:39:29.867
93, -4474.65, -5089.77, -4949.79, -4405.45, 0.000, 0.000, 0.000, 12:39:29.882
94, -4503.56, -5152.67, -4962.99, -4539.78, 0.000, 0.000, 0.000, 12:39:29.882
95, -4493.50, -5127.24, -4957.40, -4516.12, 0.000, 0.000, 0.000, 12:39:29.882
96, -4453.56, -5071.06, -4938.62, -4367.95, 0.000, 0.000, 0.000, 12:39:29.882
97, -4473.13, -5127.55, -4951.93, -4395.83, 0.000, 0.000, 0.000, 12:39:29.897
98, -4499.27, -5174.25, -4977.11, -4513.14, 0.000, 0.000, 0.000, 12:39:29.897
99, -4489.17, -5147.74, -4971.69, -4509.11, 0.000, 0.000, 0.000, 12:39:29.912
100, -4447.57, -5067.68, -4941.75, -4348.48, 0.000, 0.000, 0.000, 12:39:29.912
101, -4470.72, -5110.31, -4958.80, -4391.94, 0.000, 0.000, 0.000, 12:39:29.913
102, -4492.46, -5167.08, -4977.97, -4511.32, 0.000, 0.000, 0.000, 12:39:29.913
103, -4477.20, -5163.35, -4971.30, -4501.64, 0.000, 0.000, 0.000, 12:39:29.927
104, -4430.49, -5071.40, -4943.95, -4366.27, 0.000, 0.000, 0.000, 12:39:29.927
105, -4448.02, -5111.08, -4948.78, -4387.26, 0.000, 0.000, 0.000, 12:39:29.942
106, -4485.77, -5181.76, -4976.42, -4531.38, 0.000, 0.000, 0.000, 12:39:29.942
107, -4473.23, -5149.20, -4966.82, -4508.28, 0.000, 0.000, 0.000, 12:39:29.942
108, -4447.26, -5089.56, -4957.41, -4334.53, 0.000, 0.000, 0.000, 12:39:29.942
109, -4455.03, -5144.25, -4963.43, -4417.94, 0.000, 0.000, 0.000, 12:39:29.958
110, -4464.06, -5171.00, -4971.47, -4495.88, 0.000, 0.000, 0.000, 12:39:29.958
111, -4460.64, -5165.94, -4975.83, -4508.82, 0.000, 0.000, 0.000, 12:39:29.972
112, -4426.46, -5084.10, -4951.01, -4340.99, 0.000, 0.000, 0.000, 12:39:29.972
113, -4440.98, -5142.05, -4973.34, -4406.71, 0.000, 0.000, 0.000, 12:39:29.972
114, -4483.37, -5209.26, -5002.96, -4525.38, 0.000, 0.000, 0.000, 12:39:29.973
115, -4469.23, -5158.92, -4975.04, -4513.74, 0.000, 0.000, 0.000, 12:39:29.993
116, -4432.68, -5063.59, -4946.83, -4352.97, 0.000, 0.000, 0.000, 12:39:29.994
117, -4456.45, -5121.06, -4971.42, -4417.46, 0.000, 0.000, 0.000, 12:39:30.001
118, -4485.43, -5183.64, -4986.04, -4499.71, 0.000, 0.000, 0.000, 12:39:30.001
119, -4465.12, -5160.62, -4985.40, -4516.34, 0.000, 0.000, 0.000, 12:39:30.002
120, -4427.68, -5092.16, -4942.63, -4320.20, 0.000, 0.000, 0.000, 12:39:30.002
121, -4445.00, -5141.84, -4968.99, -4405.66, 0.000, 0.000, 0.000, 12:39:30.017
122, -4468.64, -5186.20, -4990.14, -4523.12, 0.000, 0.000, 0.000, 12:39:30.017
123, -4462.54, -5155.89, -4989.68, -4500.94, 0.000, 0.000, 0.000, 12:39:30.032
124, -4413.94, -5084.86, -4954.26, -4344.39, 0.000, 0.000, 0.000, 12:39:30.032
125, -4441.46, -5139.75, -4973.44, -4391.18, 0.000, 0.000, 0.000, 12:39:30.032
126, -4461.13, -5192.45, -4995.65, -4510.22, 0.000, 0.000, 0.000, 12:39:30.032
127, -4451.73, -5162.64, -4982.69, -4490.08, 0.000, 0.000, 0.000, 12:39:30.046
128, -4414.13, -5080.93, -4943.65, -4329.60, 0.000, 0.000, 0.000, 12:39:30.047
129, -4436.93, -5128.65, -4960.74, -4411.61, 0.000, 0.000, 0.000, 12:39:30.063
130, -4458.26, -5191.07, -4986.71, -4533.79, 0.000, 0.000, 0.000, 12:39:30.063
131, -4462.33, -5188.00, -4994.68, -4502.16, 0.000, 0.000, 0.000, 12:39:30.063
132, -4420.45, -5107.71, -4953.17, -4339.22, 0.000, 0.000, 0.000, 12:39:30.063
133, -4455.71, -5137.52, -4971.88, -4395.84, 0.000, 0.000, 0.000, 12:39:30.077
134, -4467.97, -5202.04, -4992.32, -4546.01, 0.000, 0.000, 0.000, 12:39:30.077
135, -4456.61, -5175.05, -4986.65, -4506.30, 0.000, 0.000, 0.000, 12:39:30.092
136, -4412.53, -5094.37, -4947.36, -4337.38, 0.000, 0.000, 0.000, 12:39:30.092
137, -4458.74, -5143.52, -4989.88, -4413.69, 0.000, 0.000, 0.000, 12:39:30.092
138, -4465.91, -5188.47, -4991.30, -4500.19, 0.000, 0.000, 0.000, 12:39:30.092
139, -4450.86, -5182.45, -4971.45, -4474.53, 0.000, 0.000, 0.000, 12:39:30.107
140, -4423.96, -5090.93, -4942.08, -4330.49, 0.000, 0.000, 0.000, 12:39:30.108
141, -4448.62, -5132.03, -4968.62, -4418.40, 0.000, 0.000, 0.000, 12:39:30.122
142, -4472.79, -5210.80, -4989.54, -4507.85, 0.000, 0.000, 0.000, 12:39:30.123
143, -4465.72, -5197.53, -5001.42, -4538.59, 0.000, 0.000, 0.000, 12:39:30.123
144, -4432.19, -5091.57, -4969.06, -4341.77, 0.000, 0.000, 0.000, 12:39:30.123
145, -4448.73, -5127.36, -4966.47, -4413.96, 0.000, 0.000, 0.000, 12:39:30.137
146, -4468.90, -5197.98, -4994.94, -4546.18, 0.000, 0.000, 0.000, 12:39:30.137
147, -4468.75, -5189.37, -4984.85, -4481.69, 0.000, 0.000, 0.000, 12:39:30.151
148, -4427.27, -5104.76, -4951.55, -4332.39, 0.000, 0.000, 0.000, 12:39:30.151
149, -4444.82, -5123.91, -4961.03, -4380.46, 0.000, 0.000, 0.000, 12:39:30.152
150, -4464.24, -5179.87, -4982.86, -4515.98, 0.000, 0.000, 0.000, 12:39:30.152
151, -4443.87, -5146.24, -4967.89, -4478.29, 0.000, 0.000, 0.000, 12:39:30.166
152, -4432.53, -5102.24, -4956.37, -4344.35, 0.000, 0.000, 0.000, 12:39:30.166
153, -4455.45, -5142.63, -5008.28, -4412.48, 0.000, 0.000, 0.000, 12:39:30.182
154, -4469.34, -5188.48, -4986.11, -4462.72, 0.000, 0.000, 0.000, 12:39:30.182
155, -4457.35, -5166.53, -4965.63, -4511.73, 0.000, 0.000, 0.000, 12:39:30.182
156, -4437.77, -5103.37, -4952.00, -4331.24, 0.000, 0.000, 0.000, 12:39:30.182
157, -4452.00, -5149.39, -4977.92, -4422.28, 0.000, 0.000, 0.000, 12:39:30.196
158, -4471.29, -5196.73, -4996.19, -4524.30, 0.000, 0.000, 0.000, 12:39:30.196
159, -4461.30, -5167.54, -4976.80, -4508.31, 0.000, 0.000, 0.000, 12:39:30.212
160, -4418.78, -5107.90, -4951.47, -4326.03, 0.000, 0.000, 0.000, 12:39:30.212
161, -4456.15, -5140.80, -4972.11, -4430.11, 0.000, 0.000, 0.000, 12:39:30.212
162, -4484.31, -5184.91, -4984.89, -4549.50, 0.000, 0.000, 0.000, 12:39:30.212
163, -4476.25, -5168.05, -4973.99, -4519.62, 0.000, 0.000, 0.000, 12:39:30.227
164, -4422.41, -5096.88, -4939.13, -4342.56, 0.000, 0.000, 0.000, 12:39:30.227
165, -4460.82, -5143.13, -4980.89, -4376.53, 0.000, 0.000, 0.000, 12:39:30.242
166, -4468.84, -5188.29, -4984.68, -4528.74, 0.000, 0.000, 0.000, 12:39:30.242
167, -4468.76, -5184.21, -4977.70, -4487.68, 0.000, 0.000, 0.000, 12:39:30.242
168, -4425.78, -5099.52, -4949.36, -4343.09, 0.000, 0.000, 0.000, 12:39:30.242
169, -4437.39, -5131.37, -4961.07, -4402.01, 0.000, 0.000, 0.000, 12:39:30.257
170, -4479.77, -5208.26, -4994.89, -4553.54, 0.000, 0.000, 0.000, 12:39:30.257
171, -4465.13, -5155.30, -4985.54, -4490.88, 0.000, 0.000, 0.000, 12:39:30.272
172, -4416.36, -5053.15, -4947.98, -4344.45, 0.000, 0.000, 0.000, 12:39:30.272
173, -4449.16, -5133.33, -4972.28, -4411.29, 0.000, 0.000, 0.000, 12:39:30.272
174, -4472.75, -5192.53, -5003.10, -4498.62, 0.000, 0.000, 0.000, 12:39:30.273
175, -4463.12, -5179.44, -4989.60, -4500.34, 0.000, 0.000, 0.000, 12:39:30.287
176, -4423.17, -5093.45, -4951.74, -4332.76, 0.000, 0.000, 0.000, 12:39:30.287
177, -4463.94, -5148.27, -4981.49, -4404.73, 0.000, 0.000, 0.000, 12:39:30.302
178, -4475.68, -5196.77, -4998.93, -4529.07, 0.000, 0.000, 0.000, 12:39:30.302
179, -4467.68, -5171.33, -4985.51, -4504.85, 0.000, 0.000, 0.000, 12:39:30.302
180, -4435.27, -5094.65, -4960.25, -4360.22, 0.000, 0.000, 0.000, 12:39:30.302
181, -4460.31, -5151.50, -4977.89, -4411.46, 0.000, 0.000, 0.000, 12:39:30.317
182, -4482.87, -5209.01, -5000.17, -4527.17, 0.000, 0.000, 0.000, 12:39:30.317
183, -4468.25, -5180.39, -4983.59, -4481.33, 0.000, 0.000, 0.000, 12:39:30.331
184, -4418.03, -5084.72, -4952.37, -4332.16, 0.000, 0.000, 0.000, 12:39:30.331
185, -4435.82, -5123.76, -4959.88, -4382.21, 0.000, 0.000, 0.000, 12:39:30.332
186, -4482.38, -5201.99, -4985.73, -4529.39, 0.000, 0.000, 0.000, 12:39:30.332
187, -4468.05, -5163.44, -4980.66, -4517.61, 0.000, 0.000, 0.000, 12:39:30.346
188, -4427.06, -5080.81, -4951.38, -4328.73, 0.000, 0.000, 0.000, 12:39:30.346
189, -4460.02, -5151.31, -4981.63, -4400.22, 0.000, 0.000, 0.000, 12:39:30.362
190, -4480.47, -5198.32, -4980.72, -4504.75, 0.000, 0.000, 0.000, 12:39:30.362
191, -4450.67, -5136.54, -4966.73, -4502.05, 0.000, 0.000, 0.000, 12:39:30.369
192, -4419.51, -5077.95, -4952.24, -4333.81, 0.000, 0.000, 0.000, 12:39:30.369
193, -4452.23, -5166.28, -4968.03, -4400.71, 0.000, 0.000, 0.000, 12:39:30.377
194, -4471.47, -5181.69, -4981.53, -4504.58, 0.000, 0.000, 0.000, 12:39:30.377
195, -4460.84, -5177.71, -4974.43, -4506.28, 0.000, 0.000, 0.000, 12:39:30.392
196, -4434.70, -5104.34, -4942.62, -4331.97, 0.000, 0.000, 0.000, 12:39:30.392
197, -4458.29, -5150.92, -4964.95, -4408.60, 0.000, 0.000, 0.000, 12:39:30.392
198, -4472.23, -5187.07, -4974.62, -4519.24, 0.000, 0.000, 0.000, 12:39:30.392
199, -4463.81, -5170.85, -4978.45, -4512.32, 0.000, 0.000, 0.000, 12:39:30.407
200, -4423.41, -5093.31, -4941.55, -4321.88, 0.000, 0.000, 0.000, 12:39:30.408
0, -4451.70, -5135.49, -4960.23, -4398.74, 0.000, 0.000, 0.000, 12:39:30.408
1, -4467.23, -5172.18, -4974.73, -4501.04, 0.000, 0.000, 0.000, 12:39:30.423
2, -4446.74, -5142.06, -4949.33, -4485.73, 0.000, 0.000, 0.000, 12:39:30.423
3, -4410.85, -5052.40, -4928.77, -4321.65, 0.000, 0.000, 0.000, 12:39:30.437
4, -4444.60, -5112.49, -4954.87, -4408.23, 0.000, 0.000, 0.000, 12:39:30.437
5, -4473.97, -5177.31, -4977.57, -4514.97, 0.000, 0.000, 0.000, 12:39:30.437
6, -4467.51, -5179.66, -4964.92, -4503.06, 0.000, 0.000, 0.000, 12:39:30.437
7, -4422.10, -5080.04, -4940.64, -4316.08, 0.000, 0.000, 0.000, 12:39:30.452
8, -4462.42, -5147.27, -4969.06, -4405.76, 0.000, 0.000, 0.000, 12:39:30.452
9, -4489.94, -5188.44, -4987.19, -4521.76, 0.000, 0.000, 0.000, 12:39:30.466
10, -4462.23, -5128.56, -4963.46, -4496.57, 0.000, 0.000, 0.000, 12:39:30.466
11, -4442.66, -5058.22, -4941.59, -4331.61, 0.000, 0.000, 0.000, 12:39:30.467
12, -4468.15, -5114.90, -4961.04, -4396.91, 0.000, 0.000, 0.000, 12:39:30.467
13, -4486.44, -5174.86, -4975.85, -4514.41, 0.000, 0.000, 0.000, 12:39:30.482
14, -4477.77, -5144.99, -4975.06, -4487.34, 0.000, 0.000, 0.000, 12:39:30.482
15, -4453.69, -5086.92, -4945.57, -4338.37, 0.000, 0.000, 0.000, 12:39:30.497
16, -4485.28, -5134.66, -4963.41, -4406.62, 0.000, 0.000, 0.000, 12:39:30.497
17, -4482.56, -5165.23, -4975.07, -4502.61, 0.000, 0.000, 0.000, 12:39:30.498
18, -4460.60, -5120.23, -4948.08, -4481.76, 0.000, 0.000, 0.000, 12:39:30.498
19, -4433.90, -5055.97, -4934.56, -4312.91, 0.000, 0.000, 0.000, 12:39:30.512
20, -4467.62, -5139.37, -4970.00, -4410.91, 0.000, 0.000, 0.000, 12:39:30.512
21, -4507.01, -5204.68, -4995.66, -4524.97, 0.000, 0.000, 0.000, 12:39:30.527
22, -4466.38, -5104.78, -4950.89, -4503.08, 0.000, 0.000, 0.000, 12:39:30.527
23, -4429.22, -5033.51, -4944.87, -4336.50, 0.000, 0.000, 0.000, 12:39:30.528
24, -4450.30, -5133.99, -4971.26, -4403.16, 0.000, 0.000, 0.000, 12:39:30.528
25, -4466.00, -5172.61, -4986.69, -4482.58, 0.000, 0.000, 0.000, 12:39:30.542
26, -4454.94, -5135.26, -4968.65, -4509.21, 0.000, 0.000, 0.000, 12:39:30.543
27, -4411.41, -5057.48, -4933.00, -4337.06, 0.000, 0.000, 0.000, 12:39:30.557
28, -4454.81, -5121.43, -4958.19, -4400.96, 0.000, 0.000, 0.000, 12:39:30.557
29, -4490.03, -5178.68, -4985.55, -4514.38, 0.000, 0.000, 0.000, 12:39:30.557
30, -4462.34, -5155.81, -4977.09, -4499.26, 0.000, 0.000, 0.000, 12:39:30.557
31, -4431.48, -5075.89, -4951.97, -4345.86, 0.000, 0.000, 0.000, 12:39:30.572
32, -4435.33, -5098.08, -4962.05, -4414.45, 0.000, 0.000, 0.000, 12:39:30.572
33, -4460.97, -5137.71, -4962.08, -4511.22, 0.000, 0.000, 0.000, 12:39:30.587
34, -4458.10, -5128.84, -4973.49, -4480.29, 0.000, 0.000, 0.000, 12:39:30.587
35, -4406.04, -5037.23, -4929.61, -4321.48, 0.000, 0.000, 0.000, 12:39:30.587
36, -4442.05, -5116.08, -4970.38, -4367.10, 0.000, 0.000, 0.000, 12:39:30.587
37, -4450.12, -5149.84, -4970.89, -4515.33, 0.000, 0.000, 0.000, 12:39:30.601
38, -4438.05, -5147.71, -4956.50, -4476.23, 0.000, 0.000, 0.000, 12:39:30.601
39, -4427.67, -5100.88, -4957.66, -4325.90, 0.000, 0.000, 0.000, 12:39:30.617
40, -4440.20, -5123.53, -4963.42, -4392.39, 0.000, 0.000, 0.000, 12:39:30.617
41, -4466.60, -5172.93, -4980.84, -4499.76, 0.000, 0.000, 0.000, 12:39:30.617
42, -4432.07, -5135.71, -4964.15, -4489.59, 0.000, 0.000, 0.000, 12:39:30.617
43, -4414.74, -5094.68, -4953.39, -4333.83, 0.000, 0.000, 0.000, 12:39:30.632
44, -4443.74, -5109.83, -4958.89, -4413.76, 0.000, 0.000, 0.000, 12:39:30.633
45, -4462.35, -5184.33, -4989.00, -4530.64, 0.000, 0.000, 0.000, 12:39:30.646
46, -4455.54, -5154.75, -4978.36, -4490.71, 0.000, 0.000, 0.000, 12:39:30.646
47, -4414.56, -5073.00, -4939.24, -4323.71, 0.000, 0.000, 0.000, 12:39:30.647
48, -4448.91, -5145.63, -4961.22, -4398.89, 0.000, 0.000, 0.000, 12:39:30.647
49, -4477.37, -5194.19, -4991.70, -4508.92, 0.000, 0.000, 0.000, 12:39:30.663
50, -4452.62, -5144.51, -4977.72, -4488.65, 0.000, 0.000, 0.000, 12:39:30.663
51, -4415.97, -5073.09, -4930.35, -4322.40, 0.000, 0.000, 0.000, 12:39:30.677
52, -4445.10, -5138.69, -4965.38, -4428.09, 0.000, 0.000, 0.000, 12:39:30.677
53, -4466.75, -5191.47, -4991.64, -4514.73, 0.000, 0.000, 0.000, 12:39:30.678
54, -4454.31, -5174.22, -4985.15, -4484.30, 0.000, 0.000, 0.000, 12:39:30.678
55, -4402.18, -5063.16, -4935.50, -4325.81, 0.000, 0.000, 0.000, 12:39:30.692
56, -4472.65, -5151.35, -4979.14, -4415.41, 0.000, 0.000, 0.000, 12:39:30.692
57, -4479.67, -5211.60, -4993.02, -4530.05, 0.000, 0.000, 0.000, 12:39:30.707
58, -4469.93, -5168.71, -4982.02, -4508.57, 0.000, 0.000, 0.000, 12:39:30.708
59, -4413.94, -5073.12, -4935.12, -4374.28, 0.000, 0.000, 0.000, 12:39:30.709
60, -4452.58, -5125.62, -4964.58, -4406.39, 0.000, 0.000, 0.000, 12:39:30.709
61, -4494.86, -5217.28, -5009.42, -4572.47, 0.000, 0.000, 0.000, 12:39:30.723
62, -4453.91, -5172.75, -4991.90, -4500.71, 0.000, 0.000, 0.000, 12:39:30.723
63, -4419.26, -5106.60, -4957.87, -4322.16, 0.000, 0.000, 0.000, 12:39:30.737
64, -4444.53, -5124.00, -4956.30, -4393.92, 0.000, 0.000, 0.000, 12:39:30.737
65, -4467.47, -5202.24, -4976.40, -4541.18, 0.000, 0.000, 0.000, 12:39:30.737
66, -4454.96, -5161.74, -4964.90, -4492.73, 0.000, 0.000, 0.000, 12:39:30.737
67, -4435.85, -5111.86, -4962.65, -4335.88, 0.000, 0.000, 0.000, 12:39:30.751
68, -4454.63, -5151.16, -4981.56, -4422.57, 0.000, 0.000, 0.000, 12:39:30.751
69, -4489.88, -5224.90, -5014.49, -4528.73, 0.000, 0.000, 0.000, 12:39:30.767
70, -4471.31, -5182.15, -5001.33, -4511.98, 0.000, 0.000, 0.000, 12:39:30.767
71, -4420.05, -5107.02, -4948.42, -4335.77, 0.000, 0.000, 0.000, 12:39:30.767
72, -4454.66, -5153.65, -4978.71, -4382.17, 0.000, 0.000, 0.000, 12:39:30.767
73, -4474.91, -5190.78, -4993.47, -4546.95, 0.000, 0.000, 0.000, 12:39:30.781
74, -4460.85, -5160.31, -4977.88, -4489.02, 0.000, 0.000, 0.000, 12:39:30.782
75, -4441.85, -5107.58, -4977.77, -4339.09, 0.000, 0.000, 0.000, 12:39:30.796
76, -4462.76, -5151.22, -4985.18, -4415.66, 0.000, 0.000, 0.000, 12:39:30.796
77, -4476.74, -5198.85, -4988.10, -4505.93, 0.000, 0.000, 0.000, 12:39:30.797
78, -4470.20, -5167.12, -4990.36, -4508.79, 0.000, 0.000, 0.000, 12:39:30.797
79, -4428.54, -5100.16, -4969.31, -4353.77, 0.000, 0.000, 0.000, 12:39:30.812
80, -4456.44, -5146.03, -4972.71, -4402.83, 0.000, 0.000, 0.000, 12:39:30.812
81, -4483.54, -5225.89, -4992.41, -4525.90, 0.000, 0.000, 0.000, 12:39:30.827
82, -4473.38, -5189.86, -4983.39, -4498.71, 0.000, 0.000, 0.000, 12:39:30.827
83, -4412.72, -5081.81, -4935.57, -4330.46, 0.000, 0.000, 0.000, 12:39:30.829
84, -4435.46, -5138.20, -4971.49, -4427.09, 0.000, 0.000, 0.000, 12:39:30.829
85, -4470.59, -5171.66, -5002.57, -4518.24, 0.000, 0.000, 0.000, 12:39:30.843
86, -4450.31, -5146.27, -4961.93, -4540.23, 0.000, 0.000, 0.000, 12:39:30.843
87, -4419.26, -5111.21, -4958.72, -4340.77, 0.000, 0.000, 0.000, 12:39:30.857
88, -4446.33, -5146.48, -4986.98, -4407.74, 0.000, 0.000, 0.000, 12:39:30.857
89, -4469.78, -5205.77, -4996.05, -4529.07, 0.000, 0.000, 0.000, 12:39:30.858
90, -4454.43, -5165.82, -4982.26, -4493.81, 0.000, 0.000, 0.000, 12:39:30.858
91, -4437.79, -5119.18, -4953.01, -4353.19, 0.000, 0.000, 0.000, 12:39:30.872
92, -4453.40, -5145.64, -4968.84, -4379.60, 0.000, 0.000, 0.000, 12:39:30.872
93, -4473.23, -5175.44, -4989.19, -4520.89, 0.000, 0.000, 0.000, 12:39:30.887
94, -4455.20, -5151.05, -4974.51, -4506.83, 0.000, 0.000, 0.000, 12:39:30.887
95, -4434.61, -5092.83, -4966.02, -4356.84, 0.000, 0.000, 0.000, 12:39:30.888
96, -4463.79, -5138.10, -4985.20, -4418.36, 0.000, 0.000, 0.000, 12:39:30.888
97, -4473.44, -5207.11, -4981.70, -4521.80, 0.000, 0.000, 0.000, 12:39:30.902
98, -4467.95, -5172.25, -4980.33, -4485.72, 0.000, 0.000, 0.000, 12:39:30.902
99, -4445.76, -5109.48, -4992.75, -4363.33, 0.000, 0.000, 0.000, 12:39:30.916
100, -4462.19, -5160.47, -4991.92, -4416.04, 0.000, 0.000, 0.000, 12:39:30.917
101, -4446.18, -5180.29, -4970.20, -4509.28, 0.000, 0.000, 0.000, 12:39:30.917
102, -4442.01, -5164.10, -4999.31, -4470.86, 0.000, 0.000, 0.000, 12:39:30.917
103, -4409.84, -5097.92, -4957.16, -4324.53, 0.000, 0.000, 0.000, 12:39:30.932
104, -4433.85, -5146.12, -4975.36, -4407.85, 0.000, 0.000, 0.000, 12:39:30.932
105, -4448.17, -5230.91, -4991.86, -4510.99, 0.000, 0.000, 0.000, 12:39:30.946
106, -4433.68, -5173.70, -4990.78, -4488.64, 0.000, 0.000, 0.000, 12:39:30.946
107, -4399.42, -5096.38, -4963.46, -4345.51, 0.000, 0.000, 0.000, 12:39:30.947
108, -4434.65, -5153.08, -4996.38, -4414.85, 0.000, 0.000, 0.000, 12:39:30.947
109, -4457.59, -5229.35, -5011.00, -4528.42, 0.000, 0.000, 0.000, 12:39:30.962
110, -4453.61, -5182.87, -4998.40, -4483.15, 0.000, 0.000, 0.000, 12:39:30.962
111, -4418.25, -5091.69, -4944.71, -4339.01, 0.000, 0.000, 0.000, 12:39:30.977
112, -4443.61, -5164.80, -4972.04, -4423.90, 0.000, 0.000, 0.000, 12:39:30.977
113, -4471.81, -5222.19, -4993.59, -4520.59, 0.000, 0.000, 0.000, 12:39:30.979
114, -4448.90, -5173.58, -4980.14, -4490.53, 0.000, 0.000, 0.000, 12:39:30.979
115, -4431.38, -5092.13, -4963.13, -4326.83, 0.000, 0.000, 0.000, 12:39:30.992
116, -4443.44, -5135.34, -4983.58, -4405.96, 0.000, 0.000, 0.000, 12:39:30.992
117, -4478.52, -5201.75, -5008.26, -4529.41, 0.000, 0.000, 0.000, 12:39:31.008
118, -4468.40, -5166.34, -4990.25, -4500.44, 0.000, 0.000, 0.000, 12:39:31.008
119, -4429.25, -5111.52, -4965.65, -4340.13, 0.000, 0.000, 0.000, 12:39:31.023
120, -4459.14, -5144.84, -4978.45, -4422.93, 0.000, 0.000, 0.000, 12:39:31.023
121, -4479.14, -5184.87, -4982.36, -4536.10, 0.000, 0.000, 0.000, 12:39:31.023
122, -4458.21, -5134.10, -4967.45, -4478.58, 0.000, 0.000, 0.000, 12:39:31.023
123, -4421.82, -5080.87, -4949.16, -4317.18, 0.000, 0.000, 0.000, 12:39:31.037
124, -4450.42, -5145.31, -4971.32, -4410.01, 0.000, 0.000, 0.000, 12:39:31.037
125, -4493.26, -5198.35, -5016.18, -4524.54, 0.000, 0.000, 0.000, 12:39:31.037
126, -4474.74, -5181.45, -4983.44, -4487.45, 0.000, 0.000, 0.000, 12:39:31.037
127, -4425.08, -5088.26, -4957.89, -4337.92, 0.000, 0.000, 0.000, 12:39:31.051
128, -4458.81, -5150.70, -4980.79, -4421.38, 0.000, 0.000, 0.000, 12:39:31.051
129, -4484.57, -5202.50, -4997.04, -4541.53, 0.000, 0.000, 0.000, 12:39:31.067
130, -4476.09, -5153.87, -4981.58, -4501.84, 0.000, 0.000, 0.000, 12:39:31.067
131, -4419.02, -5086.15, -4945.47, -4317.62, 0.000, 0.000, 0.000, 12:39:31.067
132, -4450.31, -5145.89, -4972.43, -4401.34, 0.000, 0.000, 0.000, 12:39:31.067
133, -4470.74, -5178.80, -4991.22, -4524.69, 0.000, 0.000, 0.000, 12:39:31.097
134, -4449.00, -5150.18, -4965.81, -4490.41, 0.000, 0.000, 0.000, 12:39:31.097
135, -4429.79, -5071.65, -4943.21, -4323.79, 0.000, 0.000, 0.000, 12:39:31.097
136, -4453.21, -5142.05, -4981.04, -4416.08, 0.000, 0.000, 0.000, 12:39:31.097
137, -4478.17, -5221.37, -4993.02, -4523.21, 0.000, 0.000, 0.000, 12:39:31.098
138, -4455.78, -5149.54, -4977.64, -4476.41, 0.000, 0.000, 0.000, 12:39:31.098
139, -4416.85, -5051.16, -4937.06, -4321.91, 0.000, 0.000, 0.000, 12:39:31.112
140, -4448.06, -5138.67, -4969.52, -4423.01, 0.000, 0.000, 0.000, 12:39:31.112
141, -4469.94, -5197.64, -4993.42, -4524.60, 0.000, 0.000, 0.000, 12:39:31.127
142, -4462.05, -5155.19, -4988.42, -4485.30, 0.000, 0.000, 0.000, 12:39:31.127
143, -4450.60, -5118.71, -4976.00, -4340.52, 0.000, 0.000, 0.000, 12:39:31.128
144, -4471.63, -5176.82, -4975.09, -4437.44, 0.000, 0.000, 0.000, 12:39:31.128
145, -4479.86, -5185.98, -4988.91, -4540.78, 0.000, 0.000, 0.000, 12:39:31.143
146, -4434.45, -5145.28, -4954.45, -4478.04, 0.000, 0.000, 0.000, 12:39:31.144
147, -4388.44, -5061.39, -4915.83, -4336.93, 0.000, 0.000, 0.000, 12:39:31.157
148, -4427.60, -5123.54, -4955.58, -4435.56, 0.000, 0.000, 0.000, 12:39:31.157
149, -4451.72, -5166.48, -4975.30, -4520.90, 0.000, 0.000, 0.000, 12:39:31.164
150, -4444.69, -5144.32, -4957.25, -4506.43, 0.000, 0.000, 0.000, 12:39:31.164
151, -4411.42, -5068.13, -4913.73, -4352.76, 0.000, 0.000, 0.000, 12:39:31.172
152, -4439.11, -5124.83, -4933.69, -4427.27, 0.000, 0.000, 0.000, 12:39:31.172
153, -4475.76, -5206.17, -4978.76, -4549.87, 0.000, 0.000, 0.000, 12:39:31.187
154, -4459.30, -5170.41, -4976.31, -4500.94, 0.000, 0.000, 0.000, 12:39:31.187
155, -4418.87, -5070.44, -4938.64, -4340.00, 0.000, 0.000, 0.000, 12:39:31.188
156, -4435.79, -5160.95, -4976.11, -4428.88, 0.000, 0.000, 0.000, 12:39:31.188
157, -4482.41, -5192.71, -4985.24, -4542.88, 0.000, 0.000, 0.000, 12:39:31.201
158, -4455.20, -5140.94, -4952.02, -4492.39, 0.000, 0.000, 0.000, 12:39:31.201
159, -4434.01, -5085.59, -4944.46, -4341.93, 0.000, 0.000, 0.000, 12:39:31.217
160, -4468.07, -5127.97, -4967.98, -4435.24, 0.000, 0.000, 0.000, 12:39:31.217
161, -4503.55, -5206.29, -5001.69, -4562.17, 0.000, 0.000, 0.000, 12:39:31.217
162, -4453.18, -5152.74, -4961.25, -4483.27, 0.000, 0.000, 0.000, 12:39:31.217
163, -4428.55, -5092.66, -4967.21, -4330.59, 0.000, 0.000, 0.000, 12:39:31.232
164, -4455.93, -5156.77, -4971.65, -4427.90, 0.000, 0.000, 0.000, 12:39:31.232
165, -4496.94, -5203.14, -4982.96, -4542.82, 0.000, 0.000, 0.000, 12:39:31.263
166, -4459.37, -5137.82, -4953.89, -4482.75, 0.000, 0.000, 0.000, 12:39:31.263
167, -4421.40, -5062.55, -4929.32, -4326.34, 0.000, 0.000, 0.000, 12:39:31.263
168, -4446.79, -5128.04, -4957.08, -4420.76, 0.000, 0.000, 0.000, 12:39:31.263
169, -4485.10, -5198.60, -4992.41, -4546.06, 0.000, 0.000, 0.000, 12:39:31.263
170, -4453.56, -5155.93, -4972.02, -4485.71, 0.000, 0.000, 0.000, 12:39:31.263
171, -4416.22, -5087.93, -4956.61, -4357.89, 0.000, 0.000, 0.000, 12:39:31.264
172, -4472.14, -5154.60, -4980.71, -4442.18, 0.000, 0.000, 0.000, 12:39:31.264
173, -4486.52, -5184.11, -4984.93, -4540.06, 0.000, 0.000, 0.000, 12:39:31.277
174, -4460.29, -5140.09, -4972.79, -4470.83, 0.000, 0.000, 0.000, 12:39:31.277
175, -4406.47, -5086.86, -4948.06, -4320.35, 0.000, 0.000, 0.000, 12:39:31.292
176, -4458.84, -5169.10, -4972.30, -4418.27, 0.000, 0.000, 0.000, 12:39:31.293
177, -4464.12, -5188.19, -4971.66, -4531.16, 0.000, 0.000, 0.000, 12:39:31.307
178, -4463.58, -5156.56, -4967.41, -4511.76, 0.000, 0.000, 0.000, 12:39:31.309
179, -4403.31, -5064.08, -4913.11, -4309.45, 0.000, 0.000, 0.000, 12:39:31.309
180, -4461.22, -5142.21, -4966.09, -4421.93, 0.000, 0.000, 0.000, 12:39:31.309
181, -4480.98, -5194.35, -4997.36, -4538.79, 0.000, 0.000, 0.000, 12:39:31.322
182, -4463.44, -5139.77, -4985.48, -4477.43, 0.000, 0.000, 0.000, 12:39:31.322
183, -4399.58, -5072.82, -4928.69, -4314.67, 0.000, 0.000, 0.000, 12:39:31.336
184, -4444.48, -5159.03, -4983.32, -4428.07, 0.000, 0.000, 0.000, 12:39:31.336
185, -4467.34, -5237.07, -5007.54, -4522.89, 0.000, 0.000, 0.000, 12:39:31.337
186, -4385.65, -5161.40, -4977.22, -4453.60, 0.000, 0.000, 0.000, 12:39:31.337
187, -4316.32, -5091.14, -4927.45, -4330.84, 0.000, 0.000, 0.000, 12:39:31.352
188, -4325.57, -5137.54, -4960.03, -4394.05, 0.000, 0.000, 0.000, 12:39:31.352
189, -4323.89, -5230.82, -4978.00, -4474.54, 0.000, 0.000, 0.000, 12:39:31.366
190, -4275.52, -5201.11, -4971.15, -4445.84, 0.000, 0.000, 0.000, 12:39:31.367
191, -4211.93, -5159.45, -4956.88, -4286.81, 0.000, 0.000, 0.000, 12:39:31.367
192, -4220.80, -5235.38, -4981.30, -4383.54, 0.000, 0.000, 0.000, 12:39:31.367
193, -4241.07, -5253.63, -4991.63, -4494.18, 0.000, 0.000, 0.000, 12:39:31.381
194, -4182.88, -5235.10, -4972.11, -4438.05, 0.000, 0.000, 0.000, 12:39:31.382
195, -4142.79, -5146.14, -4956.05, -4282.76, 0.000, 0.000, 0.000, 12:39:31.396
196, -4169.17, -5243.81, -4976.09, -4392.96, 0.000, 0.000, 0.000, 12:39:31.397
197, -4184.69, -5276.85, -4983.79, -4491.29, 0.000, 0.000, 0.000, 12:39:31.397
198, -4179.10, -5225.59, -4975.34, -4424.19, 0.000, 0.000, 0.000, 12:39:31.397
199, -4175.33, -5194.52, -4972.81, -4312.37, 0.000, 0.000, 0.000, 12:39:31.412
200, -4214.39, -5252.69, -4971.47, -4397.60, 0.000, 0.000, 0.000, 12:39:31.412
0, -4236.14, -5277.95, -4989.80, -4493.44, 0.000, 0.000, 0.000, 12:39:31.412
1, -4241.37, -5215.99, -4979.43, -4448.83, 0.000, 0.000, 0.000, 12:39:31.427
2, -4230.57, -5164.82, -4959.33, -4327.56, 0.000, 0.000, 0.000, 12:39:31.427
3, -4274.56, -5228.26, -4987.70, -4415.23, 0.000, 0.000, 0.000, 12:39:31.442
4, -4328.38, -5277.74, -4997.02, -4541.50, 0.000, 0.000, 0.000, 12:39:31.442
5, -4323.57, -5209.69, -4965.63, -4449.93, 0.000, 0.000, 0.000, 12:39:31.449
6, -4307.39, -5123.10, -4936.76, -4330.39, 0.000, 0.000, 0.000, 12:39:31.449
7, -4359.20, -5199.37, -4978.11, -4403.50, 0.000, 0.000, 0.000, 12:39:31.457
8, -4380.37, -5220.21, -4998.58, -4510.41, 0.000, 0.000, 0.000, 12:39:31.457
9, -4401.31, -5212.12, -4996.07, -4491.67, 0.000, 0.000, 0.000, 12:39:31.472
10, -4370.53, -5145.84, -4965.27, -4348.33, 0.000, 0.000, 0.000, 12:39:31.472
11, -4418.08, -5173.73, -4975.90, -4433.74, 0.000, 0.000, 0.000, 12:39:31.472
12, -4462.62, -5242.19, -4998.13, -4539.83, 0.000, 0.000, 0.000, 12:39:31.472
13, -4445.30, -5186.47, -4981.09, -4462.96, 0.000, 0.000, 0.000, 12:39:31.487
14, -4422.63, -5113.29, -4954.81, -4331.95, 0.000, 0.000, 0.000, 12:39:31.487
15, -4470.91, -5174.09, -4991.09, -4426.05, 0.000, 0.000, 0.000, 12:39:31.501
16, -4499.66, -5235.64, -5014.97, -4549.31, 0.000, 0.000, 0.000, 12:39:31.501
17, -4490.51, -5177.83, -4982.49, -4510.87, 0.000, 0.000, 0.000, 12:39:31.502
18, -4467.52, -5097.18, -4945.40, -4345.94, 0.000, 0.000, 0.000, 12:39:31.502
19, -4501.93, -5155.50, -4972.66, -4412.08, 0.000, 0.000, 0.000, 12:39:31.516
20, -4553.30, -5211.52, -5019.54, -4528.45, 0.000, 0.000, 0.000, 12:39:31.516
21, -4551.98, -5155.05, -4994.43, -4501.83, 0.000, 0.000, 0.000, 12:39:31.532
22, -4528.87, -5084.82, -4974.54, -4347.18, 0.000, 0.000, 0.000, 12:39:31.532
23, -4545.49, -5130.98, -4978.19, -4439.83, 0.000, 0.000, 0.000, 12:39:31.533
24, -4570.08, -5174.89, -4982.17, -4548.31, 0.000, 0.000, 0.000, 12:39:31.533
25, -4565.30, -5135.87, -4981.24, -4509.61, 0.000, 0.000, 0.000, 12:39:31.547
26, -4544.63, -5069.93, -4962.14, -4342.84, 0.000, 0.000, 0.000, 12:39:31.547
27, -4558.59, -5115.30, -4980.31, -4424.99, 0.000, 0.000, 0.000, 12:39:31.562
28, -4564.44, -5174.39, -4996.72, -4540.32, 0.000, 0.000, 0.000, 12:39:31.562
29, -4557.37, -5124.30, -4973.47, -4491.70, 0.000, 0.000, 0.000, 12:39:31.562
30, -4533.14, -5070.19, -4948.25, -4367.01, 0.000, 0.000, 0.000, 12:39:31.562
31, -4540.93, -5106.62, -4961.82, -4441.37, 0.000, 0.000, 0.000, 12:39:31.576
32, -4556.29, -5169.30, -4998.22, -4529.13, 0.000, 0.000, 0.000, 12:39:31.578
33, -4542.90, -5102.89, -4983.93, -4478.02, 0.000, 0.000, 0.000, 12:39:31.592
34, -4524.73, -5077.60, -4954.53, -4329.49, 0.000, 0.000, 0.000, 12:39:31.592
35, -4542.84, -5118.03, -4955.63, -4422.61, 0.000, 0.000, 0.000, 12:39:31.593
36, -4575.87, -5173.45, -4995.78, -4543.68, 0.000, 0.000, 0.000, 12:39:31.593
37, -4548.00, -5103.88, -4980.68, -4503.31, 0.000, 0.000, 0.000, 12:39:31.607
38, -4521.61, -5077.77, -4974.24, -4330.69, 0.000, 0.000, 0.000, 12:39:31.607
39, -4538.60, -5129.80, -4981.32, -4433.85, 0.000, 0.000, 0.000, 12:39:31.622
40, -4555.74, -5175.32, -4991.26, -4553.03, 0.000, 0.000, 0.000, 12:39:31.622
41, -4532.43, -5128.69, -4981.39, -4495.21, 0.000, 0.000, 0.000, 12:39:31.623
42, -4511.73, -5089.81, -4972.38, -4365.17, 0.000, 0.000, 0.000, 12:39:31.623
43, -4531.94, -5145.35, -5000.95, -4429.33, 0.000, 0.000, 0.000, 12:39:31.637
44, -4541.65, -5185.17, -5010.83, -4539.25, 0.000, 0.000, 0.000, 12:39:31.637
45, -4532.41, -5154.57, -4991.97, -4480.67, 0.000, 0.000, 0.000, 12:39:31.652
46, -4506.25, -5099.25, -4966.86, -4355.66, 0.000, 0.000, 0.000, 12:39:31.652
47, -4510.02, -5119.50, -4972.85, -4443.09, 0.000, 0.000, 0.000, 12:39:31.652
48, -4536.87, -5178.50, -5001.29, -4558.69, 0.000, 0.000, 0.000, 12:39:31.652
49, -4513.69, -5115.14, -5004.44, -4484.32, 0.000, 0.000, 0.000, 12:39:31.667
50, -4508.30, -5103.19, -4956.40, -4366.62, 0.000, 0.000, 0.000, 12:39:31.667
51, -4505.80, -5149.03, -4970.05, -4430.38, 0.000, 0.000, 0.000, 12:39:31.682
52, -4513.16, -5166.54, -5005.12, -4547.63, 0.000, 0.000, 0.000, 12:39:31.682
53, -4492.58, -5160.53, -4983.23, -4474.52, 0.000, 0.000, 0.000, 12:39:31.682
54, -4474.08, -5079.63, -4939.22, -4347.68, 0.000, 0.000, 0.000, 12:39:31.683
55, -4491.79, -5114.10, -4971.79, -4426.24, 0.000, 0.000, 0.000, 12:39:31.697
56, -4520.13, -5180.52, -4996.30, -4546.88, 0.000, 0.000, 0.000, 12:39:31.697
57, -4530.58, -5180.49, -4991.69, -4499.69, 0.000, 0.000, 0.000, 12:39:31.712
58, -4487.61, -5098.48, -4962.93, -4341.54, 0.000, 0.000, 0.000, 12:39:31.712
59, -4448.79, -5103.43, -4955.23, -4412.76, 0.000, 0.000, 0.000, 12:39:31.712
60, -4471.04, -5146.03, -4966.86, -4544.21, 0.000, 0.000, 0.000, 12:39:31.712
61, -4454.13, -5123.77, -4946.23, -4493.32, 0.000, 0.000, 0.000, 12:39:31.727
62, -4443.44, -5068.19, -4912.72, -4373.80, 0.000, 0.000, 0.000, 12:39:31.727
63, -4441.24, -5095.27, -4904.69, -4461.41, 0.000, 0.000, 0.000, 12:39:31.742
64, -4464.36, -5158.64, -4946.28, -4566.88, 0.000, 0.000, 0.000, 12:39:31.742
65, -4459.37, -5133.33, -4938.67, -4529.47, 0.000, 0.000, 0.000, 12:39:31.743
66, -4448.55, -5092.43, -4955.50, -4361.09, 0.000, 0.000, 0.000, 12:39:31.743
67, -4465.08, -5145.84, -4963.56, -4444.07, 0.000, 0.000, 0.000, 12:39:31.757
68, -4472.63, -5172.73, -4971.94, -4573.03, 0.000, 0.000, 0.000, 12:39:31.757
69, -4461.62, -5132.64, -4944.78, -4514.87, 0.000, 0.000, 0.000, 12:39:31.772
70, -4448.15, -5084.89, -4930.65, -4382.37, 0.000, 0.000, 0.000, 12:39:31.772
71, -4472.40, -5137.90, -4941.23, -4430.89, 0.000, 0.000, 0.000, 12:39:31.779
72, -4492.38, -5176.34, -4969.15, -4568.51, 0.000, 0.000, 0.000, 12:39:31.779
73, -4464.68, -5125.52, -4939.17, -4473.00, 0.000, 0.000, 0.000, 12:39:31.787
74, -4439.20, -5061.14, -4936.62, -4331.89, 0.000, 0.000, 0.000, 12:39:31.787
75, -4467.99, -5124.15, -4943.90, -4428.21, 0.000, 0.000, 0.000, 12:39:31.802
76, -4484.24, -5164.01, -4969.35, -4556.19, 0.000, 0.000, 0.000, 12:39:31.802
77, -4439.05, -5105.61, -4938.17, -4449.24, 0.000, 0.000, 0.000, 12:39:31.802
78, -4449.79, -5081.82, -4935.43, -4322.42, 0.000, 0.000, 0.000, 12:39:31.802
79, -4470.25, -5155.33, -4974.76, -4419.95, 0.000, 0.000, 0.000, 12:39:31.817
80, -4463.34, -5153.09, -4958.24, -4532.73, 0.000, 0.000, 0.000, 12:39:31.817
81, -4455.16, -5145.54, -4960.86, -4481.48, 0.000, 0.000, 0.000, 12:39:31.831
82, -4434.19, -5086.06, -4947.48, -4347.84, 0.000, 0.000, 0.000, 12:39:31.832
83, -4473.84, -5138.81, -4966.56, -4437.51, 0.000, 0.000, 0.000, 12:39:31.832
84, -4468.76, -5167.85, -4976.86, -4524.96, 0.000, 0.000, 0.000, 12:39:31.832
85, -4447.13, -5131.22, -4968.46, -4478.41, 0.000, 0.000, 0.000, 12:39:31.847
86, -4456.17, -5098.97, -4953.33, -4364.35, 0.000, 0.000, 0.000, 12:39:31.847
87, -4458.95, -5148.15, -4970.08, -4430.22, 0.000, 0.000, 0.000, 12:39:31.863
88, -4467.74, -5153.08, -4971.07, -4522.93, 0.000, 0.000, 0.000, 12:39:31.863
89, -4458.80, -5145.79, -4965.60, -4473.70, 0.000, 0.000, 0.000, 12:39:31.863
90, -4448.27, -5116.42, -4971.93, -4349.28, 0.000, 0.000, 0.000, 12:39:31.863
91, -4464.60, -5139.56, -4963.29, -4425.48, 0.000, 0.000, 0.000, 12:39:31.877
92, -4470.25, -5181.68, -4976.52, -4525.60, 0.000, 0.000, 0.000, 12:39:31.877
93, -4474.84, -5126.66, -4968.05, -4472.16, 0.000, 0.000, 0.000, 12:39:31.892
94, -4459.04, -5094.07, -4960.70, -4356.81, 0.000, 0.000, 0.000, 12:39:31.892
95, -4466.68, -5140.19, -4974.58, -4445.40, 0.000, 0.000, 0.000, 12:39:31.893
96, -4474.93, -5175.01, -5003.12, -4498.02, 0.000, 0.000, 0.000, 12:39:31.893
97, -4458.63, -5122.95, -4962.49, -4453.91, 0.000, 0.000, 0.000, 12:39:31.907
98, -4466.11, -5112.78, -4971.10, -4357.75, 0.000, 0.000, 0.000, 12:39:31.907
99, -4479.04, -5165.42, -5010.55, -4446.14, 0.000, 0.000, 0.000, 12:39:31.921
100, -4484.20, -5195.09, -4977.87, -4512.35, 0.000, 0.000, 0.000, 12:39:31.921
101, -4480.98, -5172.09, -4973.96, -4497.98, 0.000, 0.000, 0.000, 12:39:31.923
102, -4471.60, -5113.64, -4985.00, -4350.42, 0.000, 0.000, 0.000, 12:39:31.923
103, -4444.10, -5118.18, -4971.36, -4385.08, 0.000, 0.000, 0.000, 12:39:31.936
104, -4472.35, -5189.36, -5008.43, -4488.74, 0.000, 0.000, 0.000, 12:39:31.936
105, -4470.34, -5180.00, -5057.10, -4438.03, 0.000, 0.000, 0.000, 12:39:31.952
106, -4461.42, -5139.67, -5032.32, -4342.27, 0.000, 0.000, 0.000, 12:39:31.952
107, -4462.29, -5158.26, -5011.27, -4384.60, 0.000, 0.000, 0.000, 12:39:31.953
108, -4474.42, -5198.95, -5052.85, -4455.64, 0.000, 0.000, 0.000, 12:39:31.953
109, -4468.55, -5170.51, -5027.67, -4430.05, 0.000, 0.000, 0.000, 12:39:31.967
110, -4481.14, -5171.26, -5031.70, -4325.14, 0.000, 0.000, 0.000, 12:39:31.967
111, -4473.10, -5171.15, -5029.41, -4389.08, 0.000, 0.000, 0.000, 12:39:31.983
112, -4476.58, -5201.93, -5036.35, -4493.44, 0.000, 0.000, 0.000, 12:39:31.983
113, -4473.85, -5162.01, -5006.42, -4416.26, 0.000, 0.000, 0.000, 12:39:31.983
114, -4481.02, -5129.28, -5015.61, -4335.92, 0.000, 0.000, 0.000, 12:39:31.983
115, -4478.03, -5188.22, -5037.75, -4393.20, 0.000, 0.000, 0.000, 12:39:31.997
116, -4493.98, -5219.85, -5020.09, -4494.90, 0.000, 0.000, 0.000, 12:39:31.997
117, -4466.38, -5147.35, -5012.07, -4460.09, 0.000, 0.000, 0.000, 12:39:32.012
118, -4464.37, -5101.83, -4976.92, -4348.49, 0.000, 0.000, 0.000, 12:39:32.012
119, -4471.56, -5145.35, -4980.94, -4411.26, 0.000, 0.000, 0.000, 12:39:32.012
120, -4483.67, -5196.54, -5030.20, -4484.65, 0.000, 0.000, 0.000, 12:39:32.012
121, -4471.13, -5167.39, -4993.79, -4446.66, 0.000, 0.000, 0.000, 12:39:32.026
122, -4470.51, -5117.26, -4983.72, -4373.02, 0.000, 0.000, 0.000, 12:39:32.027
123, -4466.97, -5125.28, -4969.55, -4408.19, 0.000, 0.000, 0.000, 12:39:32.042
124, -4475.87, -5189.03, -4993.30, -4513.18, 0.000, 0.000, 0.000, 12:39:32.042
125, -4473.66, -5151.03, -5018.33, -4441.32, 0.000, 0.000, 0.000, 12:39:32.043
126, -4478.21, -5141.39, -5012.82, -4376.12, 0.000, 0.000, 0.000, 12:39:32.043
127, -4461.87, -5140.84, -4986.52, -4414.80, 0.000, 0.000, 0.000, 12:39:32.057
128, -4474.75, -5181.11, -4971.77, -4516.49, 0.000, 0.000, 0.000, 12:39:32.057
129, -4463.80, -5145.36, -4965.30, -4451.99, 0.000, 0.000, 0.000, 12:39:32.072
130, -4464.78, -5098.76, -4992.50, -4346.19, 0.000, 0.000, 0.000, 12:39:32.072
131, -4463.51, -5153.30, -4988.33, -4433.45, 0.000, 0.000, 0.000, 12:39:32.073
132, -4482.59, -5196.68, -4991.69, -4516.71, 0.000, 0.000, 0.000, 12:39:32.073
133, -4463.01, -5135.80, -4977.10, -4462.09, 0.000, 0.000, 0.000, 12:39:32.086
134, -4456.02, -5116.43, -4952.71, -4357.22, 0.000, 0.000, 0.000, 12:39:32.086
135, -4455.74, -5141.99, -4972.53, -4426.59, 0.000, 0.000, 0.000, 12:39:32.102
136, -4460.85, -5174.58, -4976.19, -4504.47, 0.000, 0.000, 0.000, 12:39:32.102
137, -4455.86, -5152.47, -4974.60, -4461.71, 0.000, 0.000, 0.000, 12:39:32.102
138, -4433.13, -5099.37, -4979.36, -4360.94, 0.000, 0.000, 0.000, 12:39:32.102
139, -4450.59, -5131.00, -4972.81, -4412.96, 0.000, 0.000, 0.000, 12:39:32.117
140, -4455.03, -5180.07, -4968.66, -4517.92, 0.000, 0.000, 0.000, 12:39:32.117
141, -4455.74, -5143.72, -4978.03, -4454.13, 0.000, 0.000, 0.000, 12:39:32.131
142, -4445.01, -5115.02, -4969.63, -4364.45, 0.000, 0.000, 0.000, 12:39:32.132
143, -4439.79, -5120.32, -4971.59, -4414.63, 0.000, 0.000, 0.000, 12:39:32.132
144, -4445.50, -5170.40, -4984.52, -4517.77, 0.000, 0.000, 0.000, 12:39:32.132
145, -4453.39, -5155.18, -5006.76, -4439.49, 0.000, 0.000, 0.000, 12:39:32.147
146, -4443.70, -5111.87, -4957.04, -4379.22, 0.000, 0.000, 0.000, 12:39:32.147
147, -4450.17, -5140.89, -4952.95, -4417.82, 0.000, 0.000, 0.000, 12:39:32.162
148, -4453.74, -5160.38, -4962.33, -4510.27, 0.000, 0.000, 0.000, 12:39:32.162
149, -4459.64, -5140.11, -4992.54, -4457.88, 0.000, 0.000, 0.000, 12:39:32.162
150, -4441.47, -5099.44, -4970.48, -4389.41, 0.000, 0.000, 0.000, 12:39:32.163
151, -4459.11, -5164.03, -5002.08, -4424.46, 0.000, 0.000, 0.000, 12:39:32.177
152, -4457.90, -5196.50, -4997.74, -4524.78, 0.000, 0.000, 0.000, 12:39:32.177
153, -4454.99, -5158.15, -4980.40, -4450.10, 0.000, 0.000, 0.000, 12:39:32.192
154, -4463.19, -5108.69, -4962.01, -4401.04, 0.000, 0.000, 0.000, 12:39:32.192
155, -4464.38, -5146.52, -4988.02, -4441.73, 0.000, 0.000, 0.000, 12:39:32.199
156, -4466.74, -5205.72, -4977.64, -4509.32, 0.000, 0.000, 0.000, 12:39:32.199
157, -4442.54, -5129.65, -4986.81, -4461.01, 0.000, 0.000, 0.000, 12:39:32.207
158, -4424.14, -5131.40, -4965.00, -4371.90, 0.000, 0.000, 0.000, 12:39:32.207
159, -4458.75, -5156.58, -4972.11, -4429.10, 0.000, 0.000, 0.000, 12:39:32.222
160, -4463.58, -5166.16, -4986.26, -4534.51, 0.000, 0.000, 0.000, 12:39:32.222
161, -4458.39, -5137.67, -4980.82, -4456.72, 0.000, 0.000, 0.000, 12:39:32.222
162, -4466.30, -5131.46, -4994.55, -4386.73, 0.000, 0.000, 0.000, 12:39:32.222
163, -4450.93, -5138.32, -4990.47, -4437.11, 0.000, 0.000, 0.000, 12:39:32.236
164, -4473.39, -5188.36, -4985.05, -4546.61, 0.000, 0.000, 0.000, 12:39:32.236
165, -4460.25, -5153.91, -4968.50, -4472.79, 0.000, 0.000, 0.000, 12:39:32.251
166, -4460.27, -5111.84, -4975.07, -4360.09, 0.000, 0.000, 0.000, 12:39:32.252
167, -4459.64, -5157.94, -4981.83, -4448.89, 0.000, 0.000, 0.000, 12:39:32.252
168, -4466.87, -5183.22, -4982.17, -4519.84, 0.000, 0.000, 0.000, 12:39:32.252
169, -4456.38, -5136.07, -4978.67, -4448.15, 0.000, 0.000, 0.000, 12:39:32.267
170, -4457.35, -5109.47, -4984.62, -4365.70, 0.000, 0.000, 0.000, 12:39:32.267
171, -4472.81, -5165.31, -4986.31, -4437.06, 0.000, 0.000, 0.000, 12:39:32.281
172, -4458.95, -5164.18, -4979.22, -4512.74, 0.000, 0.000, 0.000, 12:39:32.281
173, -4449.99, -5157.50, -4972.99, -4457.31, 0.000, 0.000, 0.000, 12:39:32.282
174, -4447.24, -5116.14, -4978.10, -4372.13, 0.000, 0.000, 0.000, 12:39:32.282
175, -4450.97, -5140.70, -4972.10, -4437.57, 0.000, 0.000, 0.000, 12:39:32.297
176, -4467.99, -5188.68, -4985.53, -4532.29, 0.000, 0.000, 0.000, 12:39:32.297
177, -4450.31, -5134.85, -4970.86, -4473.49, 0.000, 0.000, 0.000, 12:39:32.312
178, -4450.65, -5091.59, -4955.43, -4359.70, 0.000, 0.000, 0.000, 12:39:32.312
179, -4452.46, -5132.76, -4971.77, -4423.12, 0.000, 0.000, 0.000, 12:39:32.312
180, -4461.58, -5180.11, -4988.69, -4527.30, 0.000, 0.000, 0.000, 12:39:32.312
181, -4454.93, -5143.60, -4971.52, -4478.10, 0.000, 0.000, 0.000, 12:39:32.327
182, -4441.17, -5112.86, -4972.92, -4355.04, 0.000, 0.000, 0.000, 12:39:32.327
183, -4458.48, -5149.83, -4977.34, -4442.72, 0.000, 0.000, 0.000, 12:39:32.342
184, -4472.33, -5170.07, -4974.51, -4539.05, 0.000, 0.000, 0.000, 12:39:32.342
185, -4463.19, -5150.66, -4975.51, -4479.24, 0.000, 0.000, 0.000, 12:39:32.343
186, -4451.86, -5119.05, -4988.78, -4351.73, 0.000, 0.000, 0.000, 12:39:32.343
187, -4449.15, -5155.10, -4976.77, -4426.56, 0.000, 0.000, 0.000, 12:39:32.357
188, -4454.72, -5164.82, -4981.10, -4532.10, 0.000, 0.000, 0.000, 12:39:32.357
189, -4448.60, -5146.24, -4967.25, -4454.13, 0.000, 0.000, 0.000, 12:39:32.372
190, -4455.71, -5137.93, -4980.01, -4373.68, 0.000, 0.000, 0.000, 12:39:32.372
191, -4453.43, -5157.82, -4989.27, -4441.83, 0.000, 0.000, 0.000, 12:39:32.373
192, -4464.90, -5183.36, -4985.56, -4535.47, 0.000, 0.000, 0.000, 12:39:32.373
193, -4461.69, -5159.50, -4999.20, -4485.34, 0.000, 0.000, 0.000, 12:39:32.386
194, -4456.97, -5113.20, -4958.64, -4372.39, 0.000, 0.000, 0.000, 12:39:32.386
195, -4455.78, -5134.93, -4960.12, -4432.02, 0.000, 0.000, 0.000, 12:39:32.402
196, -4473.42, -5204.39, -4987.71, -4533.62, 0.000, 0.000, 0.000, 12:39:32.402
197, -4439.07, -5145.41, -4969.08, -4475.38, 0.000, 0.000, 0.000, 12:39:32.403
198, -4448.39, -5093.80, -4977.36, -4354.52, 0.000, 0.000, 0.000, 12:39:32.403
199, -4447.71, -5128.98, -4973.00, -4449.56, 0.000, 0.000, 0.000, 12:39:32.417
200, -4475.15, -5203.98, -4976.17, -4544.52, 0.000, 0.000, 0.000, 12:39:32.417
0, -4433.02, -5126.25, -4939.46, -4466.86, 0.000, 0.000, 0.000, 12:39:32.417
1, -4441.03, -5124.05, -4957.43, -4365.06, 0.000, 0.000, 0.000, 12:39:32.431
2, -4453.73, -5155.27, -4975.54, -4426.29, 0.000, 0.000, 0.000, 12:39:32.431
3, -4455.81, -5183.51, -4981.77, -4535.40, 0.000, 0.000, 0.000, 12:39:32.463
4, -4431.91, -5137.02, -4963.20, -4453.52, 0.000, 0.000, 0.000, 12:39:32.463
5, -4429.52, -5122.15, -4971.47, -4375.72, 0.000, 0.000, 0.000, 12:39:32.463
6, -4445.65, -5151.99, -4977.28, -4433.21, 0.000, 0.000, 0.000, 12:39:32.463
7, -4450.95, -5182.04, -4981.93, -4529.61, 0.000, 0.000, 0.000, 12:39:32.463
8, -4449.88, -5122.93, -4969.15, -4463.98, 0.000, 0.000, 0.000, 12:39:32.463
9, -4445.59, -5111.01, -4964.98, -4374.96, 0.000, 0.000, 0.000, 12:39:32.464
10, -4456.08, -5174.67, -4981.04, -4421.49, 0.000, 0.000, 0.000, 12:39:32.464
11, -4459.70, -5190.59, -4972.14, -4525.01, 0.000, 0.000, 0.000, 12:39:32.477
12, -4435.44, -5134.17, -4953.84, -4463.77, 0.000, 0.000, 0.000, 12:39:32.478
13, -4441.68, -5108.24, -4961.08, -4359.05, 0.000, 0.000, 0.000, 12:39:32.492
14, -4477.96, -5169.56, -5000.93, -4447.23, 0.000, 0.000, 0.000, 12:39:32.492
15, -4476.89, -5215.75, -4987.49, -4555.53, 0.000, 0.000, 0.000, 12:39:32.507
16, -4480.31, -5178.58, -4992.36, -4493.87, 0.000, 0.000, 0.000, 12:39:32.507
17, -4457.08, -5149.18, -4991.28, -4392.56, 0.000, 0.000, 0.000, 12:39:32.507
18, -4442.81, -5146.67, -4965.80, -4432.15, 0.000, 0.000, 0.000, 12:39:32.508
19, -4454.06, -5167.46, -4967.87, -4526.00, 0.000, 0.000, 0.000, 12:39:32.522
20, -4425.48, -5121.85, -4951.28, -4444.07, 0.000, 0.000, 0.000, 12:39:32.522
21, -4422.04, -5081.06, -4964.46, -4348.40, 0.000, 0.000, 0.000, 12:39:32.536
22, -4431.34, -5101.16, -4941.16, -4417.97, 0.000, 0.000, 0.000, 12:39:32.536
23, -4446.01, -5175.76, -4967.12, -4508.63, 0.000, 0.000, 0.000, 12:39:32.537
24, -4428.57, -5071.95, -4948.76, -4410.82, 0.000, 0.000, 0.000, 12:39:32.537
25, -4433.66, -5075.56, -4927.34, -4347.04, 0.000, 0.000, 0.000, 12:39:32.552
26, -4451.11, -5165.73, -4986.03, -4408.57, 0.000, 0.000, 0.000, 12:39:32.552
27, -4427.71, -5112.40, -4968.90, -4492.82, 0.000, 0.000, 0.000, 12:39:32.566
28, -4422.54, -5090.71, -4934.79, -4432.33, 0.000, 0.000, 0.000, 12:39:32.566
29, -4406.81, -4996.26, -4901.33, -4345.57, 0.000, 0.000, 0.000, 12:39:32.567
30, -4424.11, -5099.44, -4914.76, -4402.56, 0.000, 0.000, 0.000, 12:39:32.567
31, -4436.69, -5129.12, -4935.24, -4478.67, 0.000, 0.000, 0.000, 12:39:32.581
32, -4435.32, -5099.73, -4956.71, -4435.05, 0.000, 0.000, 0.000, 12:39:32.581
33, -4438.81, -5112.70, -4964.54, -4356.65, 0.000, 0.000, 0.000, 12:39:32.596
34, -4443.42, -5117.43, -4959.28, -4437.21, 0.000, 0.000, 0.000, 12:39:32.596
35, -4458.34, -5182.55, -4959.71, -4512.02, 0.000, 0.000, 0.000, 12:39:32.597
36, -4434.39, -5089.62, -4920.18, -4433.87, 0.000, 0.000, 0.000, 12:39:32.597
37, -4436.32, -5101.90, -4951.50, -4359.59, 0.000, 0.000, 0.000, 12:39:32.612
38, -4442.47, -5121.92, -4973.76, -4398.61, 0.000, 0.000, 0.000, 12:39:32.612
39, -4471.93, -5197.26, -4975.23, -4488.43, 0.000, 0.000, 0.000, 12:39:32.627
40, -4426.83, -5103.75, -4949.49, -4431.00, 0.000, 0.000, 0.000, 12:39:32.627
41, -4451.07, -5132.01, -4936.65, -4380.20, 0.000, 0.000, 0.000, 12:39:32.628
42, -4461.75, -5156.21, -5002.22, -4430.75, 0.000, 0.000, 0.000, 12:39:32.628
43, -4461.83, -5179.42, -4984.04, -4502.73, 0.000, 0.000, 0.000, 12:39:32.642
44, -4460.35, -5151.97, -4939.13, -4457.10, 0.000, 0.000, 0.000, 12:39:32.642
45, -4451.48, -5141.60, -4984.38, -4375.08, 0.000, 0.000, 0.000, 12:39:32.657
46, -4449.52, -5153.35, -5001.81, -4449.55, 0.000, 0.000, 0.000, 12:39:32.658
47, -4469.89, -5167.34, -5001.72, -4516.54, 0.000, 0.000, 0.000, 12:39:32.658
48, -4452.65, -5126.64, -4918.75, -4443.86, 0.000, 0.000, 0.000, 12:39:32.658
49, -4461.89, -5100.75, -4953.63, -4382.33, 0.000, 0.000, 0.000, 12:39:32.678
50, -4457.67, -5159.58, -5001.86, -4450.40, 0.000, 0.000, 0.000, 12:39:32.678
51, -4442.04, -5160.01, -4986.23, -4501.50, 0.000, 0.000, 0.000, 12:39:32.686
52, -4435.04, -5125.97, -4955.85, -4446.96, 0.000, 0.000, 0.000, 12:39:32.686
53, -4442.76, -5121.93, -4951.59, -4376.97, 0.000, 0.000, 0.000, 12:39:32.687
54, -4459.08, -5161.31, -4962.90, -4440.96, 0.000, 0.000, 0.000, 12:39:32.687
55, -4456.99, -5162.84, -4992.12, -4504.46, 0.000, 0.000, 0.000, 12:39:32.702
56, -4435.94, -5118.58, -4960.04, -4463.17, 0.000, 0.000, 0.000, 12:39:32.702
57, -4444.87, -5110.32, -4975.55, -4368.73, 0.000, 0.000, 0.000, 12:39:32.716
58, -4448.85, -5129.70, -4986.45, -4427.60, 0.000, 0.000, 0.000, 12:39:32.716
59, -4448.50, -5150.35, -4984.15, -4502.87, 0.000, 0.000, 0.000, 12:39:32.717
60, -4451.02, -5155.63, -4992.32, -4462.67, 0.000, 0.000, 0.000, 12:39:32.717
61, -4456.68, -5121.09, -4978.94, -4396.93, 0.000, 0.000, 0.000, 12:39:32.731
62, -4455.97, -5179.34, -5002.29, -4433.39, 0.000, 0.000, 0.000, 12:39:32.732
63, -4455.14, -5160.15, -4972.08, -4520.65, 0.000, 0.000, 0.000, 12:39:32.746
64, -4435.98, -5122.69, -4952.19, -4448.89, 0.000, 0.000, 0.000, 12:39:32.746
65, -4452.64, -5112.76, -4979.71, -4387.15, 0.000, 0.000, 0.000, 12:39:32.747
66, -4452.33, -5144.02, -4998.48, -4394.14, 0.000, 0.000, 0.000, 12:39:32.747
67, -4463.58, -5205.50, -4997.35, -4529.98, 0.000, 0.000, 0.000, 12:39:32.762
68, -4456.00, -5141.49, -4979.80, -4460.28, 0.000, 0.000, 0.000, 12:39:32.762
69, -4452.35, -5149.21, -5002.99, -4373.08, 0.000, 0.000, 0.000, 12:39:32.777
70, -4466.71, -5195.87, -4995.63, -4432.78, 0.000, 0.000, 0.000, 12:39:32.777
71, -4461.47, -5170.40, -4981.49, -4513.17, 0.000, 0.000, 0.000, 12:39:32.778
72, -4450.51, -5130.68, -4999.86, -4485.38, 0.000, 0.000, 0.000, 12:39:32.778
73, -4457.31, -5132.98, -4995.28, -4385.29, 0.000, 0.000, 0.000, 12:39:32.792
74, -4452.50, -5157.38, -4979.01, -4429.58, 0.000, 0.000, 0.000, 12:39:32.792
75, -4462.28, -5198.88, -4985.64, -4524.46, 0.000, 0.000, 0.000, 12:39:32.807
76, -4433.90, -5158.54, -4965.66, -4448.80, 0.000, 0.000, 0.000, 12:39:32.807
77, -4445.70, -5126.06, -5008.03, -4382.09, 0.000, 0.000, 0.000, 12:39:32.807
78, -4459.68, -5153.85, -4997.88, -4453.75, 0.000, 0.000, 0.000, 12:39:32.807
79, -4455.27, -5190.39, -4997.46, -4528.06, 0.000, 0.000, 0.000, 12:39:32.823
80, -4449.08, -5144.27, -4978.05, -4477.19, 0.000, 0.000, 0.000, 12:39:32.824
81, -4477.47, -5156.62, -4986.36, -4404.85, 0.000, 0.000, 0.000, 12:39:32.836
82, -4445.29, -5160.69, -4990.36, -4430.78, 0.000, 0.000, 0.000, 12:39:32.836
83, -4423.85, -5151.04, -4958.64, -4497.81, 0.000, 0.000, 0.000, 12:39:32.837
84, -4426.30, -5144.27, -4964.28, -4463.72, 0.000, 0.000, 0.000, 12:39:32.837
85, -4444.90, -5115.50, -4951.87, -4399.85, 0.000, 0.000, 0.000, 12:39:32.852
86, -4438.29, -5120.03, -4948.69, -4454.41, 0.000, 0.000, 0.000, 12:39:32.852
87, -4438.69, -5154.75, -4936.90, -4505.05, 0.000, 0.000, 0.000, 12:39:32.867
88, -4431.15, -5159.90, -4969.28, -4468.63, 0.000, 0.000, 0.000, 12:39:32.867
89, -4435.85, -5096.42, -4942.81, -4384.20, 0.000, 0.000, 0.000, 12:39:32.867
90, -4461.33, -5160.78, -4965.62, -4480.26, 0.000, 0.000, 0.000, 12:39:32.867
91, -4462.91, -5197.19, -4969.11, -4535.70, 0.000, 0.000, 0.000, 12:39:32.882
92, -4448.10, -5128.78, -4963.64, -4459.66, 0.000, 0.000, 0.000, 12:39:32.882
93, -4451.92, -5130.24, -4964.98, -4379.26, 0.000, 0.000, 0.000, 12:39:32.896
94, -4459.32, -5160.40, -4978.77, -4423.50, 0.000, 0.000, 0.000, 12:39:32.896
95, -4455.41, -5191.13, -4991.08, -4538.00, 0.000, 0.000, 0.000, 12:39:32.897
96, -4427.60, -5136.23, -4947.84, -4451.42, 0.000, 0.000, 0.000, 12:39:32.897
97, -4441.39, -5115.42, -4959.59, -4377.84, 0.000, 0.000, 0.000, 12:39:32.912
98, -4455.05, -5184.12, -4980.18, -4427.56, 0.000, 0.000, 0.000, 12:39:32.912
99, -4446.28, -5186.65, -4968.66, -4510.98, 0.000, 0.000, 0.000, 12:39:32.927
100, -4435.98, -5139.59, -4981.80, -4484.82, 0.000, 0.000, 0.000, 12:39:32.927
