%OpenBCI Raw EEG Data
%
%Sample Rate = 200.0 Hz
%First Column = SampleIndex
%Last Column = Timestamp 
%Other Columns = EEG data in microvolts followed by Accel Data (in G) interleaved with Aux Data
0, -3607.58, -3593.41, -3456.37, -3057.51, 0.000, 0.000, 0.000, 14:06:15.780
1, -3663.91, -3569.90, -3498.21, -3065.33, 0.000, 0.000, 0.000, 14:06:15.781
2, -3961.68, -3623.69, -3640.35, -3133.96, 0.000, 0.000, 0.000, 14:06:15.781
3, -3878.52, -3629.89, -3571.63, -3117.56, 0.000, 0.000, 0.000, 14:06:15.781
4, -3569.40, -3592.37, -3442.82, -3039.88, 0.000, 0.000, 0.000, 14:06:15.781
5, -3626.78, -3553.58, -3468.73, -3039.41, 0.000, 0.000, 0.000, 14:06:15.782
6, -3996.28, -3620.93, -3627.46, -3143.40, 0.000, 0.000, 0.000, 14:06:15.782
7, -3878.59, -3609.66, -3568.73, -3117.44, 0.000, 0.000, 0.000, 14:06:15.825
8, -3634.79, -3565.79, -3443.57, -3004.77, 0.000, 0.000, 0.000, 14:06:15.825
9, -3656.41, -3535.19, -3460.60, -3027.48, 0.000, 0.000, 0.000, 14:06:15.825
10, -3906.36, -3615.75, -3623.70, -3097.15, 0.000, 0.000, 0.000, 14:06:15.825
11, -3871.60, -3605.70, -3537.27, -3046.45, 0.000, 0.000, 0.000, 14:06:15.825
12, -3596.43, -3561.85, -3418.53, -3015.89, 0.000, 0.000, 0.000, 14:06:15.825
13, -3658.98, -3527.47, -3444.32, -3009.38, 0.000, 0.000, 0.000, 14:06:15.826
14, -3950.04, -3599.35, -3614.65, -3090.53, 0.000, 0.000, 0.000, 14:06:15.826
15, -3804.22, -3617.58, -3557.73, -3114.09, 0.000, 0.000, 0.000, 14:06:15.827
16, -3612.41, -3555.72, -3424.37, -2997.51, 0.000, 0.000, 0.000, 14:06:15.827
17, -3655.62, -3515.22, -3449.37, -3007.65, 0.000, 0.000, 0.000, 14:06:15.840
18, -3915.36, -3596.55, -3599.98, -3094.78, 0.000, 0.000, 0.000, 14:06:15.840
19, -3779.78, -3594.76, -3522.30, -3056.25, 0.000, 0.000, 0.000, 14:06:15.855
20, -3541.35, -3543.59, -3400.39, -2957.86, 0.000, 0.000, 0.000, 14:06:15.855
21, -3632.25, -3504.42, -3448.46, -2998.64, 0.000, 0.000, 0.000, 14:06:15.870
22, -3893.70, -3582.64, -3604.10, -3120.17, 0.000, 0.000, 0.000, 14:06:15.870
23, -3837.16, -3606.99, -3554.25, -3098.33, 0.000, 0.000, 0.000, 14:06:15.870
24, -3515.01, -3556.14, -3421.99, -2989.59, 0.000, 0.000, 0.000, 14:06:15.871
25, -3632.27, -3533.46, -3462.26, -3038.93, 0.000, 0.000, 0.000, 14:06:15.885
26, -3905.59, -3555.34, -3564.93, -3053.20, 0.000, 0.000, 0.000, 14:06:15.885
27, -3779.57, -3604.42, -3525.15, -3097.36, 0.000, 0.000, 0.000, 14:06:15.900
28, -3632.63, -3547.09, -3411.75, -2997.67, 0.000, 0.000, 0.000, 14:06:15.900
29, -3651.09, -3516.04, -3451.47, -2989.06, 0.000, 0.000, 0.000, 14:06:15.900
30, -3919.62, -3586.54, -3599.47, -3107.45, 0.000, 0.000, 0.000, 14:06:15.900
31, -3805.34, -3578.65, -3515.69, -3079.80, 0.000, 0.000, 0.000, 14:06:15.915
32, -3585.50, -3550.06, -3412.74, -3013.99, 0.000, 0.000, 0.000, 14:06:15.915
33, -3619.50, -3514.19, -3444.78, -3000.64, 0.000, 0.000, 0.000, 14:06:15.946
34, -3915.46, -3586.02, -3585.55, -3036.50, 0.000, 0.000, 0.000, 14:06:15.947
35, -3824.80, -3589.06, -3531.88, -3091.24, 0.000, 0.000, 0.000, 14:06:15.947
36, -3600.60, -3558.44, -3417.95, -2982.99, 0.000, 0.000, 0.000, 14:06:15.947
37, -3682.84, -3506.52, -3446.66, -2980.44, 0.000, 0.000, 0.000, 14:06:15.947
38, -3934.24, -3577.78, -3600.60, -3058.83, 0.000, 0.000, 0.000, 14:06:15.948
39, -3818.71, -3585.42, -3542.86, -3059.15, 0.000, 0.000, 0.000, 14:06:15.961
40, -3557.78, -3534.93, -3407.68, -2989.84, 0.000, 0.000, 0.000, 14:06:15.961
41, -3640.73, -3502.67, -3433.15, -2989.19, 0.000, 0.000, 0.000, 14:06:15.962
42, -3878.69, -3577.34, -3588.23, -3078.41, 0.000, 0.000, 0.000, 14:06:15.962
43, -3785.58, -3587.58, -3523.93, -3069.60, 0.000, 0.000, 0.000, 14:06:15.975
44, -3574.23, -3534.34, -3404.08, -2988.68, 0.000, 0.000, 0.000, 14:06:15.975
45, -3608.73, -3485.67, -3426.51, -2966.17, 0.000, 0.000, 0.000, 14:06:15.990
46, -3919.29, -3599.98, -3593.28, -3067.91, 0.000, 0.000, 0.000, 14:06:15.991
47, -3796.96, -3584.35, -3526.87, -3058.02, 0.000, 0.000, 0.000, 14:06:15.991
48, -3551.19, -3526.00, -3399.77, -2984.10, 0.000, 0.000, 0.000, 14:06:15.991
49, -3641.68, -3497.47, -3448.26, -2994.28, 0.000, 0.000, 0.000, 14:06:16.005
50, -3891.94, -3576.02, -3596.41, -3078.88, 0.000, 0.000, 0.000, 14:06:16.005
51, -3797.02, -3569.69, -3510.83, -3041.19, 0.000, 0.000, 0.000, 14:06:16.020
52, -3563.00, -3526.57, -3409.87, -2977.30, 0.000, 0.000, 0.000, 14:06:16.020
53, -3646.77, -3503.52, -3444.29, -3005.07, 0.000, 0.000, 0.000, 14:06:16.020
54, -3932.65, -3574.84, -3588.63, -3067.47, 0.000, 0.000, 0.000, 14:06:16.020
55, -3818.35, -3585.82, -3532.52, -3056.85, 0.000, 0.000, 0.000, 14:06:16.035
56, -3591.41, -3535.07, -3399.60, -2994.33, 0.000, 0.000, 0.000, 14:06:16.035
57, -3567.22, -3490.33, -3430.34, -2982.06, 0.000, 0.000, 0.000, 14:06:16.065
58, -3936.62, -3586.15, -3588.55, -3072.22, 0.000, 0.000, 0.000, 14:06:16.065
59, -3791.79, -3594.20, -3540.85, -3069.12, 0.000, 0.000, 0.000, 14:06:16.066
60, -3562.02, -3527.99, -3407.55, -3010.82, 0.000, 0.000, 0.000, 14:06:16.066
61, -3672.02, -3491.75, -3441.87, -2992.47, 0.000, 0.000, 0.000, 14:06:16.066
62, -3907.24, -3584.93, -3599.13, -3066.86, 0.000, 0.000, 0.000, 14:06:16.066
63, -3716.70, -3573.93, -3509.58, -3030.59, 0.000, 0.000, 0.000, 14:06:16.067
64, -3596.56, -3543.94, -3398.82, -3000.48, 0.000, 0.000, 0.000, 14:06:16.067
65, -3682.65, -3495.04, -3446.32, -2976.11, 0.000, 0.000, 0.000, 14:06:16.080
66, -3872.80, -3585.60, -3599.98, -3097.01, 0.000, 0.000, 0.000, 14:06:16.080
67, -3803.59, -3582.56, -3531.42, -3052.66, 0.000, 0.000, 0.000, 14:06:16.095
68, -3560.28, -3521.14, -3405.86, -2987.69, 0.000, 0.000, 0.000, 14:06:16.095
69, -3630.74, -3499.26, -3445.78, -3000.06, 0.000, 0.000, 0.000, 14:06:16.109
70, -3856.45, -3572.04, -3574.87, -3068.83, 0.000, 0.000, 0.000, 14:06:16.109
71, -3792.85, -3571.13, -3507.54, -3051.58, 0.000, 0.000, 0.000, 14:06:16.111
72, -3528.40, -3519.76, -3389.58, -2977.22, 0.000, 0.000, 0.000, 14:06:16.111
73, -3656.32, -3495.35, -3446.98, -3007.16, 0.000, 0.000, 0.000, 14:06:16.126
74, -3902.21, -3570.59, -3578.79, -3098.06, 0.000, 0.000, 0.000, 14:06:16.126
75, -3795.99, -3592.13, -3508.44, -3057.72, 0.000, 0.000, 0.000, 14:06:16.140
76, -3543.56, -3538.82, -3390.40, -2992.38, 0.000, 0.000, 0.000, 14:06:16.140
77, -3611.14, -3501.05, -3445.73, -3000.64, 0.000, 0.000, 0.000, 14:06:16.141
78, -3901.30, -3582.56, -3569.74, -3086.74, 0.000, 0.000, 0.000, 14:06:16.141
79, -3827.59, -3585.73, -3514.14, -3059.73, 0.000, 0.000, 0.000, 14:06:16.155
80, -3544.59, -3527.60, -3387.89, -2977.42, 0.000, 0.000, 0.000, 14:06:16.155
81, -3682.04, -3534.07, -3449.88, -3004.78, 0.000, 0.000, 0.000, 14:06:16.170
82, -3848.35, -3620.04, -3572.57, -3067.28, 0.000, 0.000, 0.000, 14:06:16.170
83, -3814.19, -3580.97, -3504.36, -3046.86, 0.000, 0.000, 0.000, 14:06:16.171
84, -3573.14, -3517.36, -3371.93, -2969.06, 0.000, 0.000, 0.000, 14:06:16.171
85, -3607.80, -3533.20, -3432.00, -3000.72, 0.000, 0.000, 0.000, 14:06:16.215
86, -3860.30, -3636.33, -3574.28, -3071.08, 0.000, 0.000, 0.000, 14:06:16.215
87, -3746.91, -3574.43, -3486.80, -3006.37, 0.000, 0.000, 0.000, 14:06:16.216
88, -3495.58, -3568.86, -3373.25, -2934.57, 0.000, 0.000, 0.000, 14:06:16.216
89, -3520.20, -3503.67, -3422.17, -2947.82, 0.000, 0.000, 0.000, 14:06:16.216
90, -3774.87, -3627.94, -3574.34, -3012.63, 0.000, 0.000, 0.000, 14:06:16.216
91, -3623.31, -3662.10, -3532.57, -2976.91, 0.000, 0.000, 0.000, 14:06:16.217
92, -3382.29, -3608.15, -3384.04, -2869.95, 0.000, 0.000, 0.000, 14:06:16.217
93, -3495.08, -3579.45, -3457.50, -2927.75, 0.000, 0.000, 0.000, 14:06:16.218
94, -3732.76, -3644.58, -3590.07, -2968.17, 0.000, 0.000, 0.000, 14:06:16.218
95, -3644.19, -3636.46, -3529.92, -2894.66, 0.000, 0.000, 0.000, 14:06:16.230
96, -3410.20, -3572.21, -3416.44, -2877.94, 0.000, 0.000, 0.000, 14:06:16.230
97, -3521.21, -3548.53, -3483.04, -2906.30, 0.000, 0.000, 0.000, 14:06:16.245
98, -3806.23, -3599.07, -3607.18, -2965.38, 0.000, 0.000, 0.000, 14:06:16.245
99, -3721.04, -3591.94, -3536.20, -2928.84, 0.000, 0.000, 0.000, 14:06:16.261
100, -3553.10, -3540.78, -3427.33, -2862.50, 0.000, 0.000, 0.000, 14:06:16.261
101, -3655.97, -3519.45, -3499.69, -2917.19, 0.000, 0.000, 0.000, 14:06:16.261
102, -3891.24, -3563.02, -3631.52, -2998.52, 0.000, 0.000, 0.000, 14:06:16.262
103, -3781.20, -3574.16, -3573.58, -2963.96, 0.000, 0.000, 0.000, 14:06:16.275
104, -3556.06, -3514.73, -3466.21, -2870.70, 0.000, 0.000, 0.000, 14:06:16.276
105, -3703.49, -3486.48, -3515.32, -2916.01, 0.000, 0.000, 0.000, 14:06:16.290
106, -3948.82, -3560.72, -3643.14, -3005.51, 0.000, 0.000, 0.000, 14:06:16.290
107, -3831.93, -3582.59, -3582.84, -2977.58, 0.000, 0.000, 0.000, 14:06:16.291
108, -3598.57, -3506.68, -3446.91, -2881.45, 0.000, 0.000, 0.000, 14:06:16.291
109, -3660.81, -3485.21, -3504.69, -2943.12, 0.000, 0.000, 0.000, 14:06:16.334
110, -3951.80, -3544.75, -3629.92, -3027.09, 0.000, 0.000, 0.000, 14:06:16.334
111, -3827.21, -3562.64, -3581.03, -2987.22, 0.000, 0.000, 0.000, 14:06:16.335
112, -3564.47, -3492.53, -3446.97, -2877.04, 0.000, 0.000, 0.000, 14:06:16.335
113, -3652.42, -3464.72, -3498.62, -2933.36, 0.000, 0.000, 0.000, 14:06:16.336
114, -3937.10, -3563.33, -3623.03, -3037.80, 0.000, 0.000, 0.000, 14:06:16.336
115, -3821.44, -3576.81, -3558.20, -3012.18, 0.000, 0.000, 0.000, 14:06:16.336
116, -3573.88, -3534.28, -3445.01, -2915.32, 0.000, 0.000, 0.000, 14:06:16.336
117, -3667.63, -3459.05, -3467.73, -3011.19, 0.000, 0.000, 0.000, 14:06:16.337
118, -3962.96, -3536.01, -3592.13, -3044.89, 0.000, 0.000, 0.000, 14:06:16.337
119, -3847.14, -3571.34, -3553.45, -3052.25, 0.000, 0.000, 0.000, 14:06:16.350
120, -3589.40, -3514.35, -3425.50, -2933.71, 0.000, 0.000, 0.000, 14:06:16.350
121, -3711.52, -3485.89, -3483.88, -2969.97, 0.000, 0.000, 0.000, 14:06:16.380
122, -3922.31, -3552.98, -3593.86, -3062.07, 0.000, 0.000, 0.000, 14:06:16.380
123, -3794.67, -3576.32, -3531.44, -3035.01, 0.000, 0.000, 0.000, 14:06:16.380
124, -3570.61, -3512.47, -3402.96, -2962.27, 0.000, 0.000, 0.000, 14:06:16.380
125, -3648.63, -3483.06, -3465.11, -2986.11, 0.000, 0.000, 0.000, 14:06:16.381
126, -3954.97, -3560.58, -3600.08, -3077.19, 0.000, 0.000, 0.000, 14:06:16.381
127, -3757.48, -3556.76, -3520.93, -3043.64, 0.000, 0.000, 0.000, 14:06:16.395
128, -3548.17, -3520.20, -3405.47, -2964.56, 0.000, 0.000, 0.000, 14:06:16.396
129, -3713.31, -3496.38, -3467.18, -2982.75, 0.000, 0.000, 0.000, 14:06:16.409
130, -3920.02, -3569.67, -3584.47, -3112.43, 0.000, 0.000, 0.000, 14:06:16.409
131, -3795.11, -3590.00, -3530.39, -3052.58, 0.000, 0.000, 0.000, 14:06:16.410
132, -3561.48, -3530.44, -3398.99, -2936.78, 0.000, 0.000, 0.000, 14:06:16.411
133, -3700.31, -3490.24, -3443.29, -3006.96, 0.000, 0.000, 0.000, 14:06:16.426
134, -3921.94, -3567.33, -3578.80, -3108.86, 0.000, 0.000, 0.000, 14:06:16.426
135, -3779.04, -3571.62, -3511.11, -3037.71, 0.000, 0.000, 0.000, 14:06:16.469
136, -3583.07, -3523.72, -3400.83, -2971.98, 0.000, 0.000, 0.000, 14:06:16.470
137, -3718.04, -3505.72, -3469.41, -3016.77, 0.000, 0.000, 0.000, 14:06:16.470
138, -3935.10, -3578.27, -3599.34, -3077.67, 0.000, 0.000, 0.000, 14:06:16.470
139, -3759.71, -3566.51, -3512.16, -3045.11, 0.000, 0.000, 0.000, 14:06:16.471
140, -3557.83, -3520.73, -3406.13, -2948.63, 0.000, 0.000, 0.000, 14:06:16.471
141, -3667.98, -3493.06, -3459.97, -2995.76, 0.000, 0.000, 0.000, 14:06:16.471
142, -3900.93, -3554.78, -3566.78, -3101.62, 0.000, 0.000, 0.000, 14:06:16.471
143, -3753.34, -3581.81, -3505.60, -3033.25, 0.000, 0.000, 0.000, 14:06:16.472
144, -3565.92, -3530.47, -3403.65, -2946.01, 0.000, 0.000, 0.000, 14:06:16.472
145, -3695.35, -3509.84, -3468.60, -3018.69, 0.000, 0.000, 0.000, 14:06:16.501
146, -3910.79, -3567.44, -3562.05, -3066.12, 0.000, 0.000, 0.000, 14:06:16.501
147, -3765.79, -3578.35, -3525.42, -3027.88, 0.000, 0.000, 0.000, 14:06:16.501
148, -3552.42, -3523.74, -3404.13, -2915.26, 0.000, 0.000, 0.000, 14:06:16.501
149, -3716.40, -3491.67, -3490.44, -2993.15, 0.000, 0.000, 0.000, 14:06:16.501
150, -3872.18, -3571.00, -3596.14, -3090.39, 0.000, 0.000, 0.000, 14:06:16.501
151, -3797.41, -3581.29, -3530.15, -3027.23, 0.000, 0.000, 0.000, 14:06:16.515
152, -3582.68, -3550.74, -3425.11, -2955.51, 0.000, 0.000, 0.000, 14:06:16.515
153, -3727.33, -3502.54, -3475.82, -2992.13, 0.000, 0.000, 0.000, 14:06:16.529
154, -3895.33, -3584.76, -3589.10, -3050.82, 0.000, 0.000, 0.000, 14:06:16.530
155, -3771.96, -3565.19, -3517.70, -3042.23, 0.000, 0.000, 0.000, 14:06:16.530
156, -3562.92, -3517.02, -3403.79, -2917.95, 0.000, 0.000, 0.000, 14:06:16.530
157, -3668.83, -3504.90, -3474.50, -3024.17, 0.000, 0.000, 0.000, 14:06:16.551
158, -3900.26, -3571.22, -3581.93, -3087.71, 0.000, 0.000, 0.000, 14:06:16.552
159, -3756.82, -3578.12, -3525.15, -3048.74, 0.000, 0.000, 0.000, 14:06:16.559
160, -3555.11, -3523.69, -3407.76, -2943.54, 0.000, 0.000, 0.000, 14:06:16.560
161, -3699.79, -3518.03, -3486.35, -3022.63, 0.000, 0.000, 0.000, 14:06:16.560
162, -3896.31, -3582.87, -3579.97, -3110.51, 0.000, 0.000, 0.000, 14:06:16.561
163, -3790.54, -3583.75, -3521.97, -3092.79, 0.000, 0.000, 0.000, 14:06:16.576
164, -3562.67, -3516.94, -3410.83, -2918.69, 0.000, 0.000, 0.000, 14:06:16.576
165, -3686.74, -3497.49, -3468.37, -2993.90, 0.000, 0.000, 0.000, 14:06:16.591
166, -3901.27, -3571.14, -3566.66, -3088.10, 0.000, 0.000, 0.000, 14:06:16.591
167, -3756.87, -3591.65, -3526.11, -3047.56, 0.000, 0.000, 0.000, 14:06:16.592
168, -3565.07, -3533.96, -3417.38, -2948.88, 0.000, 0.000, 0.000, 14:06:16.592
169, -3708.41, -3510.87, -3470.90, -3030.04, 0.000, 0.000, 0.000, 14:06:16.604
170, -3860.63, -3575.39, -3577.33, -3081.24, 0.000, 0.000, 0.000, 14:06:16.605
171, -3769.61, -3558.60, -3507.72, -3028.55, 0.000, 0.000, 0.000, 14:06:16.619
172, -3568.95, -3526.68, -3415.08, -2972.26, 0.000, 0.000, 0.000, 14:06:16.619
173, -3684.45, -3515.49, -3465.08, -3050.51, 0.000, 0.000, 0.000, 14:06:16.620
174, -3878.72, -3570.90, -3566.11, -3065.43, 0.000, 0.000, 0.000, 14:06:16.620
175, -3775.56, -3568.42, -3502.26, -3020.88, 0.000, 0.000, 0.000, 14:06:16.635
176, -3593.38, -3548.84, -3424.54, -2975.46, 0.000, 0.000, 0.000, 14:06:16.635
177, -3686.24, -3506.28, -3467.38, -3008.64, 0.000, 0.000, 0.000, 14:06:16.650
178, -3903.45, -3574.04, -3575.72, -3101.85, 0.000, 0.000, 0.000, 14:06:16.650
179, -3784.35, -3579.58, -3508.24, -3020.05, 0.000, 0.000, 0.000, 14:06:16.651
180, -3568.29, -3535.48, -3397.27, -2931.31, 0.000, 0.000, 0.000, 14:06:16.651
181, -3689.30, -3515.23, -3475.95, -3032.03, 0.000, 0.000, 0.000, 14:06:16.679
182, -3911.85, -3583.95, -3567.49, -3106.63, 0.000, 0.000, 0.000, 14:06:16.679
183, -3758.13, -3560.59, -3504.29, -2976.20, 0.000, 0.000, 0.000, 14:06:16.680
184, -3532.89, -3528.30, -3402.69, -2945.66, 0.000, 0.000, 0.000, 14:06:16.680
185, -3669.87, -3504.95, -3469.24, -3002.86, 0.000, 0.000, 0.000, 14:06:16.681
186, -3850.92, -3573.64, -3584.73, -3107.34, 0.000, 0.000, 0.000, 14:06:16.681
187, -3748.53, -3586.83, -3498.86, -3040.63, 0.000, 0.000, 0.000, 14:06:16.695
188, -3569.70, -3545.46, -3394.40, -2954.25, 0.000, 0.000, 0.000, 14:06:16.695
189, -3703.61, -3500.06, -3476.66, -3015.09, 0.000, 0.000, 0.000, 14:06:16.710
190, -3915.44, -3572.35, -3581.78, -3108.56, 0.000, 0.000, 0.000, 14:06:16.711
191, -3799.73, -3577.39, -3516.59, -3039.91, 0.000, 0.000, 0.000, 14:06:16.712
192, -3540.41, -3544.29, -3421.98, -2965.64, 0.000, 0.000, 0.000, 14:06:16.712
193, -3662.26, -3496.86, -3488.82, -3016.61, 0.000, 0.000, 0.000, 14:06:16.726
194, -3903.02, -3580.53, -3571.97, -3083.79, 0.000, 0.000, 0.000, 14:06:16.726
195, -3796.18, -3575.04, -3497.42, -2994.30, 0.000, 0.000, 0.000, 14:06:16.755
196, -3529.89, -3534.25, -3410.75, -2946.55, 0.000, 0.000, 0.000, 14:06:16.756
197, -3734.47, -3505.66, -3488.43, -3009.79, 0.000, 0.000, 0.000, 14:06:16.756
198, -3891.27, -3588.81, -3581.63, -3074.72, 0.000, 0.000, 0.000, 14:06:16.756
199, -3762.11, -3592.96, -3522.42, -3032.60, 0.000, 0.000, 0.000, 14:06:16.757
200, -3572.59, -3537.11, -3408.08, -2973.12, 0.000, 0.000, 0.000, 14:06:16.758
0, -3703.23, -3499.55, -3474.01, -3055.80, 0.000, 0.000, 0.000, 14:06:16.758
1, -3895.85, -3561.26, -3557.38, -3126.30, 0.000, 0.000, 0.000, 14:06:16.770
2, -3722.62, -3555.58, -3475.18, -3081.87, 0.000, 0.000, 0.000, 14:06:16.770
3, -3499.65, -3495.23, -3363.83, -2997.59, 0.000, 0.000, 0.000, 14:06:16.800
4, -3735.04, -3482.81, -3430.10, -3085.10, 0.000, 0.000, 0.000, 14:06:16.800
5, -3847.83, -3532.51, -3522.30, -3139.76, 0.000, 0.000, 0.000, 14:06:16.800
6, -3788.10, -3528.98, -3438.65, -3090.93, 0.000, 0.000, 0.000, 14:06:16.800
7, -3539.32, -3476.58, -3328.70, -3006.84, 0.000, 0.000, 0.000, 14:06:16.801
8, -3703.38, -3470.88, -3409.97, -3132.00, 0.000, 0.000, 0.000, 14:06:16.801
9, -3921.90, -3548.39, -3508.16, -3181.89, 0.000, 0.000, 0.000, 14:06:16.802
10, -3736.00, -3522.77, -3408.69, -3088.20, 0.000, 0.000, 0.000, 14:06:16.802
11, -3548.74, -3489.96, -3321.99, -3065.21, 0.000, 0.000, 0.000, 14:06:16.815
12, -3723.19, -3469.56, -3402.61, -3125.96, 0.000, 0.000, 0.000, 14:06:16.815
13, -3934.21, -3552.58, -3490.80, -3215.56, 0.000, 0.000, 0.000, 14:06:16.845
14, -3755.31, -3547.90, -3417.51, -3144.23, 0.000, 0.000, 0.000, 14:06:16.845
15, -3528.85, -3496.27, -3309.41, -3010.55, 0.000, 0.000, 0.000, 14:06:16.845
16, -3726.56, -3498.00, -3419.22, -3123.02, 0.000, 0.000, 0.000, 14:06:16.846
17, -3909.68, -3546.83, -3485.24, -3201.82, 0.000, 0.000, 0.000, 14:06:16.846
18, -3761.60, -3560.51, -3418.72, -3160.64, 0.000, 0.000, 0.000, 14:06:16.846
19, -3581.20, -3506.26, -3327.53, -3025.17, 0.000, 0.000, 0.000, 14:06:16.877
20, -3701.81, -3500.54, -3412.90, -3092.05, 0.000, 0.000, 0.000, 14:06:16.877
21, -3880.03, -3569.58, -3513.17, -3154.97, 0.000, 0.000, 0.000, 14:06:16.877
22, -3773.74, -3559.32, -3464.77, -3091.05, 0.000, 0.000, 0.000, 14:06:16.877
23, -3604.54, -3517.24, -3364.57, -2999.33, 0.000, 0.000, 0.000, 14:06:16.877
24, -3730.58, -3504.38, -3473.75, -3014.60, 0.000, 0.000, 0.000, 14:06:16.877
25, -3915.31, -3570.74, -3522.39, -3123.32, 0.000, 0.000, 0.000, 14:06:16.890
26, -3735.29, -3567.50, -3454.39, -3075.34, 0.000, 0.000, 0.000, 14:06:16.890
27, -3534.16, -3528.98, -3361.20, -3006.70, 0.000, 0.000, 0.000, 14:06:16.905
28, -3754.44, -3530.19, -3483.94, -3123.14, 0.000, 0.000, 0.000, 14:06:16.905
29, -3929.00, -3585.57, -3578.30, -3112.99, 0.000, 0.000, 0.000, 14:06:16.906
30, -3758.50, -3563.54, -3493.47, -3033.55, 0.000, 0.000, 0.000, 14:06:16.906
31, -3544.84, -3525.94, -3385.83, -2943.47, 0.000, 0.000, 0.000, 14:06:16.920
32, -3706.28, -3521.60, -3472.60, -3072.02, 0.000, 0.000, 0.000, 14:06:16.920
33, -3871.17, -3582.91, -3545.08, -3110.74, 0.000, 0.000, 0.000, 14:06:16.935
34, -3704.58, -3579.03, -3475.62, -3028.41, 0.000, 0.000, 0.000, 14:06:16.935
35, -3527.66, -3517.60, -3401.60, -2943.53, 0.000, 0.000, 0.000, 14:06:16.936
36, -3734.07, -3526.45, -3502.74, -3027.47, 0.000, 0.000, 0.000, 14:06:16.936
37, -3898.65, -3567.77, -3563.69, -3104.82, 0.000, 0.000, 0.000, 14:06:16.980
38, -3777.79, -3585.42, -3504.58, -3038.26, 0.000, 0.000, 0.000, 14:06:16.980
39, -3546.89, -3530.08, -3387.42, -2947.33, 0.000, 0.000, 0.000, 14:06:16.981
40, -3712.75, -3518.89, -3492.87, -3013.02, 0.000, 0.000, 0.000, 14:06:16.981
41, -3910.90, -3580.06, -3584.02, -3078.29, 0.000, 0.000, 0.000, 14:06:16.981
42, -3710.35, -3575.96, -3493.43, -3030.99, 0.000, 0.000, 0.000, 14:06:16.981
43, -3542.24, -3516.37, -3388.78, -2945.70, 0.000, 0.000, 0.000, 14:06:16.982
44, -3707.16, -3511.82, -3478.88, -3013.65, 0.000, 0.000, 0.000, 14:06:16.982
45, -3908.64, -3588.68, -3568.81, -3099.32, 0.000, 0.000, 0.000, 14:06:16.983
46, -3757.60, -3571.39, -3497.16, -3027.77, 0.000, 0.000, 0.000, 14:06:16.983
47, -3535.68, -3518.62, -3393.95, -2938.37, 0.000, 0.000, 0.000, 14:06:17.025
48, -3735.73, -3518.44, -3496.60, -3041.90, 0.000, 0.000, 0.000, 14:06:17.025
49, -3867.95, -3595.09, -3554.29, -3126.38, 0.000, 0.000, 0.000, 14:06:17.025
50, -3690.85, -3574.14, -3490.13, -3010.46, 0.000, 0.000, 0.000, 14:06:17.025
51, -3554.92, -3517.21, -3408.48, -2922.43, 0.000, 0.000, 0.000, 14:06:17.026
52, -3786.88, -3517.77, -3508.35, -3056.04, 0.000, 0.000, 0.000, 14:06:17.026
53, -3897.69, -3585.02, -3571.55, -3111.94, 0.000, 0.000, 0.000, 14:06:17.033
54, -3722.87, -3585.98, -3507.81, -3011.63, 0.000, 0.000, 0.000, 14:06:17.033
55, -3504.89, -3528.53, -3405.41, -2924.78, 0.000, 0.000, 0.000, 14:06:17.055
56, -3702.66, -3519.23, -3503.30, -3039.32, 0.000, 0.000, 0.000, 14:06:17.055
57, -3878.08, -3592.29, -3590.56, -3139.71, 0.000, 0.000, 0.000, 14:06:17.070
58, -3727.10, -3583.25, -3503.87, -3052.62, 0.000, 0.000, 0.000, 14:06:17.070
59, -3524.84, -3511.68, -3375.24, -2958.28, 0.000, 0.000, 0.000, 14:06:17.070
60, -3742.90, -3518.02, -3495.35, -3043.76, 0.000, 0.000, 0.000, 14:06:17.070
61, -3968.45, -3585.08, -3576.35, -3098.09, 0.000, 0.000, 0.000, 14:06:17.071
62, -3755.40, -3578.67, -3515.68, -3024.18, 0.000, 0.000, 0.000, 14:06:17.071
63, -3556.03, -3513.26, -3411.24, -2910.25, 0.000, 0.000, 0.000, 14:06:17.072
64, -3717.08, -3517.02, -3511.42, -3018.49, 0.000, 0.000, 0.000, 14:06:17.072
65, -3885.50, -3577.23, -3580.29, -3105.86, 0.000, 0.000, 0.000, 14:06:17.099
66, -3771.50, -3601.95, -3517.20, -3082.12, 0.000, 0.000, 0.000, 14:06:17.099
67, -3570.06, -3574.01, -3420.91, -2970.22, 0.000, 0.000, 0.000, 14:06:17.100
68, -3737.40, -3541.05, -3518.20, -3026.97, 0.000, 0.000, 0.000, 14:06:17.100
69, -3912.34, -3586.93, -3593.99, -3052.12, 0.000, 0.000, 0.000, 14:06:17.114
70, -3724.19, -3573.76, -3515.29, -2962.41, 0.000, 0.000, 0.000, 14:06:17.114
71, -3513.56, -3508.04, -3429.45, -2871.08, 0.000, 0.000, 0.000, 14:06:17.115
72, -3741.75, -3524.79, -3554.01, -2958.82, 0.000, 0.000, 0.000, 14:06:17.115
73, -3912.58, -3612.92, -3636.80, -3085.72, 0.000, 0.000, 0.000, 14:06:17.130
74, -3724.49, -3572.28, -3542.38, -2929.57, 0.000, 0.000, 0.000, 14:06:17.130
75, -3478.97, -3521.91, -3452.30, -2849.11, 0.000, 0.000, 0.000, 14:06:17.146
76, -3746.84, -3542.83, -3570.37, -2924.58, 0.000, 0.000, 0.000, 14:06:17.146
77, -3883.78, -3623.00, -3656.68, -3031.79, 0.000, 0.000, 0.000, 14:06:17.146
78, -3681.06, -3594.68, -3570.17, -2954.26, 0.000, 0.000, 0.000, 14:06:17.147
79, -3521.98, -3526.98, -3483.46, -2810.58, 0.000, 0.000, 0.000, 14:06:17.175
80, -3727.50, -3537.74, -3596.19, -2967.91, 0.000, 0.000, 0.000, 14:06:17.175
81, -3836.95, -3609.35, -3647.07, -2949.81, 0.000, 0.000, 0.000, 14:06:17.189
82, -3700.55, -3598.23, -3578.66, -2919.77, 0.000, 0.000, 0.000, 14:06:17.191
83, -3498.96, -3538.72, -3469.24, -2828.06, 0.000, 0.000, 0.000, 14:06:17.193
84, -3718.94, -3552.70, -3567.14, -2924.84, 0.000, 0.000, 0.000, 14:06:17.194
85, -3880.68, -3598.99, -3659.15, -2991.16, 0.000, 0.000, 0.000, 14:06:17.195
86, -3712.68, -3580.02, -3570.65, -2894.92, 0.000, 0.000, 0.000, 14:06:17.195
87, -3504.41, -3536.06, -3480.98, -2850.96, 0.000, 0.000, 0.000, 14:06:17.196
88, -3746.29, -3537.35, -3584.64, -2964.38, 0.000, 0.000, 0.000, 14:06:17.196
89, -3912.19, -3608.39, -3629.83, -3039.39, 0.000, 0.000, 0.000, 14:06:17.205
90, -3713.51, -3594.50, -3551.54, -2979.61, 0.000, 0.000, 0.000, 14:06:17.205
91, -3525.78, -3519.34, -3429.26, -2837.94, 0.000, 0.000, 0.000, 14:06:17.220
92, -3768.99, -3520.14, -3542.57, -2969.40, 0.000, 0.000, 0.000, 14:06:17.220
93, -3914.96, -3586.58, -3609.09, -3063.08, 0.000, 0.000, 0.000, 14:06:17.235
94, -3739.92, -3581.63, -3516.56, -2985.60, 0.000, 0.000, 0.000, 14:06:17.235
95, -3514.28, -3507.79, -3414.94, -2884.51, 0.000, 0.000, 0.000, 14:06:17.235
96, -3773.70, -3501.47, -3537.30, -3029.03, 0.000, 0.000, 0.000, 14:06:17.235
97, -3898.80, -3581.34, -3601.86, -3092.63, 0.000, 0.000, 0.000, 14:06:17.250
98, -3738.59, -3572.40, -3512.82, -2996.15, 0.000, 0.000, 0.000, 14:06:17.250
99, -3543.26, -3509.51, -3410.23, -2929.70, 0.000, 0.000, 0.000, 14:06:17.265
100, -3758.76, -3520.75, -3524.41, -3043.56, 0.000, 0.000, 0.000, 14:06:17.265
101, -3886.92, -3578.66, -3589.47, -3043.77, 0.000, 0.000, 0.000, 14:06:17.266
102, -3728.05, -3560.79, -3490.10, -2949.26, 0.000, 0.000, 0.000, 14:06:17.266
103, -3551.91, -3518.23, -3405.17, -2957.52, 0.000, 0.000, 0.000, 14:06:17.280
104, -3764.96, -3500.65, -3509.66, -3043.72, 0.000, 0.000, 0.000, 14:06:17.280
105, -3926.15, -3582.33, -3586.49, -3108.27, 0.000, 0.000, 0.000, 14:06:17.310
106, -3715.92, -3553.40, -3490.12, -3018.21, 0.000, 0.000, 0.000, 14:06:17.310
107, -3533.67, -3507.40, -3405.32, -2897.41, 0.000, 0.000, 0.000, 14:06:17.311
108, -3780.78, -3497.84, -3503.66, -3045.96, 0.000, 0.000, 0.000, 14:06:17.312
109, -3876.04, -3560.64, -3568.08, -3113.07, 0.000, 0.000, 0.000, 14:06:17.312
110, -3730.20, -3568.38, -3485.25, -3002.16, 0.000, 0.000, 0.000, 14:06:17.312
111, -3473.02, -3511.37, -3404.43, -2927.32, 0.000, 0.000, 0.000, 14:06:17.326
112, -3724.02, -3494.19, -3496.73, -3063.52, 0.000, 0.000, 0.000, 14:06:17.326
113, -3874.73, -3556.28, -3558.88, -3066.37, 0.000, 0.000, 0.000, 14:06:17.327
114, -3704.09, -3562.59, -3500.27, -2966.14, 0.000, 0.000, 0.000, 14:06:17.327
115, -3516.00, -3519.50, -3393.90, -2962.50, 0.000, 0.000, 0.000, 14:06:17.355
116, -3758.79, -3481.23, -3487.15, -3067.56, 0.000, 0.000, 0.000, 14:06:17.355
117, -3901.30, -3555.85, -3562.35, -3106.82, 0.000, 0.000, 0.000, 14:06:17.356
118, -3729.91, -3562.04, -3484.57, -3005.47, 0.000, 0.000, 0.000, 14:06:17.356
119, -3556.60, -3518.55, -3400.60, -2954.75, 0.000, 0.000, 0.000, 14:06:17.357
120, -3768.32, -3476.21, -3462.39, -3035.98, 0.000, 0.000, 0.000, 14:06:17.357
121, -3905.61, -3561.67, -3539.42, -3105.86, 0.000, 0.000, 0.000, 14:06:17.369
122, -3720.72, -3573.58, -3498.08, -3049.49, 0.000, 0.000, 0.000, 14:06:17.369
123, -3513.30, -3506.40, -3389.97, -2959.20, 0.000, 0.000, 0.000, 14:06:17.400
124, -3762.01, -3494.29, -3490.32, -3088.07, 0.000, 0.000, 0.000, 14:06:17.400
125, -3883.52, -3550.32, -3539.48, -3087.69, 0.000, 0.000, 0.000, 14:06:17.401
126, -3646.60, -3553.23, -3473.10, -3036.62, 0.000, 0.000, 0.000, 14:06:17.401
127, -3528.55, -3519.95, -3392.78, -2920.30, 0.000, 0.000, 0.000, 14:06:17.401
128, -3739.75, -3495.76, -3471.98, -3055.57, 0.000, 0.000, 0.000, 14:06:17.401
129, -3860.23, -3550.82, -3531.13, -3057.62, 0.000, 0.000, 0.000, 14:06:17.402
130, -3722.21, -3564.19, -3487.01, -3027.53, 0.000, 0.000, 0.000, 14:06:17.402
131, -3553.44, -3510.91, -3407.86, -2946.19, 0.000, 0.000, 0.000, 14:06:17.430
132, -3788.96, -3502.72, -3495.83, -3058.21, 0.000, 0.000, 0.000, 14:06:17.431
133, -3906.65, -3576.43, -3556.78, -3129.27, 0.000, 0.000, 0.000, 14:06:17.431
134, -3724.30, -3583.19, -3493.16, -3005.25, 0.000, 0.000, 0.000, 14:06:17.431
135, -3552.23, -3524.71, -3397.70, -2905.95, 0.000, 0.000, 0.000, 14:06:17.432
136, -3775.36, -3507.07, -3484.64, -3025.18, 0.000, 0.000, 0.000, 14:06:17.432
137, -3787.06, -3594.96, -3569.62, -3121.23, 0.000, 0.000, 0.000, 14:06:17.445
138, -3737.97, -3594.75, -3486.20, -2992.66, 0.000, 0.000, 0.000, 14:06:17.445
139, -3529.00, -3534.89, -3403.75, -2957.81, 0.000, 0.000, 0.000, 14:06:17.460
140, -3723.38, -3531.64, -3515.17, -3058.16, 0.000, 0.000, 0.000, 14:06:17.460
141, -3897.17, -3590.45, -3569.37, -3108.45, 0.000, 0.000, 0.000, 14:06:17.476
142, -3719.40, -3591.78, -3485.44, -2992.53, 0.000, 0.000, 0.000, 14:06:17.476
143, -3507.48, -3529.61, -3399.69, -2922.27, 0.000, 0.000, 0.000, 14:06:17.476
144, -3802.15, -3527.95, -3517.09, -3065.59, 0.000, 0.000, 0.000, 14:06:17.476
145, -3911.65, -3594.46, -3561.96, -3084.19, 0.000, 0.000, 0.000, 14:06:17.490
146, -3706.64, -3580.46, -3473.78, -3006.21, 0.000, 0.000, 0.000, 14:06:17.491
147, -3480.29, -3523.26, -3404.42, -2904.80, 0.000, 0.000, 0.000, 14:06:17.504
148, -3785.88, -3537.43, -3533.04, -3054.20, 0.000, 0.000, 0.000, 14:06:17.505
149, -3851.41, -3566.93, -3558.18, -3102.26, 0.000, 0.000, 0.000, 14:06:17.505
150, -3641.12, -3564.85, -3456.85, -2961.35, 0.000, 0.000, 0.000, 14:06:17.505
151, -3576.10, -3547.74, -3419.21, -2939.90, 0.000, 0.000, 0.000, 14:06:17.527
152, -3746.23, -3546.00, -3513.39, -3073.22, 0.000, 0.000, 0.000, 14:06:17.527
153, -3902.00, -3588.10, -3567.37, -3097.31, 0.000, 0.000, 0.000, 14:06:17.535
154, -3685.73, -3573.44, -3502.30, -3003.12, 0.000, 0.000, 0.000, 14:06:17.535
155, -3517.38, -3518.47, -3404.84, -2917.14, 0.000, 0.000, 0.000, 14:06:17.535
156, -3766.16, -3493.43, -3494.14, -3027.39, 0.000, 0.000, 0.000, 14:06:17.535
157, -3856.84, -3587.11, -3556.54, -3095.76, 0.000, 0.000, 0.000, 14:06:17.550
158, -3689.77, -3576.59, -3485.12, -2998.45, 0.000, 0.000, 0.000, 14:06:17.550
159, -3543.30, -3511.15, -3410.14, -2917.82, 0.000, 0.000, 0.000, 14:06:17.565
160, -3770.95, -3530.20, -3506.90, -3063.87, 0.000, 0.000, 0.000, 14:06:17.565
161, -3857.21, -3560.69, -3542.32, -3085.04, 0.000, 0.000, 0.000, 14:06:17.565
162, -3718.66, -3566.30, -3499.07, -3022.53, 0.000, 0.000, 0.000, 14:06:17.565
163, -3525.51, -3524.88, -3415.65, -2908.95, 0.000, 0.000, 0.000, 14:06:17.580
164, -3785.03, -3530.95, -3534.00, -3044.16, 0.000, 0.000, 0.000, 14:06:17.580
165, -3872.85, -3577.03, -3553.85, -3124.04, 0.000, 0.000, 0.000, 14:06:17.610
166, -3712.89, -3564.70, -3468.97, -2994.21, 0.000, 0.000, 0.000, 14:06:17.611
167, -3528.19, -3541.87, -3424.86, -2996.38, 0.000, 0.000, 0.000, 14:06:17.626
168, -3763.73, -3521.95, -3510.71, -3050.54, 0.000, 0.000, 0.000, 14:06:17.626
169, -3868.59, -3556.25, -3542.47, -3056.64, 0.000, 0.000, 0.000, 14:06:17.627
170, -3657.05, -3556.29, -3471.53, -2936.71, 0.000, 0.000, 0.000, 14:06:17.627
171, -3552.39, -3515.56, -3415.99, -2942.82, 0.000, 0.000, 0.000, 14:06:17.627
172, -3767.67, -3516.57, -3524.58, -3140.80, 0.000, 0.000, 0.000, 14:06:17.628
173, -3979.06, -3586.55, -3570.02, -3107.82, 0.000, 0.000, 0.000, 14:06:17.628
174, -3657.99, -3589.19, -3485.87, -3019.78, 0.000, 0.000, 0.000, 14:06:17.628
175, -3495.85, -3527.45, -3411.49, -2909.04, 0.000, 0.000, 0.000, 14:06:17.640
176, -3790.01, -3502.14, -3509.36, -3062.87, 0.000, 0.000, 0.000, 14:06:17.640
177, -3816.87, -3577.75, -3562.81, -3068.52, 0.000, 0.000, 0.000, 14:06:17.655
178, -3691.88, -3577.03, -3488.09, -2981.20, 0.000, 0.000, 0.000, 14:06:17.655
179, -3546.43, -3536.96, -3418.12, -2942.46, 0.000, 0.000, 0.000, 14:06:17.656
180, -3805.48, -3520.61, -3525.34, -3082.32, 0.000, 0.000, 0.000, 14:06:17.657
181, -3826.21, -3592.17, -3560.08, -3093.27, 0.000, 0.000, 0.000, 14:06:17.669
182, -3656.52, -3576.00, -3499.06, -2986.29, 0.000, 0.000, 0.000, 14:06:17.669
183, -3513.82, -3530.97, -3414.31, -2925.54, 0.000, 0.000, 0.000, 14:06:17.684
184, -3830.84, -3510.84, -3509.78, -3024.84, 0.000, 0.000, 0.000, 14:06:17.685
185, -3808.18, -3565.81, -3560.39, -3090.98, 0.000, 0.000, 0.000, 14:06:17.685
186, -3772.27, -3578.55, -3498.18, -2977.93, 0.000, 0.000, 0.000, 14:06:17.685
187, -3500.23, -3529.37, -3425.49, -2959.85, 0.000, 0.000, 0.000, 14:06:17.700
188, -3785.34, -3514.23, -3506.22, -3040.71, 0.000, 0.000, 0.000, 14:06:17.700
189, -3822.03, -3579.00, -3555.28, -3082.18, 0.000, 0.000, 0.000, 14:06:17.730
190, -3659.17, -3560.65, -3469.24, -3018.30, 0.000, 0.000, 0.000, 14:06:17.730
191, -3602.93, -3516.20, -3423.29, -2960.43, 0.000, 0.000, 0.000, 14:06:17.730
192, -3836.11, -3514.40, -3523.09, -3055.37, 0.000, 0.000, 0.000, 14:06:17.730
193, -3844.77, -3588.14, -3569.45, -3152.75, 0.000, 0.000, 0.000, 14:06:17.731
194, -3696.21, -3572.18, -3499.01, -2993.01, 0.000, 0.000, 0.000, 14:06:17.731
195, -3557.48, -3512.32, -3411.43, -2937.53, 0.000, 0.000, 0.000, 14:06:17.732
196, -3746.78, -3515.64, -3515.93, -3057.68, 0.000, 0.000, 0.000, 14:06:17.732
197, -3932.73, -3567.15, -3541.28, -3045.51, 0.000, 0.000, 0.000, 14:06:17.745
198, -3724.22, -3579.76, -3486.75, -2988.89, 0.000, 0.000, 0.000, 14:06:17.745
199, -3518.17, -3513.04, -3430.47, -2956.20, 0.000, 0.000, 0.000, 14:06:17.760
200, -3786.76, -3534.33, -3533.22, -3099.63, 0.000, 0.000, 0.000, 14:06:17.760
0, -3879.22, -3593.30, -3589.40, -3097.36, 0.000, 0.000, 0.000, 14:06:17.761
1, -3726.19, -3580.67, -3481.05, -2996.80, 0.000, 0.000, 0.000, 14:06:17.776
2, -3575.30, -3504.22, -3398.46, -2950.09, 0.000, 0.000, 0.000, 14:06:17.776
3, -3836.58, -3498.98, -3503.41, -3033.95, 0.000, 0.000, 0.000, 14:06:17.791
4, -3885.63, -3571.06, -3563.17, -3077.30, 0.000, 0.000, 0.000, 14:06:17.791
5, -3712.07, -3557.02, -3476.15, -2994.26, 0.000, 0.000, 0.000, 14:06:17.791
6, -3513.55, -3496.39, -3406.32, -2995.16, 0.000, 0.000, 0.000, 14:06:17.791
7, -3798.49, -3513.04, -3525.43, -3078.64, 0.000, 0.000, 0.000, 14:06:17.805
8, -3871.54, -3575.92, -3564.13, -3033.08, 0.000, 0.000, 0.000, 14:06:17.805
9, -3665.33, -3565.48, -3487.63, -3019.53, 0.000, 0.000, 0.000, 14:06:17.819
10, -3533.96, -3507.68, -3415.27, -2928.92, 0.000, 0.000, 0.000, 14:06:17.820
11, -3829.96, -3522.91, -3517.51, -3049.19, 0.000, 0.000, 0.000, 14:06:17.820
12, -3882.27, -3580.87, -3545.26, -3083.41, 0.000, 0.000, 0.000, 14:06:17.820
13, -3708.26, -3565.17, -3484.02, -3027.20, 0.000, 0.000, 0.000, 14:06:17.835
14, -3521.11, -3509.42, -3421.77, -2896.41, 0.000, 0.000, 0.000, 14:06:17.835
15, -3811.06, -3510.63, -3517.86, -3128.10, 0.000, 0.000, 0.000, 14:06:17.864
16, -3892.94, -3565.19, -3550.22, -3029.47, 0.000, 0.000, 0.000, 14:06:17.865
17, -3675.38, -3571.71, -3489.37, -3012.14, 0.000, 0.000, 0.000, 14:06:17.865
18, -3525.81, -3513.50, -3402.29, -2912.84, 0.000, 0.000, 0.000, 14:06:17.865
19, -3900.52, -3533.14, -3523.01, -3122.65, 0.000, 0.000, 0.000, 14:06:17.866
20, -3864.92, -3571.76, -3543.92, -3098.45, 0.000, 0.000, 0.000, 14:06:17.866
21, -3633.46, -3564.54, -3471.33, -2928.19, 0.000, 0.000, 0.000, 14:06:17.867
22, -3596.15, -3508.80, -3416.89, -2965.57, 0.000, 0.000, 0.000, 14:06:17.867
23, -3733.52, -3519.72, -3527.37, -3073.98, 0.000, 0.000, 0.000, 14:06:17.880
24, -3851.32, -3567.53, -3553.50, -3121.20, 0.000, 0.000, 0.000, 14:06:17.880
25, -3691.33, -3556.67, -3477.19, -2931.06, 0.000, 0.000, 0.000, 14:06:17.911
26, -3508.88, -3517.73, -3409.30, -2927.36, 0.000, 0.000, 0.000, 14:06:17.911
27, -3797.43, -3527.28, -3530.04, -3065.60, 0.000, 0.000, 0.000, 14:06:17.912
28, -3852.32, -3556.30, -3529.85, -3072.91, 0.000, 0.000, 0.000, 14:06:17.912
29, -3637.93, -3573.58, -3482.48, -3015.04, 0.000, 0.000, 0.000, 14:06:17.913
30, -3553.28, -3506.58, -3391.31, -2960.07, 0.000, 0.000, 0.000, 14:06:17.913
31, -3762.94, -3523.30, -3526.00, -3067.80, 0.000, 0.000, 0.000, 14:06:17.925
32, -3880.68, -3575.93, -3561.65, -3081.87, 0.000, 0.000, 0.000, 14:06:17.926
33, -3681.14, -3567.52, -3472.65, -3009.50, 0.000, 0.000, 0.000, 14:06:17.940
34, -3528.97, -3512.85, -3401.09, -2953.58, 0.000, 0.000, 0.000, 14:06:17.940
35, -3824.22, -3525.19, -3519.15, -3078.22, 0.000, 0.000, 0.000, 14:06:17.941
36, -3858.32, -3589.58, -3551.58, -3094.32, 0.000, 0.000, 0.000, 14:06:17.941
37, -3703.72, -3581.57, -3492.88, -3005.53, 0.000, 0.000, 0.000, 14:06:17.961
38, -3533.49, -3520.52, -3403.98, -2966.25, 0.000, 0.000, 0.000, 14:06:17.961
39, -3772.15, -3522.64, -3520.05, -3064.78, 0.000, 0.000, 0.000, 14:06:17.985
40, -3817.98, -3573.00, -3552.92, -3081.02, 0.000, 0.000, 0.000, 14:06:17.985
41, -3697.47, -3539.55, -3459.45, -2984.42, 0.000, 0.000, 0.000, 14:06:17.985
42, -3622.52, -3524.96, -3422.74, -2943.76, 0.000, 0.000, 0.000, 14:06:17.985
43, -3919.40, -3525.62, -3528.24, -3076.97, 0.000, 0.000, 0.000, 14:06:17.986
44, -3932.27, -3572.55, -3548.99, -3068.86, 0.000, 0.000, 0.000, 14:06:17.986
45, -3613.40, -3546.84, -3440.61, -2939.77, 0.000, 0.000, 0.000, 14:06:17.987
46, -3429.76, -3515.57, -3386.39, -2972.70, 0.000, 0.000, 0.000, 14:06:17.987
47, -3784.51, -3492.90, -3509.10, -3108.80, 0.000, 0.000, 0.000, 14:06:18.000
48, -3814.86, -3581.76, -3559.34, -3067.04, 0.000, 0.000, 0.000, 14:06:18.000
49, -3607.21, -3564.51, -3475.52, -2957.89, 0.000, 0.000, 0.000, 14:06:18.045
50, -3586.56, -3480.56, -3397.61, -2904.45, 0.000, 0.000, 0.000, 14:06:18.045
51, -3874.29, -3499.06, -3504.75, -3091.66, 0.000, 0.000, 0.000, 14:06:18.045
52, -3920.22, -3572.85, -3539.98, -3116.42, 0.000, 0.000, 0.000, 14:06:18.045
53, -3626.85, -3559.28, -3463.97, -2987.12, 0.000, 0.000, 0.000, 14:06:18.046
54, -3554.19, -3486.55, -3389.15, -2913.06, 0.000, 0.000, 0.000, 14:06:18.046
55, -3824.13, -3527.45, -3532.60, -3118.02, 0.000, 0.000, 0.000, 14:06:18.047
56, -3893.69, -3574.30, -3536.73, -3069.02, 0.000, 0.000, 0.000, 14:06:18.047
57, -3597.98, -3534.98, -3451.77, -2947.35, 0.000, 0.000, 0.000, 14:06:18.047
58, -3516.29, -3501.78, -3411.01, -2917.47, 0.000, 0.000, 0.000, 14:06:18.047
59, -3843.14, -3526.19, -3527.42, -3090.20, 0.000, 0.000, 0.000, 14:06:18.076
60, -3855.86, -3566.26, -3543.24, -3092.69, 0.000, 0.000, 0.000, 14:06:18.076
61, -3675.82, -3555.82, -3466.73, -2990.13, 0.000, 0.000, 0.000, 14:06:18.076
62, -3620.45, -3498.20, -3398.86, -2876.13, 0.000, 0.000, 0.000, 14:06:18.076
63, -3889.63, -3526.98, -3536.65, -3037.78, 0.000, 0.000, 0.000, 14:06:18.090
64, -3824.36, -3581.26, -3561.88, -3079.36, 0.000, 0.000, 0.000, 14:06:18.090
65, -3654.84, -3551.58, -3475.13, -2985.89, 0.000, 0.000, 0.000, 14:06:18.091
66, -3587.70, -3490.96, -3377.15, -2932.68, 0.000, 0.000, 0.000, 14:06:18.091
67, -3733.51, -3527.97, -3550.60, -3078.89, 0.000, 0.000, 0.000, 14:06:18.105
68, -3886.24, -3596.00, -3550.39, -3110.19, 0.000, 0.000, 0.000, 14:06:18.105
69, -3675.08, -3549.14, -3446.59, -2962.17, 0.000, 0.000, 0.000, 14:06:18.120
70, -3526.71, -3503.48, -3412.93, -2932.27, 0.000, 0.000, 0.000, 14:06:18.120
71, -3746.39, -3523.33, -3531.71, -3076.34, 0.000, 0.000, 0.000, 14:06:18.120
72, -3881.98, -3596.18, -3550.76, -3045.38, 0.000, 0.000, 0.000, 14:06:18.120
73, -3541.94, -3544.08, -3430.79, -2991.47, 0.000, 0.000, 0.000, 14:06:18.135
74, -3595.75, -3506.62, -3440.86, -2972.26, 0.000, 0.000, 0.000, 14:06:18.135
75, -3839.65, -3533.07, -3553.31, -3044.84, 0.000, 0.000, 0.000, 14:06:18.150
76, -3862.49, -3564.14, -3516.29, -3061.67, 0.000, 0.000, 0.000, 14:06:18.150
77, -3677.48, -3551.03, -3455.67, -3004.98, 0.000, 0.000, 0.000, 14:06:18.151
78, -3526.29, -3520.41, -3415.18, -2944.92, 0.000, 0.000, 0.000, 14:06:18.151
79, -3834.56, -3519.06, -3523.88, -3052.27, 0.000, 0.000, 0.000, 14:06:18.165
80, -3902.87, -3573.58, -3557.07, -3079.88, 0.000, 0.000, 0.000, 14:06:18.165
81, -3610.61, -3551.31, -3459.85, -3006.91, 0.000, 0.000, 0.000, 14:06:18.180
82, -3526.77, -3520.78, -3457.13, -2900.83, 0.000, 0.000, 0.000, 14:06:18.180
83, -3783.97, -3566.42, -3515.23, -3151.55, 0.000, 0.000, 0.000, 14:06:18.181
84, -3808.54, -3578.02, -3529.50, -3027.05, 0.000, 0.000, 0.000, 14:06:18.181
85, -3716.78, -3564.61, -3471.55, -2951.50, 0.000, 0.000, 0.000, 14:06:18.195
86, -3449.56, -3464.47, -3383.26, -2940.39, 0.000, 0.000, 0.000, 14:06:18.196
87, -3888.06, -3523.96, -3569.74, -3061.84, 0.000, 0.000, 0.000, 14:06:18.210
88, -3885.08, -3621.29, -3527.53, -3100.18, 0.000, 0.000, 0.000, 14:06:18.210
89, -3641.76, -3564.54, -3477.52, -2996.08, 0.000, 0.000, 0.000, 14:06:18.211
90, -3614.99, -3509.29, -3410.28, -2945.61, 0.000, 0.000, 0.000, 14:06:18.211
91, -3883.88, -3523.53, -3537.00, -3066.29, 0.000, 0.000, 0.000, 14:06:18.226
92, -3849.46, -3578.01, -3549.24, -3063.46, 0.000, 0.000, 0.000, 14:06:18.226
93, -3689.47, -3528.55, -3427.61, -2982.04, 0.000, 0.000, 0.000, 14:06:18.240
94, -3549.28, -3513.69, -3432.72, -2959.51, 0.000, 0.000, 0.000, 14:06:18.240
95, -3763.39, -3522.15, -3549.50, -3126.99, 0.000, 0.000, 0.000, 14:06:18.241
96, -3791.88, -3599.32, -3558.77, -3109.52, 0.000, 0.000, 0.000, 14:06:18.241
97, -3731.03, -3578.67, -3450.79, -2971.15, 0.000, 0.000, 0.000, 14:06:18.255
98, -3498.73, -3482.74, -3403.22, -2916.42, 0.000, 0.000, 0.000, 14:06:18.255
99, -3795.46, -3547.20, -3508.44, -3063.50, 0.000, 0.000, 0.000, 14:06:18.300
100, -3861.07, -3574.53, -3551.79, -3029.22, 0.000, 0.000, 0.000, 14:06:18.300
101, -3719.67, -3574.73, -3483.32, -3006.42, 0.000, 0.000, 0.000, 14:06:18.300
102, -3503.91, -3496.54, -3394.00, -3014.80, 0.000, 0.000, 0.000, 14:06:18.300
103, -3899.81, -3537.43, -3574.66, -3037.87, 0.000, 0.000, 0.000, 14:06:18.301
104, -3846.90, -3598.86, -3518.01, -3091.77, 0.000, 0.000, 0.000, 14:06:18.301
105, -3692.23, -3567.50, -3492.60, -3048.04, 0.000, 0.000, 0.000, 14:06:18.302
106, -3582.01, -3492.70, -3414.84, -2888.14, 0.000, 0.000, 0.000, 14:06:18.302
107, -3791.56, -3534.25, -3531.28, -3062.72, 0.000, 0.000, 0.000, 14:06:18.309
108, -3856.95, -3595.95, -3531.06, -3098.09, 0.000, 0.000, 0.000, 14:06:18.310
109, -3653.71, -3563.44, -3430.98, -2970.73, 0.000, 0.000, 0.000, 14:06:18.315
110, -3615.80, -3497.49, -3429.68, -2949.97, 0.000, 0.000, 0.000, 14:06:18.315
111, -3867.55, -3538.39, -3508.70, -3095.75, 0.000, 0.000, 0.000, 14:06:18.331
112, -3918.50, -3595.62, -3602.39, -3103.85, 0.000, 0.000, 0.000, 14:06:18.331
113, -3529.65, -3518.33, -3455.56, -2936.12, 0.000, 0.000, 0.000, 14:06:18.345
114, -3594.74, -3483.42, -3367.58, -2924.63, 0.000, 0.000, 0.000, 14:06:18.346
115, -3886.77, -3513.43, -3512.30, -3095.70, 0.000, 0.000, 0.000, 14:06:18.346
116, -3819.39, -3570.82, -3571.93, -3056.39, 0.000, 0.000, 0.000, 14:06:18.346
117, -3597.72, -3555.19, -3443.15, -2948.91, 0.000, 0.000, 0.000, 14:06:18.360
118, -3584.98, -3490.36, -3388.86, -2906.01, 0.000, 0.000, 0.000, 14:06:18.360
119, -3844.83, -3533.35, -3522.96, -3081.30, 0.000, 0.000, 0.000, 14:06:18.361
120, -3866.69, -3593.48, -3532.11, -3080.14, 0.000, 0.000, 0.000, 14:06:18.361
121, -3553.99, -3533.75, -3456.69, -2931.44, 0.000, 0.000, 0.000, 14:06:18.375
122, -3538.10, -3495.94, -3382.60, -2961.80, 0.000, 0.000, 0.000, 14:06:18.375
123, -3965.50, -3570.75, -3601.35, -3144.16, 0.000, 0.000, 0.000, 14:06:18.390
124, -3947.22, -3604.78, -3561.29, -3066.93, 0.000, 0.000, 0.000, 14:06:18.391
125, -3756.42, -3597.48, -3473.96, -3048.99, 0.000, 0.000, 0.000, 14:06:18.391
126, -3550.84, -3512.49, -3449.52, -2965.57, 0.000, 0.000, 0.000, 14:06:18.391
127, -3933.72, -3545.09, -3531.28, -3061.67, 0.000, 0.000, 0.000, 14:06:18.435
128, -3836.36, -3584.67, -3579.10, -3063.10, 0.000, 0.000, 0.000, 14:06:18.435
129, -3725.82, -3593.18, -3472.43, -3024.21, 0.000, 0.000, 0.000, 14:06:18.436
130, -3526.50, -3519.40, -3432.04, -2948.41, 0.000, 0.000, 0.000, 14:06:18.436
131, -3872.82, -3540.49, -3560.24, -3085.91, 0.000, 0.000, 0.000, 14:06:18.436
132, -3815.03, -3558.96, -3520.69, -3063.31, 0.000, 0.000, 0.000, 14:06:18.436
133, -3683.40, -3579.43, -3467.90, -2970.42, 0.000, 0.000, 0.000, 14:06:18.437
134, -3501.46, -3514.38, -3418.93, -2925.35, 0.000, 0.000, 0.000, 14:06:18.437
135, -3912.45, -3550.29, -3540.77, -3085.02, 0.000, 0.000, 0.000, 14:06:18.438
136, -3822.45, -3573.71, -3541.86, -3065.06, 0.000, 0.000, 0.000, 14:06:18.438
137, -3575.87, -3586.19, -3489.52, -3013.70, 0.000, 0.000, 0.000, 14:06:18.450
138, -3499.40, -3494.40, -3403.96, -2939.00, 0.000, 0.000, 0.000, 14:06:18.450
139, -3896.08, -3529.88, -3551.03, -3097.45, 0.000, 0.000, 0.000, 14:06:18.465
140, -3837.20, -3593.26, -3571.97, -3067.73, 0.000, 0.000, 0.000, 14:06:18.465
141, -3579.06, -3558.40, -3466.08, -2984.17, 0.000, 0.000, 0.000, 14:06:18.480
142, -3642.02, -3518.72, -3423.37, -2964.31, 0.000, 0.000, 0.000, 14:06:18.480
143, -3916.41, -3534.92, -3555.30, -3086.55, 0.000, 0.000, 0.000, 14:06:18.480
144, -3799.40, -3575.47, -3548.41, -3096.59, 0.000, 0.000, 0.000, 14:06:18.481
145, -3617.06, -3564.21, -3465.14, -2959.19, 0.000, 0.000, 0.000, 14:06:18.510
146, -3450.79, -3506.12, -3429.36, -2965.43, 0.000, 0.000, 0.000, 14:06:18.510
147, -3783.02, -3546.44, -3562.46, -3123.43, 0.000, 0.000, 0.000, 14:06:18.511
148, -3909.09, -3587.56, -3548.56, -3066.63, 0.000, 0.000, 0.000, 14:06:18.511
149, -3715.38, -3566.43, -3471.27, -2985.07, 0.000, 0.000, 0.000, 14:06:18.511
150, -3609.34, -3490.10, -3426.50, -2857.56, 0.000, 0.000, 0.000, 14:06:18.511
151, -3888.12, -3513.06, -3536.56, -3050.54, 0.000, 0.000, 0.000, 14:06:18.540
152, -3797.84, -3569.07, -3548.29, -3053.93, 0.000, 0.000, 0.000, 14:06:18.540
153, -3650.85, -3572.87, -3466.06, -2958.14, 0.000, 0.000, 0.000, 14:06:18.541
154, -3547.66, -3510.27, -3437.93, -2961.55, 0.000, 0.000, 0.000, 14:06:18.541
155, -3817.48, -3528.66, -3539.37, -3138.83, 0.000, 0.000, 0.000, 14:06:18.541
156, -3863.93, -3586.36, -3564.28, -3065.20, 0.000, 0.000, 0.000, 14:06:18.541
157, -3603.64, -3559.30, -3468.64, -2963.72, 0.000, 0.000, 0.000, 14:06:18.555
158, -3573.76, -3520.41, -3437.84, -2967.63, 0.000, 0.000, 0.000, 14:06:18.555
159, -3812.58, -3525.96, -3532.62, -3103.84, 0.000, 0.000, 0.000, 14:06:18.599
160, -3845.60, -3589.85, -3545.66, -3054.81, 0.000, 0.000, 0.000, 14:06:18.599
161, -3631.06, -3576.39, -3478.96, -2990.67, 0.000, 0.000, 0.000, 14:06:18.601
162, -3583.57, -3521.66, -3444.06, -2965.62, 0.000, 0.000, 0.000, 14:06:18.601
163, -3879.61, -3546.91, -3567.79, -3112.82, 0.000, 0.000, 0.000, 14:06:18.601
164, -3856.37, -3587.96, -3554.21, -3124.44, 0.000, 0.000, 0.000, 14:06:18.602
165, -3627.64, -3560.50, -3461.60, -2978.89, 0.000, 0.000, 0.000, 14:06:18.602
166, -3581.61, -3494.36, -3433.75, -2966.34, 0.000, 0.000, 0.000, 14:06:18.603
167, -3819.25, -3550.21, -3553.16, -3058.19, 0.000, 0.000, 0.000, 14:06:18.611
168, -3825.30, -3584.84, -3542.14, -3054.75, 0.000, 0.000, 0.000, 14:06:18.612
169, -3647.66, -3582.56, -3478.59, -2995.50, 0.000, 0.000, 0.000, 14:06:18.630
170, -3590.92, -3522.05, -3435.21, -2956.17, 0.000, 0.000, 0.000, 14:06:18.630
171, -3830.94, -3547.89, -3550.67, -3100.42, 0.000, 0.000, 0.000, 14:06:18.630
172, -3836.79, -3587.05, -3558.72, -3072.93, 0.000, 0.000, 0.000, 14:06:18.630
173, -3657.17, -3554.82, -3460.25, -2979.24, 0.000, 0.000, 0.000, 14:06:18.631
174, -3516.30, -3484.67, -3404.54, -2925.70, 0.000, 0.000, 0.000, 14:06:18.631
175, -3863.31, -3529.19, -3550.89, -3078.87, 0.000, 0.000, 0.000, 14:06:18.646
176, -3845.04, -3583.24, -3561.82, -3085.59, 0.000, 0.000, 0.000, 14:06:18.646
177, -3628.53, -3585.88, -3469.02, -2962.65, 0.000, 0.000, 0.000, 14:06:18.660
178, -3587.84, -3518.56, -3440.61, -2927.28, 0.000, 0.000, 0.000, 14:06:18.660
179, -3829.46, -3528.10, -3550.42, -3108.09, 0.000, 0.000, 0.000, 14:06:18.661
180, -3852.66, -3567.59, -3527.93, -3080.22, 0.000, 0.000, 0.000, 14:06:18.661
181, -3590.65, -3551.26, -3439.13, -2947.15, 0.000, 0.000, 0.000, 14:06:18.676
182, -3536.62, -3506.00, -3411.08, -2956.03, 0.000, 0.000, 0.000, 14:06:18.676
183, -3905.23, -3570.54, -3576.27, -3106.36, 0.000, 0.000, 0.000, 14:06:18.690
184, -3804.94, -3571.14, -3541.33, -3079.51, 0.000, 0.000, 0.000, 14:06:18.690
185, -3670.57, -3554.93, -3447.28, -2981.47, 0.000, 0.000, 0.000, 14:06:18.720
186, -3552.47, -3489.52, -3411.75, -2941.98, 0.000, 0.000, 0.000, 14:06:18.720
187, -3859.58, -3533.00, -3549.79, -3107.07, 0.000, 0.000, 0.000, 14:06:18.720
188, -3798.87, -3564.28, -3525.85, -3024.30, 0.000, 0.000, 0.000, 14:06:18.720
189, -3632.08, -3552.53, -3452.64, -2948.53, 0.000, 0.000, 0.000, 14:06:18.721
190, -3573.87, -3496.37, -3422.92, -2961.05, 0.000, 0.000, 0.000, 14:06:18.721
191, -3828.88, -3535.22, -3544.39, -3090.49, 0.000, 0.000, 0.000, 14:06:18.722
192, -3835.06, -3573.96, -3547.86, -3052.93, 0.000, 0.000, 0.000, 14:06:18.722
193, -3630.84, -3562.08, -3464.65, -2948.79, 0.000, 0.000, 0.000, 14:06:18.734
194, -3569.33, -3536.13, -3428.06, -2921.56, 0.000, 0.000, 0.000, 14:06:18.735
195, -3838.84, -3532.19, -3538.74, -3094.63, 0.000, 0.000, 0.000, 14:06:18.750
196, -3852.97, -3588.46, -3541.51, -3074.46, 0.000, 0.000, 0.000, 14:06:18.750
197, -3611.41, -3549.34, -3444.72, -2949.55, 0.000, 0.000, 0.000, 14:06:18.751
198, -3626.42, -3513.08, -3433.73, -2974.32, 0.000, 0.000, 0.000, 14:06:18.751
199, -3873.96, -3531.71, -3546.10, -3094.39, 0.000, 0.000, 0.000, 14:06:18.765
200, -3795.44, -3571.32, -3529.33, -3012.57, 0.000, 0.000, 0.000, 14:06:18.765
0, -3590.85, -3578.22, -3464.92, -2988.97, 0.000, 0.000, 0.000, 14:06:18.765
1, -3528.37, -3500.15, -3438.99, -2972.53, 0.000, 0.000, 0.000, 14:06:18.779
2, -3861.65, -3549.30, -3549.94, -3089.91, 0.000, 0.000, 0.000, 14:06:18.779
3, -3816.50, -3585.27, -3534.32, -3090.39, 0.000, 0.000, 0.000, 14:06:18.796
4, -3593.38, -3571.07, -3452.31, -2941.52, 0.000, 0.000, 0.000, 14:06:18.796
5, -3576.57, -3495.98, -3410.58, -2919.16, 0.000, 0.000, 0.000, 14:06:18.796
6, -3852.56, -3519.19, -3529.59, -3079.43, 0.000, 0.000, 0.000, 14:06:18.796
7, -3845.52, -3597.78, -3553.63, -3062.59, 0.000, 0.000, 0.000, 14:06:18.811
8, -3636.22, -3579.27, -3478.06, -2994.27, 0.000, 0.000, 0.000, 14:06:18.811
9, -3549.76, -3500.33, -3415.70, -2913.61, 0.000, 0.000, 0.000, 14:06:18.840
10, -3864.81, -3515.72, -3533.23, -3084.62, 0.000, 0.000, 0.000, 14:06:18.840
11, -3825.77, -3582.04, -3546.06, -3057.77, 0.000, 0.000, 0.000, 14:06:18.841
12, -3657.52, -3586.89, -3490.59, -2974.03, 0.000, 0.000, 0.000, 14:06:18.841
13, -3583.51, -3520.03, -3427.43, -2972.19, 0.000, 0.000, 0.000, 14:06:18.842
14, -3863.07, -3526.87, -3546.08, -3091.53, 0.000, 0.000, 0.000, 14:06:18.842
15, -3902.35, -3578.39, -3542.00, -3079.41, 0.000, 0.000, 0.000, 14:06:18.842
16, -3608.99, -3575.61, -3446.58, -2943.68, 0.000, 0.000, 0.000, 14:06:18.843
17, -3554.28, -3507.84, -3405.35, -2974.04, 0.000, 0.000, 0.000, 14:06:18.855
18, -3802.49, -3551.53, -3553.34, -3147.40, 0.000, 0.000, 0.000, 14:06:18.857
19, -3842.66, -3590.48, -3542.12, -3039.19, 0.000, 0.000, 0.000, 14:06:18.870
20, -3588.64, -3562.98, -3439.34, -2929.99, 0.000, 0.000, 0.000, 14:06:18.870
21, -3580.87, -3515.36, -3434.85, -2984.13, 0.000, 0.000, 0.000, 14:06:18.885
22, -3844.98, -3514.32, -3535.01, -3085.70, 0.000, 0.000, 0.000, 14:06:18.885
23, -3852.89, -3577.54, -3526.18, -3040.71, 0.000, 0.000, 0.000, 14:06:18.886
24, -3601.15, -3580.24, -3464.38, -2983.28, 0.000, 0.000, 0.000, 14:06:18.886
25, -3584.29, -3507.21, -3429.48, -2943.29, 0.000, 0.000, 0.000, 14:06:18.900
26, -3850.83, -3528.01, -3546.83, -3096.92, 0.000, 0.000, 0.000, 14:06:18.900
27, -3718.86, -3592.34, -3552.80, -3067.25, 0.000, 0.000, 0.000, 14:06:18.915
28, -3601.09, -3573.34, -3451.24, -2927.75, 0.000, 0.000, 0.000, 14:06:18.915
29, -3628.92, -3502.38, -3418.66, -2945.81, 0.000, 0.000, 0.000, 14:06:18.915
30, -3874.81, -3549.72, -3561.77, -3113.23, 0.000, 0.000, 0.000, 14:06:18.915
31, -3743.99, -3595.61, -3564.50, -3057.56, 0.000, 0.000, 0.000, 14:06:18.944
32, -3519.52, -3577.13, -3457.02, -2986.97, 0.000, 0.000, 0.000, 14:06:18.944
33, -3545.52, -3492.57, -3427.87, -2933.17, 0.000, 0.000, 0.000, 14:06:18.945
34, -3976.65, -3551.03, -3549.65, -3098.55, 0.000, 0.000, 0.000, 14:06:18.945
35, -3831.55, -3582.03, -3542.68, -3047.36, 0.000, 0.000, 0.000, 14:06:18.946
36, -3629.89, -3557.85, -3436.06, -2929.76, 0.000, 0.000, 0.000, 14:06:18.946
37, -3626.53, -3490.59, -3425.19, -2959.10, 0.000, 0.000, 0.000, 14:06:18.975
38, -3860.75, -3537.62, -3550.53, -3131.48, 0.000, 0.000, 0.000, 14:06:18.975
39, -3766.37, -3581.17, -3536.49, -3071.36, 0.000, 0.000, 0.000, 14:06:18.975
40, -3631.20, -3537.61, -3434.01, -2918.94, 0.000, 0.000, 0.000, 14:06:18.976
41, -3629.37, -3499.46, -3430.68, -2956.50, 0.000, 0.000, 0.000, 14:06:18.976
42, -3917.13, -3548.69, -3562.44, -3132.28, 0.000, 0.000, 0.000, 14:06:18.976
43, -3758.34, -3592.80, -3548.54, -3063.68, 0.000, 0.000, 0.000, 14:06:18.990
44, -3663.81, -3556.59, -3437.79, -2961.04, 0.000, 0.000, 0.000, 14:06:18.990
45, -3595.89, -3482.97, -3411.17, -2928.71, 0.000, 0.000, 0.000, 14:06:19.004
46, -3897.09, -3543.89, -3561.32, -3111.61, 0.000, 0.000, 0.000, 14:06:19.005
47, -3739.71, -3573.14, -3538.94, -3027.20, 0.000, 0.000, 0.000, 14:06:19.005
48, -3626.53, -3537.34, -3425.85, -2936.63, 0.000, 0.000, 0.000, 14:06:19.005
49, -3565.20, -3476.99, -3419.34, -2946.32, 0.000, 0.000, 0.000, 14:06:19.020
50, -3957.01, -3555.16, -3571.56, -3098.72, 0.000, 0.000, 0.000, 14:06:19.020
51, -3799.45, -3584.08, -3539.62, -3019.42, 0.000, 0.000, 0.000, 14:06:19.035
52, -3588.46, -3557.66, -3440.88, -2956.03, 0.000, 0.000, 0.000, 14:06:19.035
53, -3492.58, -3495.46, -3427.94, -2963.55, 0.000, 0.000, 0.000, 14:06:19.036
54, -3938.46, -3541.22, -3577.07, -3097.06, 0.000, 0.000, 0.000, 14:06:19.036
55, -3825.26, -3599.42, -3552.54, -3075.56, 0.000, 0.000, 0.000, 14:06:19.050
56, -3506.88, -3548.21, -3422.51, -2920.08, 0.000, 0.000, 0.000, 14:06:19.050
57, -3582.27, -3492.33, -3404.08, -2949.92, 0.000, 0.000, 0.000, 14:06:19.065
58, -3823.64, -3588.79, -3571.79, -3141.34, 0.000, 0.000, 0.000, 14:06:19.065
59, -3837.49, -3611.54, -3540.04, -3056.41, 0.000, 0.000, 0.000, 14:06:19.065
60, -3609.63, -3577.23, -3427.34, -2944.96, 0.000, 0.000, 0.000, 14:06:19.065
61, -3554.99, -3490.29, -3427.44, -2884.52, 0.000, 0.000, 0.000, 14:06:19.095
62, -3941.06, -3597.99, -3559.40, -3101.99, 0.000, 0.000, 0.000, 14:06:19.095
63, -3896.61, -3585.10, -3545.48, -3029.02, 0.000, 0.000, 0.000, 14:06:19.095
64, -3590.27, -3551.66, -3422.39, -2980.28, 0.000, 0.000, 0.000, 14:06:19.095
65, -3446.96, -3525.14, -3391.70, -2932.68, 0.000, 0.000, 0.000, 14:06:19.096
66, -3849.64, -3584.43, -3554.00, -3142.88, 0.000, 0.000, 0.000, 14:06:19.096
67, -3795.08, -3640.10, -3543.54, -3125.76, 0.000, 0.000, 0.000, 14:06:19.110
68, -3371.04, -3606.76, -3402.68, -2879.55, 0.000, 0.000, 0.000, 14:06:19.111
69, -3267.65, -3553.87, -3379.31, -2905.43, 0.000, 0.000, 0.000, 14:06:19.125
70, -3754.97, -3651.56, -3563.98, -3064.82, 0.000, 0.000, 0.000, 14:06:19.126
71, -3670.82, -3694.21, -3553.86, -3050.63, 0.000, 0.000, 0.000, 14:06:19.155
72, -3423.11, -3642.76, -3423.27, -2889.99, 0.000, 0.000, 0.000, 14:06:19.155
73, -3436.66, -3547.26, -3384.62, -2881.28, 0.000, 0.000, 0.000, 14:06:19.156
74, -3811.87, -3639.20, -3576.52, -3104.78, 0.000, 0.000, 0.000, 14:06:19.156
75, -3802.76, -3655.95, -3568.84, -3059.40, 0.000, 0.000, 0.000, 14:06:19.156
76, -3502.62, -3574.01, -3426.52, -2948.37, 0.000, 0.000, 0.000, 14:06:19.156
77, -3597.67, -3502.67, -3418.52, -2946.06, 0.000, 0.000, 0.000, 14:06:19.158
78, -3983.19, -3583.67, -3598.95, -3155.42, 0.000, 0.000, 0.000, 14:06:19.158
79, -3824.95, -3609.10, -3558.43, -3123.58, 0.000, 0.000, 0.000, 14:06:19.170
80, -3628.82, -3558.33, -3432.36, -2931.83, 0.000, 0.000, 0.000, 14:06:19.170
81, -3679.32, -3466.95, -3428.31, -2946.53, 0.000, 0.000, 0.000, 14:06:19.185
82, -3995.85, -3536.25, -3588.18, -3153.33, 0.000, 0.000, 0.000, 14:06:19.185
83, -3925.73, -3571.87, -3559.09, -3075.37, 0.000, 0.000, 0.000, 14:06:19.185
84, -3623.31, -3515.80, -3417.46, -2922.78, 0.000, 0.000, 0.000, 14:06:19.185
85, -3595.92, -3467.81, -3428.13, -2952.40, 0.000, 0.000, 0.000, 14:06:19.229
86, -3989.34, -3534.46, -3569.91, -3132.65, 0.000, 0.000, 0.000, 14:06:19.229
87, -3978.52, -3573.51, -3569.72, -3045.83, 0.000, 0.000, 0.000, 14:06:19.230
88, -3586.49, -3515.58, -3431.30, -2907.96, 0.000, 0.000, 0.000, 14:06:19.230
89, -3594.14, -3439.09, -3404.82, -2911.22, 0.000, 0.000, 0.000, 14:06:19.230
90, -3975.38, -3536.08, -3582.43, -3138.01, 0.000, 0.000, 0.000, 14:06:19.231
91, -3964.34, -3575.51, -3571.01, -3113.63, 0.000, 0.000, 0.000, 14:06:19.244
92, -3620.47, -3532.50, -3430.71, -2946.73, 0.000, 0.000, 0.000, 14:06:19.245
93, -3533.63, -3460.61, -3413.89, -2972.11, 0.000, 0.000, 0.000, 14:06:19.245
94, -4014.46, -3551.21, -3592.75, -3148.79, 0.000, 0.000, 0.000, 14:06:19.245
95, -3936.50, -3577.66, -3559.38, -3083.17, 0.000, 0.000, 0.000, 14:06:19.246
96, -3598.78, -3528.31, -3431.97, -2958.78, 0.000, 0.000, 0.000, 14:06:19.246
97, -3619.27, -3456.94, -3411.24, -2934.51, 0.000, 0.000, 0.000, 14:06:19.275
98, -3978.03, -3561.51, -3599.88, -3133.70, 0.000, 0.000, 0.000, 14:06:19.275
99, -3862.49, -3586.26, -3559.82, -3069.08, 0.000, 0.000, 0.000, 14:06:19.275
100, -3490.93, -3510.82, -3409.46, -2917.78, 0.000, 0.000, 0.000, 14:06:19.275
101, -3531.86, -3466.48, -3416.99, -2964.76, 0.000, 0.000, 0.000, 14:06:19.291
102, -3857.19, -3554.17, -3590.80, -3136.66, 0.000, 0.000, 0.000, 14:06:19.291
103, -3782.21, -3586.19, -3559.91, -3063.17, 0.000, 0.000, 0.000, 14:06:19.291
104, -3521.76, -3530.66, -3417.83, -2949.40, 0.000, 0.000, 0.000, 14:06:19.292
105, -3676.61, -3461.61, -3405.82, -2955.17, 0.000, 0.000, 0.000, 14:06:19.305
106, -4061.90, -3575.09, -3606.02, -3159.66, 0.000, 0.000, 0.000, 14:06:19.305
107, -3915.45, -3600.67, -3563.18, -3083.95, 0.000, 0.000, 0.000, 14:06:19.305
108, -3519.27, -3529.42, -3418.55, -2947.97, 0.000, 0.000, 0.000, 14:06:19.305
109, -3630.30, -3446.69, -3387.30, -2924.71, 0.000, 0.000, 0.000, 14:06:19.320
110, -3992.34, -3570.86, -3596.38, -3153.62, 0.000, 0.000, 0.000, 14:06:19.320
111, -3849.44, -3591.02, -3551.86, -3067.60, 0.000, 0.000, 0.000, 14:06:19.335
112, -3553.00, -3533.14, -3413.24, -2897.86, 0.000, 0.000, 0.000, 14:06:19.335
113, -3591.87, -3479.99, -3422.31, -2966.66, 0.000, 0.000, 0.000, 14:06:19.336
114, -3940.52, -3561.93, -3578.81, -3141.22, 0.000, 0.000, 0.000, 14:06:19.336
115, -3835.81, -3619.78, -3565.78, -3091.12, 0.000, 0.000, 0.000, 14:06:19.350
116, -3497.40, -3517.25, -3403.62, -2906.85, 0.000, 0.000, 0.000, 14:06:19.350
117, -3564.31, -3455.12, -3400.10, -2949.28, 0.000, 0.000, 0.000, 14:06:19.365
118, -3887.59, -3573.65, -3597.39, -3150.51, 0.000, 0.000, 0.000, 14:06:19.365
119, -3813.14, -3603.21, -3556.78, -3073.65, 0.000, 0.000, 0.000, 14:06:19.366
120, -3482.99, -3526.68, -3405.79, -2920.31, 0.000, 0.000, 0.000, 14:06:19.366
121, -3610.31, -3476.68, -3418.01, -2990.01, 0.000, 0.000, 0.000, 14:06:19.380
122, -3961.09, -3580.69, -3599.24, -3195.09, 0.000, 0.000, 0.000, 14:06:19.380
123, -3945.05, -3610.58, -3543.67, -3039.90, 0.000, 0.000, 0.000, 14:06:19.394
124, -3620.49, -3526.25, -3397.10, -2905.37, 0.000, 0.000, 0.000, 14:06:19.395
125, -3573.25, -3469.09, -3404.95, -2920.67, 0.000, 0.000, 0.000, 14:06:19.395
126, -3929.42, -3594.98, -3602.50, -3139.65, 0.000, 0.000, 0.000, 14:06:19.395
127, -3818.09, -3606.28, -3566.10, -3093.13, 0.000, 0.000, 0.000, 14:06:19.410
128, -3544.44, -3528.39, -3424.14, -2942.31, 0.000, 0.000, 0.000, 14:06:19.410
129, -3609.16, -3481.41, -3424.32, -2935.27, 0.000, 0.000, 0.000, 14:06:19.426
130, -3898.24, -3578.95, -3589.84, -3105.98, 0.000, 0.000, 0.000, 14:06:19.426
131, -3815.23, -3624.48, -3554.62, -3088.50, 0.000, 0.000, 0.000, 14:06:19.426
132, -3514.23, -3519.67, -3392.32, -2862.33, 0.000, 0.000, 0.000, 14:06:19.426
133, -3602.60, -3480.29, -3421.64, -2892.49, 0.000, 0.000, 0.000, 14:06:19.455
134, -4020.49, -3598.33, -3595.99, -3139.63, 0.000, 0.000, 0.000, 14:06:19.455
135, -3904.63, -3601.15, -3545.99, -3072.66, 0.000, 0.000, 0.000, 14:06:19.456
136, -3509.28, -3515.38, -3392.52, -2861.06, 0.000, 0.000, 0.000, 14:06:19.456
137, -3570.41, -3479.83, -3425.70, -2999.15, 0.000, 0.000, 0.000, 14:06:19.456
138, -3931.92, -3582.52, -3601.70, -3174.83, 0.000, 0.000, 0.000, 14:06:19.456
139, -3847.86, -3592.52, -3550.06, -3094.94, 0.000, 0.000, 0.000, 14:06:19.470
140, -3497.30, -3523.79, -3391.97, -2932.45, 0.000, 0.000, 0.000, 14:06:19.470
141, -3551.51, -3457.15, -3403.61, -2935.03, 0.000, 0.000, 0.000, 14:06:19.485
142, -3962.96, -3601.59, -3622.29, -3189.53, 0.000, 0.000, 0.000, 14:06:19.485
143, -3834.41, -3611.09, -3557.42, -3079.69, 0.000, 0.000, 0.000, 14:06:19.492
144, -3542.25, -3528.43, -3389.18, -2943.43, 0.000, 0.000, 0.000, 14:06:19.492
145, -3567.34, -3458.91, -3394.22, -2927.53, 0.000, 0.000, 0.000, 14:06:19.500
146, -3974.71, -3594.77, -3614.84, -3165.75, 0.000, 0.000, 0.000, 14:06:19.500
147, -3833.36, -3613.54, -3564.43, -3089.25, 0.000, 0.000, 0.000, 14:06:19.530
148, -3495.10, -3527.48, -3411.38, -2926.12, 0.000, 0.000, 0.000, 14:06:19.530
149, -3661.76, -3490.14, -3435.64, -2930.97, 0.000, 0.000, 0.000, 14:06:19.531
150, -3968.40, -3577.93, -3585.31, -3103.85, 0.000, 0.000, 0.000, 14:06:19.531
151, -3853.17, -3613.57, -3561.55, -3097.17, 0.000, 0.000, 0.000, 14:06:19.531
152, -3518.94, -3525.44, -3404.03, -2880.97, 0.000, 0.000, 0.000, 14:06:19.531
153, -3563.44, -3447.36, -3392.26, -2931.61, 0.000, 0.000, 0.000, 14:06:19.532
154, -3934.70, -3592.45, -3596.37, -3141.22, 0.000, 0.000, 0.000, 14:06:19.532
155, -3832.65, -3617.61, -3550.87, -3027.22, 0.000, 0.000, 0.000, 14:06:19.545
156, -3516.33, -3534.87, -3406.80, -2920.17, 0.000, 0.000, 0.000, 14:06:19.545
157, -3590.26, -3468.16, -3427.12, -2993.42, 0.000, 0.000, 0.000, 14:06:19.560
158, -3931.72, -3572.81, -3588.97, -3137.93, 0.000, 0.000, 0.000, 14:06:19.560
159, -3798.49, -3585.37, -3541.89, -3041.28, 0.000, 0.000, 0.000, 14:06:19.574
160, -3542.50, -3535.96, -3419.04, -2915.81, 0.000, 0.000, 0.000, 14:06:19.575
161, -3582.58, -3472.81, -3422.93, -2958.56, 0.000, 0.000, 0.000, 14:06:19.575
162, -3957.27, -3606.49, -3612.72, -3156.65, 0.000, 0.000, 0.000, 14:06:19.575
163, -3854.13, -3612.02, -3554.58, -3051.41, 0.000, 0.000, 0.000, 14:06:19.591
164, -3580.64, -3522.29, -3394.26, -2891.12, 0.000, 0.000, 0.000, 14:06:19.591
165, -3669.92, -3467.23, -3420.79, -2962.31, 0.000, 0.000, 0.000, 14:06:19.606
166, -3892.18, -3585.82, -3589.52, -3124.54, 0.000, 0.000, 0.000, 14:06:19.606
167, -3751.36, -3592.80, -3526.61, -3057.19, 0.000, 0.000, 0.000, 14:06:19.606
168, -3524.34, -3542.14, -3415.34, -2902.59, 0.000, 0.000, 0.000, 14:06:19.606
169, -3614.73, -3491.45, -3432.51, -2982.07, 0.000, 0.000, 0.000, 14:06:19.620
170, -3914.42, -3565.52, -3580.58, -3149.91, 0.000, 0.000, 0.000, 14:06:19.620
171, -3840.30, -3585.57, -3535.01, -3062.53, 0.000, 0.000, 0.000, 14:06:19.649
172, -3491.61, -3527.78, -3401.89, -2924.39, 0.000, 0.000, 0.000, 14:06:19.650
173, -3609.92, -3497.63, -3446.70, -2988.11, 0.000, 0.000, 0.000, 14:06:19.650
174, -4002.77, -3587.20, -3624.32, -3137.94, 0.000, 0.000, 0.000, 14:06:19.650
175, -3845.39, -3595.98, -3536.88, -3101.63, 0.000, 0.000, 0.000, 14:06:19.651
176, -3514.43, -3524.99, -3387.29, -2868.06, 0.000, 0.000, 0.000, 14:06:19.651
177, -3647.96, -3473.79, -3432.17, -2976.43, 0.000, 0.000, 0.000, 14:06:19.651
178, -3964.20, -3572.46, -3602.22, -3118.22, 0.000, 0.000, 0.000, 14:06:19.652
179, -3719.87, -3585.64, -3550.06, -3060.48, 0.000, 0.000, 0.000, 14:06:19.664
180, -3593.71, -3521.52, -3392.93, -2918.29, 0.000, 0.000, 0.000, 14:06:19.664
181, -3624.40, -3487.84, -3435.25, -2978.89, 0.000, 0.000, 0.000, 14:06:19.680
182, -3912.81, -3579.58, -3575.43, -3114.78, 0.000, 0.000, 0.000, 14:06:19.680
183, -3863.77, -3617.15, -3546.48, -3084.07, 0.000, 0.000, 0.000, 14:06:19.711
184, -3583.54, -3508.31, -3385.81, -2903.91, 0.000, 0.000, 0.000, 14:06:19.711
185, -3671.76, -3486.97, -3440.63, -2968.77, 0.000, 0.000, 0.000, 14:06:19.711
186, -3993.10, -3582.04, -3597.53, -3125.67, 0.000, 0.000, 0.000, 14:06:19.711
187, -3787.49, -3598.34, -3544.97, -3086.40, 0.000, 0.000, 0.000, 14:06:19.711
188, -3494.89, -3518.92, -3401.87, -2857.87, 0.000, 0.000, 0.000, 14:06:19.711
189, -3539.74, -3477.63, -3425.42, -2974.81, 0.000, 0.000, 0.000, 14:06:19.712
190, -3902.42, -3595.35, -3598.69, -3159.83, 0.000, 0.000, 0.000, 14:06:19.712
191, -3902.11, -3601.18, -3546.84, -3067.37, 0.000, 0.000, 0.000, 14:06:19.725
192, -3521.39, -3501.76, -3391.63, -2927.64, 0.000, 0.000, 0.000, 14:06:19.725
193, -3563.31, -3470.44, -3424.91, -2962.32, 0.000, 0.000, 0.000, 14:06:19.741
194, -3994.45, -3593.29, -3603.78, -3151.95, 0.000, 0.000, 0.000, 14:06:19.742
195, -3820.28, -3598.02, -3537.31, -3057.97, 0.000, 0.000, 0.000, 14:06:19.754
196, -3541.96, -3516.67, -3388.29, -2874.28, 0.000, 0.000, 0.000, 14:06:19.755
197, -3606.23, -3480.99, -3446.67, -2970.42, 0.000, 0.000, 0.000, 14:06:19.769
198, -3947.88, -3606.57, -3605.96, -3166.98, 0.000, 0.000, 0.000, 14:06:19.770
199, -3846.35, -3604.26, -3547.65, -3061.16, 0.000, 0.000, 0.000, 14:06:19.770
200, -3523.57, -3501.37, -3384.66, -2885.49, 0.000, 0.000, 0.000, 14:06:19.770
0, -3668.05, -3474.67, -3439.73, -2977.69, 0.000, 0.000, 0.000, 14:06:19.771
1, -4013.54, -3586.98, -3618.98, -3143.30, 0.000, 0.000, 0.000, 14:06:19.800
2, -3860.10, -3595.40, -3550.32, -3080.25, 0.000, 0.000, 0.000, 14:06:19.800
3, -3456.73, -3511.75, -3386.26, -2911.46, 0.000, 0.000, 0.000, 14:06:19.800
4, -3682.29, -3505.80, -3466.32, -3000.02, 0.000, 0.000, 0.000, 14:06:19.800
5, -3908.90, -3582.67, -3590.50, -3121.38, 0.000, 0.000, 0.000, 14:06:19.801
6, -3655.14, -3587.53, -3528.64, -3044.70, 0.000, 0.000, 0.000, 14:06:19.801
7, -3455.33, -3540.02, -3410.09, -2907.80, 0.000, 0.000, 0.000, 14:06:19.830
8, -3651.74, -3488.78, -3435.46, -2975.97, 0.000, 0.000, 0.000, 14:06:19.830
9, -3948.96, -3602.22, -3601.43, -3176.17, 0.000, 0.000, 0.000, 14:06:19.831
10, -3752.32, -3597.52, -3539.31, -3046.21, 0.000, 0.000, 0.000, 14:06:19.831
11, -3514.04, -3508.23, -3388.61, -2898.94, 0.000, 0.000, 0.000, 14:06:19.831
12, -3546.16, -3479.06, -3443.73, -2985.32, 0.000, 0.000, 0.000, 14:06:19.831
13, -3880.07, -3593.18, -3609.28, -3073.39, 0.000, 0.000, 0.000, 14:06:19.845
14, -3785.25, -3601.02, -3537.82, -3027.58, 0.000, 0.000, 0.000, 14:06:19.845
15, -3579.58, -3523.93, -3387.57, -2906.96, 0.000, 0.000, 0.000, 14:06:19.860
16, -3729.17, -3480.92, -3430.97, -2976.21, 0.000, 0.000, 0.000, 14:06:19.860
17, -4007.14, -3582.06, -3595.90, -3155.36, 0.000, 0.000, 0.000, 14:06:19.861
18, -3770.56, -3581.24, -3517.60, -3076.36, 0.000, 0.000, 0.000, 14:06:19.861
19, -3472.42, -3521.63, -3394.26, -2897.68, 0.000, 0.000, 0.000, 14:06:19.875
20, -3627.80, -3500.89, -3456.54, -3004.47, 0.000, 0.000, 0.000, 14:06:19.876
21, -3989.15, -3596.10, -3584.33, -3092.21, 0.000, 0.000, 0.000, 14:06:19.891
22, -3888.70, -3612.98, -3549.89, -3073.16, 0.000, 0.000, 0.000, 14:06:19.892
23, -3575.47, -3508.63, -3397.33, -2915.71, 0.000, 0.000, 0.000, 14:06:19.920
24, -3585.37, -3472.74, -3431.17, -2999.88, 0.000, 0.000, 0.000, 14:06:19.920
25, -3971.26, -3603.29, -3605.56, -3115.16, 0.000, 0.000, 0.000, 14:06:19.921
26, -3717.83, -3600.30, -3533.42, -3054.03, 0.000, 0.000, 0.000, 14:06:19.921
27, -3453.89, -3524.67, -3410.38, -2869.49, 0.000, 0.000, 0.000, 14:06:19.921
28, -3600.25, -3482.93, -3448.09, -2939.91, 0.000, 0.000, 0.000, 14:06:19.921
29, -4036.31, -3589.40, -3587.62, -3089.86, 0.000, 0.000, 0.000, 14:06:19.922
30, -3767.93, -3594.96, -3514.82, -3001.54, 0.000, 0.000, 0.000, 14:06:19.922
31, -3532.36, -3517.65, -3420.76, -2938.64, 0.000, 0.000, 0.000, 14:06:19.942
32, -3698.36, -3477.33, -3438.66, -3035.71, 0.000, 0.000, 0.000, 14:06:19.942
33, -3974.05, -3588.96, -3604.91, -3153.21, 0.000, 0.000, 0.000, 14:06:19.950
34, -3855.52, -3602.83, -3532.67, -3093.50, 0.000, 0.000, 0.000, 14:06:19.950
35, -3479.83, -3518.40, -3386.41, -2965.22, 0.000, 0.000, 0.000, 14:06:19.951
36, -3606.10, -3495.30, -3458.20, -3016.47, 0.000, 0.000, 0.000, 14:06:19.951
37, -3928.41, -3577.36, -3579.07, -3109.95, 0.000, 0.000, 0.000, 14:06:19.964
38, -3696.62, -3584.35, -3534.89, -2986.94, 0.000, 0.000, 0.000, 14:06:19.964
39, -3473.43, -3523.48, -3407.67, -2911.60, 0.000, 0.000, 0.000, 14:06:19.980
40, -3700.46, -3497.40, -3454.87, -2966.39, 0.000, 0.000, 0.000, 14:06:19.980
41, -4004.54, -3586.11, -3593.80, -3153.87, 0.000, 0.000, 0.000, 14:06:20.011
42, -3884.64, -3595.78, -3532.73, -3098.01, 0.000, 0.000, 0.000, 14:06:20.011
43, -3562.10, -3511.85, -3397.94, -2946.74, 0.000, 0.000, 0.000, 14:06:20.012
44, -3677.73, -3485.32, -3454.87, -2990.66, 0.000, 0.000, 0.000, 14:06:20.012
45, -3965.76, -3568.06, -3573.58, -3101.43, 0.000, 0.000, 0.000, 14:06:20.012
46, -3778.05, -3576.18, -3520.88, -2996.71, 0.000, 0.000, 0.000, 14:06:20.012
47, -3536.71, -3523.87, -3415.82, -2907.79, 0.000, 0.000, 0.000, 14:06:20.012
48, -3694.84, -3477.04, -3451.27, -2962.36, 0.000, 0.000, 0.000, 14:06:20.012
49, -3949.82, -3600.97, -3620.11, -3125.85, 0.000, 0.000, 0.000, 14:06:20.026
50, -3842.60, -3600.67, -3530.38, -3086.52, 0.000, 0.000, 0.000, 14:06:20.026
51, -3553.56, -3525.59, -3411.81, -2900.13, 0.000, 0.000, 0.000, 14:06:20.054
52, -3666.48, -3479.58, -3442.80, -2935.53, 0.000, 0.000, 0.000, 14:06:20.054
53, -3934.78, -3572.40, -3565.97, -3119.58, 0.000, 0.000, 0.000, 14:06:20.055
54, -3763.21, -3589.81, -3517.48, -3051.65, 0.000, 0.000, 0.000, 14:06:20.055
55, -3532.16, -3543.80, -3420.57, -2898.82, 0.000, 0.000, 0.000, 14:06:20.056
56, -3657.59, -3478.35, -3453.68, -2984.90, 0.000, 0.000, 0.000, 14:06:20.056
57, -3946.99, -3567.69, -3571.83, -3131.52, 0.000, 0.000, 0.000, 14:06:20.056
58, -3763.52, -3593.19, -3528.40, -3038.72, 0.000, 0.000, 0.000, 14:06:20.056
59, -3516.57, -3531.36, -3419.78, -2941.92, 0.000, 0.000, 0.000, 14:06:20.084
60, -3688.68, -3482.19, -3453.90, -3029.58, 0.000, 0.000, 0.000, 14:06:20.084
61, -3924.06, -3566.44, -3568.72, -3114.92, 0.000, 0.000, 0.000, 14:06:20.085
62, -3856.05, -3592.48, -3538.03, -3067.26, 0.000, 0.000, 0.000, 14:06:20.085
63, -3531.23, -3538.06, -3423.19, -2926.68, 0.000, 0.000, 0.000, 14:06:20.100
64, -3618.39, -3502.80, -3452.77, -3017.71, 0.000, 0.000, 0.000, 14:06:20.100
65, -3926.34, -3575.87, -3580.96, -3112.51, 0.000, 0.000, 0.000, 14:06:20.100
66, -3793.21, -3595.79, -3534.92, -3027.36, 0.000, 0.000, 0.000, 14:06:20.101
67, -3549.11, -3530.10, -3408.22, -2907.33, 0.000, 0.000, 0.000, 14:06:20.115
68, -3657.38, -3490.54, -3455.86, -2959.83, 0.000, 0.000, 0.000, 14:06:20.115
69, -3910.58, -3573.66, -3585.91, -3120.17, 0.000, 0.000, 0.000, 14:06:20.130
70, -3784.85, -3579.77, -3531.40, -3052.59, 0.000, 0.000, 0.000, 14:06:20.130
71, -3477.41, -3526.08, -3401.16, -2903.44, 0.000, 0.000, 0.000, 14:06:20.130
72, -3703.55, -3489.80, -3453.97, -3020.07, 0.000, 0.000, 0.000, 14:06:20.131
73, -3934.10, -3581.71, -3585.62, -3113.42, 0.000, 0.000, 0.000, 14:06:20.145
74, -3796.08, -3590.61, -3525.19, -3045.36, 0.000, 0.000, 0.000, 14:06:20.145
75, -3558.94, -3535.23, -3425.09, -2935.70, 0.000, 0.000, 0.000, 14:06:20.160
76, -3657.93, -3482.45, -3472.99, -3014.94, 0.000, 0.000, 0.000, 14:06:20.160
77, -3916.10, -3583.84, -3588.36, -3137.98, 0.000, 0.000, 0.000, 14:06:20.161
78, -3774.24, -3588.40, -3522.22, -3053.97, 0.000, 0.000, 0.000, 14:06:20.161
79, -3579.23, -3511.92, -3401.94, -2907.99, 0.000, 0.000, 0.000, 14:06:20.175
80, -3641.27, -3477.01, -3452.79, -3008.04, 0.000, 0.000, 0.000, 14:06:20.176
81, -3909.35, -3584.85, -3567.87, -3130.59, 0.000, 0.000, 0.000, 14:06:20.205
82, -3750.71, -3592.09, -3510.20, -3025.49, 0.000, 0.000, 0.000, 14:06:20.205
83, -3571.74, -3532.69, -3410.82, -2894.40, 0.000, 0.000, 0.000, 14:06:20.206
84, -3633.36, -3483.97, -3470.69, -3009.65, 0.000, 0.000, 0.000, 14:06:20.206
85, -3862.38, -3572.58, -3573.58, -3110.49, 0.000, 0.000, 0.000, 14:06:20.220
86, -3765.55, -3589.66, -3524.84, -3047.70, 0.000, 0.000, 0.000, 14:06:20.220
87, -3568.88, -3523.77, -3407.88, -2917.17, 0.000, 0.000, 0.000, 14:06:20.221
88, -3676.43, -3497.70, -3466.00, -2989.86, 0.000, 0.000, 0.000, 14:06:20.221
89, -3974.67, -3595.45, -3596.03, -3143.70, 0.000, 0.000, 0.000, 14:06:20.221
90, -3790.24, -3599.95, -3530.36, -3026.47, 0.000, 0.000, 0.000, 14:06:20.222
91, -3518.17, -3527.40, -3396.15, -2915.90, 0.000, 0.000, 0.000, 14:06:20.235
92, -3685.91, -3509.50, -3469.71, -2983.69, 0.000, 0.000, 0.000, 14:06:20.235
93, -3914.82, -3609.79, -3603.84, -3106.44, 0.000, 0.000, 0.000, 14:06:20.265
94, -3787.80, -3596.83, -3543.28, -3040.61, 0.000, 0.000, 0.000, 14:06:20.265
95, -3551.46, -3504.96, -3390.47, -2899.15, 0.000, 0.000, 0.000, 14:06:20.266
96, -3675.71, -3487.07, -3464.05, -3022.50, 0.000, 0.000, 0.000, 14:06:20.266
97, -3962.69, -3590.59, -3582.38, -3117.79, 0.000, 0.000, 0.000, 14:06:20.266
98, -3763.72, -3586.63, -3520.64, -3055.48, 0.000, 0.000, 0.000, 14:06:20.266
99, -3535.79, -3517.96, -3409.87, -2920.40, 0.000, 0.000, 0.000, 14:06:20.267
100, -3684.15, -3497.37, -3453.14, -3003.17, 0.000, 0.000, 0.000, 14:06:20.267
101, -3923.64, -3601.40, -3585.31, -3114.91, 0.000, 0.000, 0.000, 14:06:20.279
102, -3815.30, -3581.14, -3502.91, -3049.93, 0.000, 0.000, 0.000, 14:06:20.280
103, -3501.02, -3525.22, -3423.62, -2928.98, 0.000, 0.000, 0.000, 14:06:20.311
104, -3702.94, -3497.53, -3463.74, -3037.16, 0.000, 0.000, 0.000, 14:06:20.311
105, -3949.14, -3569.62, -3580.12, -3019.43, 0.000, 0.000, 0.000, 14:06:20.311
106, -3727.85, -3581.00, -3520.14, -3055.26, 0.000, 0.000, 0.000, 14:06:20.311
107, -3549.65, -3522.09, -3405.92, -2932.98, 0.000, 0.000, 0.000, 14:06:20.312
108, -3679.20, -3520.46, -3479.98, -3016.16, 0.000, 0.000, 0.000, 14:06:20.312
109, -3893.81, -3586.67, -3582.02, -3119.01, 0.000, 0.000, 0.000, 14:06:20.326
110, -3734.66, -3578.83, -3502.39, -3042.94, 0.000, 0.000, 0.000, 14:06:20.326
111, -3512.33, -3520.41, -3405.98, -2904.90, 0.000, 0.000, 0.000, 14:06:20.340
112, -3652.76, -3489.40, -3457.11, -3015.38, 0.000, 0.000, 0.000, 14:06:20.340
113, -3898.65, -3569.52, -3562.14, -3118.03, 0.000, 0.000, 0.000, 14:06:20.341
114, -3763.70, -3578.65, -3523.88, -3022.23, 0.000, 0.000, 0.000, 14:06:20.341
115, -3556.67, -3522.33, -3429.15, -2946.72, 0.000, 0.000, 0.000, 14:06:20.355
116, -3699.80, -3505.71, -3482.76, -3035.88, 0.000, 0.000, 0.000, 14:06:20.355
117, -3915.74, -3582.98, -3593.20, -3118.48, 0.000, 0.000, 0.000, 14:06:20.386
118, -3750.33, -3592.22, -3524.56, -3053.00, 0.000, 0.000, 0.000, 14:06:20.386
119, -3530.32, -3513.23, -3406.16, -2939.50, 0.000, 0.000, 0.000, 14:06:20.400
120, -3668.26, -3493.46, -3478.05, -3020.73, 0.000, 0.000, 0.000, 14:06:20.400
121, -3915.36, -3574.82, -3577.92, -3152.17, 0.000, 0.000, 0.000, 14:06:20.400
122, -3776.54, -3575.83, -3515.72, -3016.84, 0.000, 0.000, 0.000, 14:06:20.400
123, -3497.93, -3521.79, -3388.99, -2925.04, 0.000, 0.000, 0.000, 14:06:20.402
124, -3718.33, -3497.45, -3490.63, -3043.49, 0.000, 0.000, 0.000, 14:06:20.402
125, -3872.42, -3576.73, -3587.57, -3112.49, 0.000, 0.000, 0.000, 14:06:20.402
126, -3733.50, -3578.27, -3514.40, -3020.86, 0.000, 0.000, 0.000, 14:06:20.402
127, -3477.23, -3502.55, -3381.05, -2909.22, 0.000, 0.000, 0.000, 14:06:20.414
128, -3701.44, -3501.31, -3498.04, -3027.41, 0.000, 0.000, 0.000, 14:06:20.414
129, -3916.20, -3580.96, -3587.83, -3113.82, 0.000, 0.000, 0.000, 14:06:20.430
130, -3720.59, -3572.08, -3506.04, -3018.78, 0.000, 0.000, 0.000, 14:06:20.430
131, -3529.49, -3515.69, -3406.43, -2918.18, 0.000, 0.000, 0.000, 14:06:20.431
132, -3712.39, -3491.82, -3475.55, -3020.17, 0.000, 0.000, 0.000, 14:06:20.431
133, -3905.99, -3586.93, -3572.55, -3090.89, 0.000, 0.000, 0.000, 14:06:20.445
134, -3719.64, -3551.27, -3490.73, -3000.66, 0.000, 0.000, 0.000, 14:06:20.445
135, -3529.93, -3509.77, -3410.54, -2932.06, 0.000, 0.000, 0.000, 14:06:20.461
136, -3693.87, -3506.55, -3499.23, -3020.02, 0.000, 0.000, 0.000, 14:06:20.461
137, -3904.61, -3586.70, -3580.02, -3103.90, 0.000, 0.000, 0.000, 14:06:20.461
138, -3721.82, -3577.82, -3496.91, -3021.48, 0.000, 0.000, 0.000, 14:06:20.461
139, -3540.76, -3514.86, -3411.30, -2907.77, 0.000, 0.000, 0.000, 14:06:20.475
140, -3731.83, -3498.19, -3494.12, -3001.36, 0.000, 0.000, 0.000, 14:06:20.475
141, -3915.87, -3574.84, -3574.07, -3119.24, 0.000, 0.000, 0.000, 14:06:20.520
142, -3721.06, -3559.39, -3502.93, -2995.42, 0.000, 0.000, 0.000, 14:06:20.520
143, -3519.14, -3518.54, -3416.70, -2923.99, 0.000, 0.000, 0.000, 14:06:20.521
144, -3737.61, -3505.36, -3489.60, -3041.80, 0.000, 0.000, 0.000, 14:06:20.521
145, -3911.58, -3571.12, -3572.51, -3124.67, 0.000, 0.000, 0.000, 14:06:20.522
146, -3730.65, -3569.25, -3490.24, -3038.21, 0.000, 0.000, 0.000, 14:06:20.522
147, -3492.99, -3515.02, -3393.50, -2901.07, 0.000, 0.000, 0.000, 14:06:20.522
148, -3783.41, -3500.38, -3476.21, -3002.89, 0.000, 0.000, 0.000, 14:06:20.522
149, -3906.58, -3565.18, -3577.82, -3123.11, 0.000, 0.000, 0.000, 14:06:20.523
150, -3670.89, -3580.72, -3494.56, -3061.13, 0.000, 0.000, 0.000, 14:06:20.523
151, -3532.36, -3506.91, -3399.51, -2924.21, 0.000, 0.000, 0.000, 14:06:20.534
152, -3656.60, -3499.98, -3468.50, -3029.51, 0.000, 0.000, 0.000, 14:06:20.534
153, -3842.66, -3569.79, -3562.26, -3126.97, 0.000, 0.000, 0.000, 14:06:20.565
154, -3674.77, -3575.06, -3497.11, -3022.86, 0.000, 0.000, 0.000, 14:06:20.565
155, -3494.61, -3514.08, -3402.21, -2918.81, 0.000, 0.000, 0.000, 14:06:20.566
156, -3647.51, -3518.69, -3505.05, -3060.10, 0.000, 0.000, 0.000, 14:06:20.566
157, -3871.20, -3580.79, -3556.40, -3103.22, 0.000, 0.000, 0.000, 14:06:20.566
158, -3755.71, -3552.33, -3464.80, -2994.96, 0.000, 0.000, 0.000, 14:06:20.566
159, -3459.70, -3503.98, -3400.45, -2922.80, 0.000, 0.000, 0.000, 14:06:20.567
160, -3780.12, -3513.56, -3472.07, -3073.29, 0.000, 0.000, 0.000, 14:06:20.567
161, -3854.18, -3540.70, -3540.74, -3029.80, 0.000, 0.000, 0.000, 14:06:20.580
162, -3703.36, -3574.37, -3527.46, -3019.65, 0.000, 0.000, 0.000, 14:06:20.580
163, -3598.37, -3538.35, -3411.50, -2949.65, 0.000, 0.000, 0.000, 14:06:20.657
164, -3728.20, -3498.67, -3483.05, -3043.17, 0.000, 0.000, 0.000, 14:06:20.658
165, -3902.16, -3566.71, -3550.41, -3106.07, 0.000, 0.000, 0.000, 14:06:20.658
166, -3722.10, -3564.78, -3493.23, -3030.88, 0.000, 0.000, 0.000, 14:06:20.658
167, -3514.33, -3509.44, -3401.75, -2906.62, 0.000, 0.000, 0.000, 14:06:20.658
168, -3662.45, -3513.68, -3480.14, -3068.72, 0.000, 0.000, 0.000, 14:06:20.658
169, -3928.97, -3588.88, -3591.04, -3150.22, 0.000, 0.000, 0.000, 14:06:20.658
170, -3768.58, -3557.92, -3484.20, -3026.70, 0.000, 0.000, 0.000, 14:06:20.659
171, -3631.21, -3541.97, -3414.78, -2939.88, 0.000, 0.000, 0.000, 14:06:20.659
172, -3751.04, -3511.35, -3477.39, -3006.72, 0.000, 0.000, 0.000, 14:06:20.659
173, -3919.26, -3603.49, -3528.17, -3093.41, 0.000, 0.000, 0.000, 14:06:20.659
174, -3645.91, -3571.98, -3494.01, -3010.12, 0.000, 0.000, 0.000, 14:06:20.659
175, -3502.18, -3504.51, -3403.22, -2913.91, 0.000, 0.000, 0.000, 14:06:20.659
176, -3686.99, -3519.20, -3457.98, -2998.04, 0.000, 0.000, 0.000, 14:06:20.660
179, -3469.95, -3487.83, -3303.46, -2843.80, 0.000, 0.000, 0.000, 14:06:20.671
180, -3587.86, -3465.58, -3393.42, -2965.17, 0.000, 0.000, 0.000, 14:06:20.671
181, -3717.85, -3508.36, -3468.46, -3027.54, 0.000, 0.000, 0.000, 14:06:20.685
182, -3550.57, -3527.74, -3447.16, -2931.06, 0.000, 0.000, 0.000, 14:06:20.685
183, -3304.77, -3493.73, -3282.57, -2822.64, 0.000, 0.000, 0.000, 14:06:20.700
184, -3676.66, -3511.62, -3402.95, -2972.63, 0.000, 0.000, 0.000, 14:06:20.700
185, -3697.10, -3570.74, -3455.04, -3042.78, 0.000, 0.000, 0.000, 14:06:20.701
186, -3503.01, -3545.24, -3402.07, -2910.21, 0.000, 0.000, 0.000, 14:06:20.701
187, -3496.61, -3539.74, -3334.39, -2902.40, 0.000, 0.000, 0.000, 14:06:20.715
188, -3607.49, -3464.15, -3355.89, -2959.89, 0.000, 0.000, 0.000, 14:06:20.715
189, -3831.62, -3545.26, -3504.49, -3069.17, 0.000, 0.000, 0.000, 14:06:20.729
190, -3591.76, -3506.23, -3378.79, -2981.62, 0.000, 0.000, 0.000, 14:06:20.730
191, -3430.10, -3469.84, -3382.61, -2890.41, 0.000, 0.000, 0.000, 14:06:20.730
192, -3696.97, -3403.96, -3384.01, -2961.77, 0.000, 0.000, 0.000, 14:06:20.730
193, -3898.22, -3452.54, -3477.68, -3037.83, 0.000, 0.000, 0.000, 14:06:20.775
194, -3737.63, -3482.74, -3421.54, -2964.23, 0.000, 0.000, 0.000, 14:06:20.775
195, -3623.87, -3397.34, -3319.75, -2883.44, 0.000, 0.000, 0.000, 14:06:20.776
196, -3813.19, -3419.93, -3415.93, -3036.84, 0.000, 0.000, 0.000, 14:06:20.776
197, -3829.54, -3435.82, -3483.42, -3025.94, 0.000, 0.000, 0.000, 14:06:20.777
198, -3844.22, -3477.29, -3405.16, -2991.28, 0.000, 0.000, 0.000, 14:06:20.777
199, -3682.22, -3412.42, -3393.17, -2880.06, 0.000, 0.000, 0.000, 14:06:20.777
200, -3852.93, -3320.97, -3328.83, -2940.11, 0.000, 0.000, 0.000, 14:06:20.777
0, -3794.87, -3489.82, -3582.92, -3055.95, 0.000, 0.000, 0.000, 14:06:20.777
1, -3703.77, -3546.38, -3408.41, -3096.61, 0.000, 0.000, 0.000, 14:06:20.790
2, -3503.10, -3433.18, -3432.94, -2929.70, 0.000, 0.000, 0.000, 14:06:20.790
3, -3805.43, -3466.23, -3452.39, -3046.96, 0.000, 0.000, 0.000, 14:06:20.806
4, -3980.93, -3567.59, -3554.71, -3164.19, 0.000, 0.000, 0.000, 14:06:20.806
5, -3851.47, -3524.25, -3431.17, -3015.58, 0.000, 0.000, 0.000, 14:06:20.806
6, -3681.49, -3492.11, -3469.03, -2945.16, 0.000, 0.000, 0.000, 14:06:20.806
7, -3845.13, -3469.36, -3410.60, -3077.50, 0.000, 0.000, 0.000, 14:06:20.820
8, -3925.52, -3493.90, -3483.01, -3074.24, 0.000, 0.000, 0.000, 14:06:20.821
9, -3649.70, -3551.11, -3530.33, -3010.87, 0.000, 0.000, 0.000, 14:06:20.835
10, -3534.81, -3514.60, -3375.09, -2980.35, 0.000, 0.000, 0.000, 14:06:20.835
11, -3819.88, -3443.21, -3492.11, -3051.70, 0.000, 0.000, 0.000, 14:06:20.836
12, -3962.68, -3550.55, -3581.84, -3080.40, 0.000, 0.000, 0.000, 14:06:20.836
13, -3642.43, -3498.62, -3449.22, -2932.44, 0.000, 0.000, 0.000, 14:06:20.865
14, -3662.02, -3534.33, -3479.04, -2977.45, 0.000, 0.000, 0.000, 14:06:20.865
15, -3787.33, -3489.34, -3463.75, -3064.65, 0.000, 0.000, 0.000, 14:06:20.866
16, -3968.21, -3555.12, -3586.15, -3118.90, 0.000, 0.000, 0.000, 14:06:20.866
17, -3730.11, -3524.89, -3453.78, -3027.22, 0.000, 0.000, 0.000, 14:06:20.866
18, -3640.83, -3510.92, -3492.25, -2935.95, 0.000, 0.000, 0.000, 14:06:20.866
19, -3796.97, -3491.71, -3446.91, -3047.39, 0.000, 0.000, 0.000, 14:06:20.910
20, -3974.15, -3559.62, -3574.62, -3080.65, 0.000, 0.000, 0.000, 14:06:20.910
21, -3586.49, -3510.95, -3485.37, -2985.84, 0.000, 0.000, 0.000, 14:06:20.910
22, -3583.06, -3515.91, -3412.82, -2956.01, 0.000, 0.000, 0.000, 14:06:20.911
23, -3832.87, -3480.66, -3495.51, -3045.07, 0.000, 0.000, 0.000, 14:06:20.911
24, -3860.18, -3527.40, -3535.49, -3077.96, 0.000, 0.000, 0.000, 14:06:20.911
25, -3730.70, -3569.12, -3513.68, -3001.05, 0.000, 0.000, 0.000, 14:06:20.911
26, -3573.55, -3530.14, -3415.75, -2978.00, 0.000, 0.000, 0.000, 14:06:20.911
27, -3726.41, -3453.55, -3483.55, -3029.90, 0.000, 0.000, 0.000, 14:06:20.955
28, -3817.34, -3532.89, -3570.79, -3054.98, 0.000, 0.000, 0.000, 14:06:20.956
29, -3784.78, -3567.75, -3513.17, -3035.82, 0.000, 0.000, 0.000, 14:06:20.956
30, -3502.72, -3508.35, -3378.97, -2932.52, 0.000, 0.000, 0.000, 14:06:20.956
31, -3732.54, -3510.31, -3546.15, -3039.55, 0.000, 0.000, 0.000, 14:06:20.956
32, -3846.66, -3557.29, -3546.34, -3078.66, 0.000, 0.000, 0.000, 14:06:20.956
33, -3659.61, -3564.64, -3514.25, -3030.21, 0.000, 0.000, 0.000, 14:06:20.957
34, -3543.23, -3482.90, -3428.34, -2916.29, 0.000, 0.000, 0.000, 14:06:20.957
35, -3751.72, -3482.72, -3500.14, -3043.01, 0.000, 0.000, 0.000, 14:06:20.958
36, -3809.90, -3522.42, -3510.04, -3053.77, 0.000, 0.000, 0.000, 14:06:20.958
37, -3628.98, -3538.46, -3516.34, -2978.39, 0.000, 0.000, 0.000, 14:06:20.969
38, -3491.88, -3521.04, -3424.69, -2982.77, 0.000, 0.000, 0.000, 14:06:20.969
39, -3711.79, -3482.80, -3500.63, -3053.80, 0.000, 0.000, 0.000, 14:06:20.984
40, -3911.09, -3568.70, -3577.93, -3068.53, 0.000, 0.000, 0.000, 14:06:20.984
41, -3650.08, -3552.59, -3497.18, -2966.28, 0.000, 0.000, 0.000, 14:06:20.985
42, -3609.88, -3526.83, -3427.67, -2928.82, 0.000, 0.000, 0.000, 14:06:20.985
43, -3720.53, -3502.92, -3494.68, -3043.45, 0.000, 0.000, 0.000, 14:06:21.000
44, -3917.48, -3564.37, -3559.48, -3094.74, 0.000, 0.000, 0.000, 14:06:21.000
45, -3641.74, -3563.96, -3523.30, -2981.37, 0.000, 0.000, 0.000, 14:06:21.015
46, -3555.71, -3515.69, -3451.48, -2935.80, 0.000, 0.000, 0.000, 14:06:21.015
47, -3828.42, -3493.97, -3485.71, -3054.35, 0.000, 0.000, 0.000, 14:06:21.016
48, -3813.92, -3559.41, -3564.30, -3062.75, 0.000, 0.000, 0.000, 14:06:21.016
49, -3714.49, -3567.44, -3498.76, -2994.34, 0.000, 0.000, 0.000, 14:06:21.037
50, -3576.48, -3511.19, -3429.18, -2935.11, 0.000, 0.000, 0.000, 14:06:21.037
51, -3792.55, -3492.30, -3510.21, -3027.23, 0.000, 0.000, 0.000, 14:06:21.075
52, -3933.97, -3565.61, -3563.57, -3062.70, 0.000, 0.000, 0.000, 14:06:21.075
53, -3657.81, -3557.37, -3479.47, -3032.50, 0.000, 0.000, 0.000, 14:06:21.076
54, -3537.42, -3522.58, -3453.27, -2934.84, 0.000, 0.000, 0.000, 14:06:21.076
55, -3765.36, -3495.55, -3528.93, -3034.96, 0.000, 0.000, 0.000, 14:06:21.077
56, -3872.01, -3569.56, -3552.87, -3091.73, 0.000, 0.000, 0.000, 14:06:21.077
57, -3685.79, -3574.48, -3509.58, -3028.74, 0.000, 0.000, 0.000, 14:06:21.077
58, -3527.37, -3506.42, -3424.58, -2951.15, 0.000, 0.000, 0.000, 14:06:21.077
59, -3785.91, -3490.62, -3515.07, -3041.51, 0.000, 0.000, 0.000, 14:06:21.078
60, -3888.19, -3571.06, -3579.81, -3080.27, 0.000, 0.000, 0.000, 14:06:21.078
61, -3669.38, -3568.07, -3504.86, -3029.63, 0.000, 0.000, 0.000, 14:06:21.120
62, -3507.17, -3531.61, -3435.19, -2962.71, 0.000, 0.000, 0.000, 14:06:21.120
63, -3770.35, -3485.45, -3511.15, -3019.73, 0.000, 0.000, 0.000, 14:06:21.121
64, -3834.42, -3569.98, -3576.95, -3092.97, 0.000, 0.000, 0.000, 14:06:21.121
65, -3704.55, -3525.07, -3466.10, -2966.37, 0.000, 0.000, 0.000, 14:06:21.122
66, -3566.55, -3541.00, -3450.51, -2954.57, 0.000, 0.000, 0.000, 14:06:21.122
67, -3786.20, -3501.38, -3512.65, -3043.67, 0.000, 0.000, 0.000, 14:06:21.122
68, -3919.86, -3572.61, -3562.99, -3130.30, 0.000, 0.000, 0.000, 14:06:21.122
69, -3642.80, -3578.03, -3508.90, -2995.89, 0.000, 0.000, 0.000, 14:06:21.123
70, -3523.20, -3520.19, -3444.16, -2894.27, 0.000, 0.000, 0.000, 14:06:21.123
71, -3738.74, -3505.00, -3523.00, -3049.49, 0.000, 0.000, 0.000, 14:06:21.135
72, -3947.90, -3574.27, -3573.80, -3078.50, 0.000, 0.000, 0.000, 14:06:21.135
73, -3713.54, -3562.94, -3510.96, -3029.03, 0.000, 0.000, 0.000, 14:06:21.150
74, -3436.06, -3509.74, -3418.07, -2908.09, 0.000, 0.000, 0.000, 14:06:21.150
75, -3795.57, -3517.32, -3527.10, -3062.13, 0.000, 0.000, 0.000, 14:06:21.164
76, -3906.81, -3553.48, -3564.38, -3062.13, 0.000, 0.000, 0.000, 14:06:21.164
77, -3619.23, -3562.79, -3507.23, -3052.13, 0.000, 0.000, 0.000, 14:06:21.165
78, -3467.79, -3509.31, -3427.39, -2909.83, 0.000, 0.000, 0.000, 14:06:21.165
79, -3846.01, -3513.42, -3526.45, -3060.92, 0.000, 0.000, 0.000, 14:06:21.195
80, -3917.18, -3559.92, -3560.40, -3055.47, 0.000, 0.000, 0.000, 14:06:21.195
81, -3693.50, -3556.24, -3499.60, -2944.49, 0.000, 0.000, 0.000, 14:06:21.196
82, -3575.56, -3532.58, -3434.62, -2927.78, 0.000, 0.000, 0.000, 14:06:21.196
83, -3691.70, -3514.26, -3505.88, -3067.51, 0.000, 0.000, 0.000, 14:06:21.196
84, -3734.26, -3570.05, -3558.64, -3089.82, 0.000, 0.000, 0.000, 14:06:21.196
85, -3651.76, -3550.94, -3486.73, -2991.88, 0.000, 0.000, 0.000, 14:06:21.210
86, -3503.53, -3516.10, -3429.99, -2934.54, 0.000, 0.000, 0.000, 14:06:21.211
87, -3743.39, -3502.39, -3513.88, -3075.90, 0.000, 0.000, 0.000, 14:06:21.226
88, -3829.48, -3567.13, -3563.58, -3077.85, 0.000, 0.000, 0.000, 14:06:21.226
89, -3659.53, -3565.43, -3492.77, -2996.15, 0.000, 0.000, 0.000, 14:06:21.226
90, -3554.13, -3519.43, -3428.16, -2939.30, 0.000, 0.000, 0.000, 14:06:21.226
91, -3781.70, -3485.43, -3502.31, -3051.23, 0.000, 0.000, 0.000, 14:06:21.241
92, -3938.57, -3554.94, -3548.57, -3086.00, 0.000, 0.000, 0.000, 14:06:21.241
93, -3659.12, -3568.31, -3493.58, -2983.02, 0.000, 0.000, 0.000, 14:06:21.255
94, -3556.11, -3508.71, -3414.24, -2967.97, 0.000, 0.000, 0.000, 14:06:21.255
95, -3758.06, -3481.82, -3499.75, -3041.07, 0.000, 0.000, 0.000, 14:06:21.256
96, -3771.79, -3556.88, -3547.58, -3053.32, 0.000, 0.000, 0.000, 14:06:21.256
97, -3649.58, -3563.81, -3489.79, -3025.60, 0.000, 0.000, 0.000, 14:06:21.269
98, -3532.53, -3517.58, -3428.43, -2995.53, 0.000, 0.000, 0.000, 14:06:21.269
99, -3821.21, -3498.95, -3503.18, -3060.56, 0.000, 0.000, 0.000, 14:06:21.285
100, -3891.18, -3569.11, -3543.27, -3101.49, 0.000, 0.000, 0.000, 14:06:21.285
101, -3692.44, -3567.57, -3487.16, -2986.70, 0.000, 0.000, 0.000, 14:06:21.286
102, -3567.08, -3525.75, -3422.00, -2874.17, 0.000, 0.000, 0.000, 14:06:21.286
103, -3771.15, -3501.14, -3504.02, -3094.32, 0.000, 0.000, 0.000, 14:06:21.314
104, -3864.69, -3574.85, -3549.11, -3095.92, 0.000, 0.000, 0.000, 14:06:21.314
105, -3687.37, -3564.11, -3480.46, -3015.30, 0.000, 0.000, 0.000, 14:06:21.315
106, -3468.79, -3509.81, -3412.46, -2974.65, 0.000, 0.000, 0.000, 14:06:21.315
107, -3766.24, -3501.35, -3502.20, -2994.18, 0.000, 0.000, 0.000, 14:06:21.316
108, -3894.85, -3551.08, -3528.28, -3060.08, 0.000, 0.000, 0.000, 14:06:21.316
109, -3698.51, -3573.34, -3476.79, -2965.97, 0.000, 0.000, 0.000, 14:06:21.330
110, -3572.07, -3513.63, -3431.81, -2928.89, 0.000, 0.000, 0.000, 14:06:21.330
111, -3831.99, -3502.95, -3523.63, -3044.47, 0.000, 0.000, 0.000, 14:06:21.346
112, -3764.17, -3554.72, -3536.86, -3058.53, 0.000, 0.000, 0.000, 14:06:21.346
113, -3618.64, -3570.62, -3474.81, -2999.21, 0.000, 0.000, 0.000, 14:06:21.346
114, -3513.70, -3512.41, -3411.62, -2960.43, 0.000, 0.000, 0.000, 14:06:21.346
115, -3771.80, -3494.83, -3505.99, -3042.26, 0.000, 0.000, 0.000, 14:06:21.360
116, -3857.55, -3572.32, -3556.52, -3058.77, 0.000, 0.000, 0.000, 14:06:21.360
117, -3699.91, -3564.72, -3491.05, -3003.87, 0.000, 0.000, 0.000, 14:06:21.375
118, -3532.66, -3522.10, -3439.38, -2986.96, 0.000, 0.000, 0.000, 14:06:21.375
119, -3819.88, -3504.53, -3503.47, -3046.05, 0.000, 0.000, 0.000, 14:06:21.376
120, -3843.75, -3566.88, -3547.70, -3083.87, 0.000, 0.000, 0.000, 14:06:21.376
121, -3743.73, -3569.52, -3481.36, -2989.06, 0.000, 0.000, 0.000, 14:06:21.390
122, -3511.63, -3496.48, -3411.25, -2905.87, 0.000, 0.000, 0.000, 14:06:21.390
123, -3739.63, -3496.35, -3498.41, -3044.05, 0.000, 0.000, 0.000, 14:06:21.405
124, -3812.24, -3566.00, -3534.59, -3050.50, 0.000, 0.000, 0.000, 14:06:21.406
125, -3642.15, -3571.30, -3481.18, -2972.57, 0.000, 0.000, 0.000, 14:06:21.406
126, -3516.15, -3520.90, -3430.17, -2945.90, 0.000, 0.000, 0.000, 14:06:21.406
127, -3786.80, -3506.34, -3513.82, -3042.41, 0.000, 0.000, 0.000, 14:06:21.419
128, -3830.64, -3561.33, -3543.82, -3056.02, 0.000, 0.000, 0.000, 14:06:21.419
129, -3701.23, -3570.99, -3482.61, -3008.40, 0.000, 0.000, 0.000, 14:06:21.434
130, -3537.79, -3523.06, -3414.52, -2951.32, 0.000, 0.000, 0.000, 14:06:21.435
131, -3776.18, -3504.97, -3489.63, -3036.14, 0.000, 0.000, 0.000, 14:06:21.465
132, -3829.04, -3564.69, -3550.62, -3070.12, 0.000, 0.000, 0.000, 14:06:21.465
133, -3615.31, -3539.50, -3475.12, -2985.22, 0.000, 0.000, 0.000, 14:06:21.466
134, -3557.13, -3513.24, -3417.55, -2950.73, 0.000, 0.000, 0.000, 14:06:21.466
135, -3789.60, -3501.98, -3491.99, -3022.91, 0.000, 0.000, 0.000, 14:06:21.466
136, -3891.82, -3587.56, -3546.99, -3068.92, 0.000, 0.000, 0.000, 14:06:21.466
137, -3637.60, -3560.17, -3474.80, -3000.61, 0.000, 0.000, 0.000, 14:06:21.467
138, -3516.42, -3508.16, -3412.38, -2942.08, 0.000, 0.000, 0.000, 14:06:21.467
139, -3710.31, -3499.18, -3506.28, -3048.36, 0.000, 0.000, 0.000, 14:06:21.495
140, -3865.44, -3564.64, -3555.76, -3084.47, 0.000, 0.000, 0.000, 14:06:21.495
141, -3744.60, -3565.08, -3485.46, -3014.76, 0.000, 0.000, 0.000, 14:06:21.496
142, -3469.15, -3493.74, -3409.18, -2944.39, 0.000, 0.000, 0.000, 14:06:21.496
143, -3720.07, -3508.92, -3517.42, -3068.62, 0.000, 0.000, 0.000, 14:06:21.496
144, -3934.09, -3560.94, -3524.68, -3055.32, 0.000, 0.000, 0.000, 14:06:21.496
145, -3686.72, -3543.25, -3447.83, -2966.05, 0.000, 0.000, 0.000, 14:06:21.510
146, -3608.33, -3509.91, -3410.38, -2917.42, 0.000, 0.000, 0.000, 14:06:21.512
147, -3714.60, -3520.32, -3531.85, -3057.98, 0.000, 0.000, 0.000, 14:06:21.525
148, -3869.07, -3573.22, -3555.67, -3070.02, 0.000, 0.000, 0.000, 14:06:21.526
149, -3704.48, -3527.86, -3458.22, -2949.43, 0.000, 0.000, 0.000, 14:06:21.532
150, -3529.18, -3485.33, -3406.55, -2946.47, 0.000, 0.000, 0.000, 14:06:21.532
151, -3781.34, -3506.51, -3525.81, -3062.35, 0.000, 0.000, 0.000, 14:06:21.540
152, -3856.36, -3576.01, -3558.01, -3097.68, 0.000, 0.000, 0.000, 14:06:21.540
153, -3729.48, -3568.66, -3480.11, -2995.01, 0.000, 0.000, 0.000, 14:06:21.555
154, -3472.20, -3505.82, -3409.83, -2926.72, 0.000, 0.000, 0.000, 14:06:21.555
155, -3748.43, -3498.35, -3514.32, -3057.02, 0.000, 0.000, 0.000, 14:06:21.556
156, -3866.51, -3571.05, -3562.79, -3063.17, 0.000, 0.000, 0.000, 14:06:21.556
157, -3707.23, -3570.34, -3472.78, -2991.44, 0.000, 0.000, 0.000, 14:06:21.570
158, -3538.75, -3513.54, -3412.65, -2961.29, 0.000, 0.000, 0.000, 14:06:21.570
159, -3732.28, -3489.14, -3496.43, -3076.54, 0.000, 0.000, 0.000, 14:06:21.584
160, -3891.01, -3569.72, -3552.29, -3061.12, 0.000, 0.000, 0.000, 14:06:21.584
161, -3675.15, -3548.91, -3471.56, -3009.46, 0.000, 0.000, 0.000, 14:06:21.585
162, -3530.62, -3503.35, -3398.92, -2907.84, 0.000, 0.000, 0.000, 14:06:21.585
163, -3794.19, -3524.58, -3530.10, -3090.34, 0.000, 0.000, 0.000, 14:06:21.600
164, -3835.39, -3574.26, -3547.07, -3065.35, 0.000, 0.000, 0.000, 14:06:21.600
165, -3639.88, -3559.90, -3462.15, -3004.37, 0.000, 0.000, 0.000, 14:06:21.630
166, -3517.87, -3509.37, -3417.12, -2965.67, 0.000, 0.000, 0.000, 14:06:21.630
167, -3817.06, -3509.54, -3523.52, -3054.01, 0.000, 0.000, 0.000, 14:06:21.630
168, -3877.58, -3569.29, -3551.10, -3077.99, 0.000, 0.000, 0.000, 14:06:21.630
169, -3669.02, -3548.25, -3464.14, -2967.44, 0.000, 0.000, 0.000, 14:06:21.631
170, -3459.72, -3522.53, -3430.61, -2914.48, 0.000, 0.000, 0.000, 14:06:21.631
171, -3823.95, -3516.45, -3528.01, -3054.32, 0.000, 0.000, 0.000, 14:06:21.632
172, -3829.21, -3558.55, -3529.25, -3048.48, 0.000, 0.000, 0.000, 14:06:21.632
173, -3635.12, -3556.72, -3470.14, -3001.52, 0.000, 0.000, 0.000, 14:06:21.645
174, -3525.73, -3488.81, -3401.45, -2943.10, 0.000, 0.000, 0.000, 14:06:21.645
175, -3759.49, -3504.81, -3509.48, -3084.21, 0.000, 0.000, 0.000, 14:06:21.675
176, -3865.26, -3589.92, -3555.91, -3042.58, 0.000, 0.000, 0.000, 14:06:21.675
177, -3723.85, -3570.50, -3489.64, -3067.90, 0.000, 0.000, 0.000, 14:06:21.675
178, -3572.65, -3503.53, -3417.69, -2889.88, 0.000, 0.000, 0.000, 14:06:21.676
179, -3874.62, -3516.61, -3523.94, -3005.53, 0.000, 0.000, 0.000, 14:06:21.677
180, -3925.79, -3573.68, -3553.74, -3079.41, 0.000, 0.000, 0.000, 14:06:21.677
181, -3667.01, -3519.96, -3440.40, -2961.74, 0.000, 0.000, 0.000, 14:06:21.690
182, -3591.49, -3500.95, -3419.25, -2925.85, 0.000, 0.000, 0.000, 14:06:21.690
183, -3815.92, -3532.55, -3540.31, -3075.44, 0.000, 0.000, 0.000, 14:06:21.720
184, -3792.52, -3568.66, -3557.33, -3070.72, 0.000, 0.000, 0.000, 14:06:21.720
185, -3544.98, -3549.22, -3465.41, -2998.45, 0.000, 0.000, 0.000, 14:06:21.720
186, -3577.06, -3507.34, -3416.58, -2953.74, 0.000, 0.000, 0.000, 14:06:21.721
187, -3778.69, -3511.41, -3523.19, -3050.71, 0.000, 0.000, 0.000, 14:06:21.721
188, -3798.10, -3556.25, -3535.16, -3058.52, 0.000, 0.000, 0.000, 14:06:21.721
189, -3668.26, -3567.06, -3481.55, -2986.42, 0.000, 0.000, 0.000, 14:06:21.722
190, -3577.55, -3522.30, -3431.56, -2965.83, 0.000, 0.000, 0.000, 14:06:21.723
191, -3719.81, -3516.11, -3524.58, -3079.73, 0.000, 0.000, 0.000, 14:06:21.750
192, -3828.04, -3557.79, -3534.83, -3069.40, 0.000, 0.000, 0.000, 14:06:21.750
193, -3678.64, -3563.36, -3476.80, -2968.72, 0.000, 0.000, 0.000, 14:06:21.750
194, -3525.53, -3490.15, -3405.18, -2922.20, 0.000, 0.000, 0.000, 14:06:21.750
195, -3812.50, -3510.43, -3511.35, -3052.14, 0.000, 0.000, 0.000, 14:06:21.764
196, -3873.07, -3586.21, -3556.76, -3080.05, 0.000, 0.000, 0.000, 14:06:21.765
197, -3668.94, -3575.12, -3484.24, -2973.65, 0.000, 0.000, 0.000, 14:06:21.765
198, -3513.91, -3513.29, -3412.76, -2922.65, 0.000, 0.000, 0.000, 14:06:21.765
199, -3773.52, -3510.92, -3521.27, -3066.31, 0.000, 0.000, 0.000, 14:06:21.779
200, -3869.45, -3574.74, -3547.32, -3078.92, 0.000, 0.000, 0.000, 14:06:21.779
0, -3652.92, -3550.46, -3459.83, -3010.41, 0.000, 0.000, 0.000, 14:06:21.780
1, -3598.06, -3485.77, -3410.57, -2964.41, 0.000, 0.000, 0.000, 14:06:21.794
2, -3781.99, -3490.90, -3513.80, -3035.78, 0.000, 0.000, 0.000, 14:06:21.794
3, -3847.97, -3558.87, -3543.71, -3043.44, 0.000, 0.000, 0.000, 14:06:21.811
4, -3632.59, -3566.23, -3480.98, -2984.13, 0.000, 0.000, 0.000, 14:06:21.811
5, -3550.35, -3508.54, -3412.05, -2969.23, 0.000, 0.000, 0.000, 14:06:21.825
6, -3820.32, -3491.85, -3505.56, -3061.33, 0.000, 0.000, 0.000, 14:06:21.825
7, -3823.13, -3586.10, -3544.84, -3073.31, 0.000, 0.000, 0.000, 14:06:21.825
8, -3662.85, -3544.83, -3454.05, -2973.48, 0.000, 0.000, 0.000, 14:06:21.825
9, -3557.40, -3479.05, -3417.13, -2932.87, 0.000, 0.000, 0.000, 14:06:21.840
10, -3834.14, -3501.95, -3530.33, -3079.53, 0.000, 0.000, 0.000, 14:06:21.841
11, -3828.06, -3557.07, -3552.67, -3078.90, 0.000, 0.000, 0.000, 14:06:21.841
12, -3665.79, -3546.74, -3468.38, -2970.79, 0.000, 0.000, 0.000, 14:06:21.841
13, -3558.84, -3506.96, -3415.87, -2947.08, 0.000, 0.000, 0.000, 14:06:21.855
14, -3857.79, -3520.82, -3529.61, -3104.98, 0.000, 0.000, 0.000, 14:06:21.855
15, -3866.56, -3543.04, -3531.41, -3053.53, 0.000, 0.000, 0.000, 14:06:21.869
16, -3673.85, -3551.77, -3452.58, -2964.67, 0.000, 0.000, 0.000, 14:06:21.869
17, -3566.25, -3492.69, -3419.80, -2931.68, 0.000, 0.000, 0.000, 14:06:21.870
18, -3825.62, -3515.86, -3524.45, -3076.54, 0.000, 0.000, 0.000, 14:06:21.870
19, -3822.21, -3574.11, -3529.36, -3061.44, 0.000, 0.000, 0.000, 14:06:21.885
20, -3645.30, -3563.03, -3465.80, -2991.52, 0.000, 0.000, 0.000, 14:06:21.885
21, -3537.91, -3504.39, -3417.04, -2979.58, 0.000, 0.000, 0.000, 14:06:21.900
22, -3763.32, -3492.91, -3511.82, -3065.80, 0.000, 0.000, 0.000, 14:06:21.900
23, -3788.30, -3556.19, -3529.88, -3054.50, 0.000, 0.000, 0.000, 14:06:21.901
24, -3670.86, -3548.12, -3478.92, -2966.26, 0.000, 0.000, 0.000, 14:06:21.901
25, -3602.32, -3485.27, -3417.43, -2947.87, 0.000, 0.000, 0.000, 14:06:21.930
26, -3830.55, -3530.25, -3536.45, -3082.71, 0.000, 0.000, 0.000, 14:06:21.930
27, -3794.05, -3559.61, -3541.20, -3066.31, 0.000, 0.000, 0.000, 14:06:21.931
28, -3671.06, -3542.05, -3458.93, -2967.94, 0.000, 0.000, 0.000, 14:06:21.931
29, -3571.10, -3509.31, -3439.14, -2958.52, 0.000, 0.000, 0.000, 14:06:21.931
30, -3810.92, -3511.43, -3526.70, -3070.86, 0.000, 0.000, 0.000, 14:06:21.931
31, -3799.80, -3547.20, -3535.44, -3078.57, 0.000, 0.000, 0.000, 14:06:21.945
32, -3626.97, -3538.87, -3451.56, -2977.12, 0.000, 0.000, 0.000, 14:06:21.945
33, -3592.12, -3498.21, -3412.66, -2925.19, 0.000, 0.000, 0.000, 14:06:21.961
34, -3808.98, -3515.50, -3541.08, -3092.73, 0.000, 0.000, 0.000, 14:06:21.961
35, -3815.58, -3577.45, -3548.86, -3080.03, 0.000, 0.000, 0.000, 14:06:21.961
36, -3657.79, -3550.12, -3460.82, -2964.55, 0.000, 0.000, 0.000, 14:06:21.961
37, -3567.14, -3501.50, -3426.79, -2947.50, 0.000, 0.000, 0.000, 14:06:21.975
38, -3855.79, -3501.19, -3529.02, -3063.06, 0.000, 0.000, 0.000, 14:06:21.975
39, -3793.62, -3560.75, -3549.88, -3066.32, 0.000, 0.000, 0.000, 14:06:22.020
40, -3593.96, -3549.32, -3454.53, -2975.59, 0.000, 0.000, 0.000, 14:06:22.020
41, -3564.63, -3484.98, -3415.57, -2928.58, 0.000, 0.000, 0.000, 14:06:22.020
42, -3845.74, -3514.47, -3526.35, -3086.91, 0.000, 0.000, 0.000, 14:06:22.021
43, -3823.71, -3562.17, -3541.69, -3075.24, 0.000, 0.000, 0.000, 14:06:22.021
44, -3684.19, -3561.87, -3453.15, -2970.86, 0.000, 0.000, 0.000, 14:06:22.021
45, -3550.78, -3478.86, -3398.39, -2912.41, 0.000, 0.000, 0.000, 14:06:22.022
46, -3833.86, -3505.01, -3513.10, -3061.37, 0.000, 0.000, 0.000, 14:06:22.022
47, -3846.41, -3583.60, -3545.59, -3085.13, 0.000, 0.000, 0.000, 14:06:22.023
48, -3722.03, -3546.54, -3461.69, -2961.11, 0.000, 0.000, 0.000, 14:06:22.023
49, -3556.70, -3499.60, -3416.56, -2952.04, 0.000, 0.000, 0.000, 14:06:22.035
50, -3812.50, -3513.65, -3528.41, -3068.79, 0.000, 0.000, 0.000, 14:06:22.035
51, -3796.80, -3585.59, -3530.65, -3054.80, 0.000, 0.000, 0.000, 14:06:22.065
52, -3591.43, -3560.41, -3426.72, -2935.35, 0.000, 0.000, 0.000, 14:06:22.065
53, -3502.02, -3516.08, -3408.46, -2936.47, 0.000, 0.000, 0.000, 14:06:22.065
54, -3846.55, -3551.00, -3526.95, -3050.92, 0.000, 0.000, 0.000, 14:06:22.066
55, -3810.01, -3573.60, -3533.84, -3053.35, 0.000, 0.000, 0.000, 14:06:22.066
56, -3626.74, -3526.43, -3460.99, -2966.59, 0.000, 0.000, 0.000, 14:06:22.066
57, -3571.37, -3539.09, -3405.49, -2960.26, 0.000, 0.000, 0.000, 14:06:22.067
58, -3784.11, -3535.33, -3505.07, -3038.36, 0.000, 0.000, 0.000, 14:06:22.067
59, -3753.99, -3546.98, -3516.01, -3045.51, 0.000, 0.000, 0.000, 14:06:22.080
60, -3494.09, -3569.79, -3429.33, -2932.92, 0.000, 0.000, 0.000, 14:06:22.080
61, -3420.59, -3550.71, -3412.71, -2929.33, 0.000, 0.000, 0.000, 14:06:22.102
62, -3672.46, -3590.68, -3514.80, -3053.18, 0.000, 0.000, 0.000, 14:06:22.102
63, -3625.65, -3635.35, -3502.72, -3002.98, 0.000, 0.000, 0.000, 14:06:22.110
64, -3475.24, -3652.86, -3450.73, -2926.96, 0.000, 0.000, 0.000, 14:06:22.111
65, -3357.11, -3603.60, -3414.46, -2942.02, 0.000, 0.000, 0.000, 14:06:22.111
66, -3598.16, -3583.87, -3503.45, -3052.45, 0.000, 0.000, 0.000, 14:06:22.111
67, -3669.63, -3625.71, -3521.19, -3046.90, 0.000, 0.000, 0.000, 14:06:22.126
68, -3533.20, -3615.66, -3452.03, -2954.19, 0.000, 0.000, 0.000, 14:06:22.126
69, -3516.96, -3547.77, -3408.65, -2965.02, 0.000, 0.000, 0.000, 14:06:22.140
70, -3789.18, -3551.64, -3520.94, -3105.03, 0.000, 0.000, 0.000, 14:06:22.141
71, -3783.32, -3595.02, -3539.30, -3057.96, 0.000, 0.000, 0.000, 14:06:22.141
72, -3606.47, -3537.10, -3451.79, -2951.61, 0.000, 0.000, 0.000, 14:06:22.141
73, -3596.70, -3493.84, -3433.93, -2981.11, 0.000, 0.000, 0.000, 14:06:22.170
74, -3904.18, -3510.60, -3550.48, -3068.36, 0.000, 0.000, 0.000, 14:06:22.170
75, -3873.90, -3535.66, -3548.40, -3058.42, 0.000, 0.000, 0.000, 14:06:22.171
76, -3656.77, -3511.22, -3471.24, -2954.07, 0.000, 0.000, 0.000, 14:06:22.171
77, -3604.64, -3453.82, -3412.97, -2966.83, 0.000, 0.000, 0.000, 14:06:22.185
78, -3910.55, -3482.08, -3555.49, -3116.41, 0.000, 0.000, 0.000, 14:06:22.185
79, -3862.16, -3515.70, -3551.06, -3064.40, 0.000, 0.000, 0.000, 14:06:22.185
80, -3778.85, -3498.55, -3462.58, -2975.07, 0.000, 0.000, 0.000, 14:06:22.185
81, -3642.25, -3453.68, -3441.33, -2975.01, 0.000, 0.000, 0.000, 14:06:22.200
82, -3904.36, -3462.69, -3544.79, -3092.89, 0.000, 0.000, 0.000, 14:06:22.200
83, -3909.68, -3523.33, -3556.85, -3071.75, 0.000, 0.000, 0.000, 14:06:22.201
84, -3713.18, -3489.22, -3451.82, -2971.32, 0.000, 0.000, 0.000, 14:06:22.201
85, -3613.91, -3445.08, -3417.24, -2935.48, 0.000, 0.000, 0.000, 14:06:22.230
86, -3920.50, -3465.03, -3548.07, -3067.29, 0.000, 0.000, 0.000, 14:06:22.230
87, -3915.86, -3497.08, -3526.41, -3089.15, 0.000, 0.000, 0.000, 14:06:22.230
88, -3696.16, -3507.34, -3470.02, -3001.52, 0.000, 0.000, 0.000, 14:06:22.231
89, -3608.88, -3452.18, -3438.82, -2957.25, 0.000, 0.000, 0.000, 14:06:22.231
90, -3879.45, -3467.07, -3544.81, -3093.64, 0.000, 0.000, 0.000, 14:06:22.231
91, -3866.73, -3520.09, -3536.73, -3058.01, 0.000, 0.000, 0.000, 14:06:22.244
92, -3644.78, -3498.59, -3460.28, -2978.40, 0.000, 0.000, 0.000, 14:06:22.245
93, -3630.40, -3462.05, -3438.23, -2965.44, 0.000, 0.000, 0.000, 14:06:22.275
94, -3902.39, -3471.08, -3552.73, -3080.01, 0.000, 0.000, 0.000, 14:06:22.275
95, -3860.46, -3524.07, -3545.76, -3071.21, 0.000, 0.000, 0.000, 14:06:22.276
96, -3709.02, -3506.66, -3461.60, -2979.18, 0.000, 0.000, 0.000, 14:06:22.276
97, -3603.95, -3459.92, -3438.56, -2957.57, 0.000, 0.000, 0.000, 14:06:22.277
98, -3870.96, -3473.03, -3553.01, -3080.00, 0.000, 0.000, 0.000, 14:06:22.277
99, -3843.87, -3532.90, -3542.95, -3069.54, 0.000, 0.000, 0.000, 14:06:22.277
100, -3627.76, -3498.33, -3442.39, -2976.12, 0.000, 0.000, 0.000, 14:06:22.277
101, -3596.02, -3443.45, -3421.39, -2944.15, 0.000, 0.000, 0.000, 14:06:22.305
102, -3899.57, -3477.90, -3535.07, -3088.09, 0.000, 0.000, 0.000, 14:06:22.305
103, -3817.26, -3539.85, -3554.20, -3096.33, 0.000, 0.000, 0.000, 14:06:22.306
104, -3645.09, -3501.63, -3450.58, -2973.03, 0.000, 0.000, 0.000, 14:06:22.306
105, -3548.66, -3436.12, -3416.77, -2943.74, 0.000, 0.000, 0.000, 14:06:22.320
106, -3897.16, -3489.47, -3560.52, -3108.74, 0.000, 0.000, 0.000, 14:06:22.320
107, -3861.65, -3528.99, -3537.79, -3037.88, 0.000, 0.000, 0.000, 14:06:22.321
108, -3647.87, -3522.95, -3460.26, -2958.27, 0.000, 0.000, 0.000, 14:06:22.321
109, -3605.03, -3445.11, -3403.21, -2939.01, 0.000, 0.000, 0.000, 14:06:22.334
110, -3816.92, -3474.70, -3524.44, -3057.07, 0.000, 0.000, 0.000, 14:06:22.335
111, -3819.43, -3530.31, -3538.06, -3054.22, 0.000, 0.000, 0.000, 14:06:22.349
112, -3617.08, -3505.26, -3452.97, -2970.63, 0.000, 0.000, 0.000, 14:06:22.349
113, -3622.83, -3439.18, -3418.31, -2948.77, 0.000, 0.000, 0.000, 14:06:22.350
114, -3839.86, -3457.34, -3535.57, -3078.98, 0.000, 0.000, 0.000, 14:06:22.350
115, -3853.46, -3537.58, -3570.91, -3044.38, 0.000, 0.000, 0.000, 14:06:22.365
116, -3656.55, -3496.39, -3465.01, -3000.46, 0.000, 0.000, 0.000, 14:06:22.365
117, -3594.74, -3427.19, -3411.19, -2965.19, 0.000, 0.000, 0.000, 14:06:22.380
118, -3875.53, -3464.24, -3529.92, -3085.30, 0.000, 0.000, 0.000, 14:06:22.380
119, -3900.94, -3517.79, -3531.34, -3071.21, 0.000, 0.000, 0.000, 14:06:22.380
120, -3599.71, -3492.27, -3449.25, -2974.56, 0.000, 0.000, 0.000, 14:06:22.380
121, -3670.17, -3442.11, -3437.48, -2943.29, 0.000, 0.000, 0.000, 14:06:22.394
122, -3918.26, -3477.06, -3545.66, -3079.24, 0.000, 0.000, 0.000, 14:06:22.397
123, -3837.20, -3512.92, -3518.09, -3043.92, 0.000, 0.000, 0.000, 14:06:22.440
124, -3555.72, -3503.41, -3457.32, -2968.64, 0.000, 0.000, 0.000, 14:06:22.440
125, -3611.16, -3455.87, -3440.69, -2997.48, 0.000, 0.000, 0.000, 14:06:22.440
126, -3861.26, -3501.11, -3549.63, -3103.09, 0.000, 0.000, 0.000, 14:06:22.440
127, -3781.43, -3515.36, -3526.51, -3053.40, 0.000, 0.000, 0.000, 14:06:22.441
128, -3543.26, -3515.36, -3449.26, -2963.55, 0.000, 0.000, 0.000, 14:06:22.441
129, -3590.81, -3453.38, -3425.23, -2942.98, 0.000, 0.000, 0.000, 14:06:22.442
130, -3842.17, -3494.47, -3554.63, -3099.02, 0.000, 0.000, 0.000, 14:06:22.442
131, -3788.45, -3491.80, -3502.63, -3019.78, 0.000, 0.000, 0.000, 14:06:22.443
132, -3617.28, -3512.90, -3457.33, -2976.09, 0.000, 0.000, 0.000, 14:06:22.443
133, -3644.54, -3451.58, -3438.61, -2964.83, 0.000, 0.000, 0.000, 14:06:22.455
134, -3864.48, -3489.81, -3546.17, -3082.00, 0.000, 0.000, 0.000, 14:06:22.455
135, -3812.80, -3527.86, -3535.27, -3069.54, 0.000, 0.000, 0.000, 14:06:22.484
136, -3641.08, -3506.82, -3430.00, -2938.27, 0.000, 0.000, 0.000, 14:06:22.485
137, -3626.94, -3459.36, -3438.19, -2974.85, 0.000, 0.000, 0.000, 14:06:22.485
138, -3863.30, -3471.03, -3528.87, -3047.82, 0.000, 0.000, 0.000, 14:06:22.485
139, -3865.94, -3558.30, -3550.29, -3058.62, 0.000, 0.000, 0.000, 14:06:22.486
140, -3587.31, -3515.27, -3420.91, -2956.35, 0.000, 0.000, 0.000, 14:06:22.486
141, -3581.13, -3467.16, -3431.67, -2968.41, 0.000, 0.000, 0.000, 14:06:22.486
142, -3890.16, -3508.08, -3552.44, -3095.82, 0.000, 0.000, 0.000, 14:06:22.486
143, -3832.24, -3564.16, -3559.65, -3075.42, 0.000, 0.000, 0.000, 14:06:22.500
144, -3589.24, -3510.14, -3446.51, -2964.73, 0.000, 0.000, 0.000, 14:06:22.500
145, -3653.72, -3464.97, -3443.15, -2982.49, 0.000, 0.000, 0.000, 14:06:22.530
146, -3785.59, -3471.23, -3521.77, -3051.65, 0.000, 0.000, 0.000, 14:06:22.530
147, -3837.13, -3543.18, -3536.72, -3043.65, 0.000, 0.000, 0.000, 14:06:22.531
148, -3594.89, -3517.21, -3455.90, -2967.75, 0.000, 0.000, 0.000, 14:06:22.531
149, -3605.44, -3452.58, -3427.95, -2958.71, 0.000, 0.000, 0.000, 14:06:22.531
150, -3806.32, -3481.96, -3536.01, -3089.66, 0.000, 0.000, 0.000, 14:06:22.531
151, -3784.13, -3524.04, -3524.80, -3014.59, 0.000, 0.000, 0.000, 14:06:22.575
152, -3635.76, -3517.19, -3438.60, -2968.26, 0.000, 0.000, 0.000, 14:06:22.575
153, -3600.77, -3457.21, -3428.87, -2956.16, 0.000, 0.000, 0.000, 14:06:22.576
154, -3848.52, -3500.48, -3540.60, -3078.10, 0.000, 0.000, 0.000, 14:06:22.576
155, -3855.37, -3546.07, -3542.55, -3044.21, 0.000, 0.000, 0.000, 14:06:22.577
156, -3595.30, -3518.84, -3447.10, -2964.05, 0.000, 0.000, 0.000, 14:06:22.577
157, -3624.45, -3448.62, -3429.27, -2943.91, 0.000, 0.000, 0.000, 14:06:22.577
158, -3804.79, -3494.15, -3542.53, -3099.60, 0.000, 0.000, 0.000, 14:06:22.577
159, -3901.98, -3536.01, -3528.82, -3063.47, 0.000, 0.000, 0.000, 14:06:22.578
160, -3574.52, -3515.16, -3442.22, -2932.96, 0.000, 0.000, 0.000, 14:06:22.578
161, -3568.25, -3453.71, -3425.74, -2962.40, 0.000, 0.000, 0.000, 14:06:22.606
162, -3872.32, -3492.15, -3546.90, -3090.92, 0.000, 0.000, 0.000, 14:06:22.606
163, -3819.14, -3535.84, -3531.82, -3054.83, 0.000, 0.000, 0.000, 14:06:22.606
164, -3636.53, -3506.38, -3444.19, -2959.03, 0.000, 0.000, 0.000, 14:06:22.606
165, -3614.23, -3470.42, -3446.71, -2976.88, 0.000, 0.000, 0.000, 14:06:22.620
166, -3832.57, -3486.64, -3540.82, -3080.59, 0.000, 0.000, 0.000, 14:06:22.620
167, -3823.99, -3539.33, -3535.66, -3047.48, 0.000, 0.000, 0.000, 14:06:22.621
168, -3621.94, -3528.93, -3449.12, -2989.35, 0.000, 0.000, 0.000, 14:06:22.621
169, -3587.04, -3459.50, -3428.35, -2967.37, 0.000, 0.000, 0.000, 14:06:22.635
170, -3900.45, -3492.02, -3522.25, -3068.41, 0.000, 0.000, 0.000, 14:06:22.635
171, -3791.72, -3551.02, -3543.34, -3086.07, 0.000, 0.000, 0.000, 14:06:22.650
172, -3596.20, -3521.52, -3451.67, -2957.51, 0.000, 0.000, 0.000, 14:06:22.650
173, -3627.83, -3461.07, -3431.12, -2969.72, 0.000, 0.000, 0.000, 14:06:22.650
174, -3901.53, -3520.21, -3563.08, -3114.31, 0.000, 0.000, 0.000, 14:06:22.650
175, -3791.49, -3544.05, -3530.78, -3054.14, 0.000, 0.000, 0.000, 14:06:22.665
176, -3556.13, -3481.21, -3406.41, -2909.69, 0.000, 0.000, 0.000, 14:06:22.665
177, -3625.57, -3463.98, -3436.70, -2977.23, 0.000, 0.000, 0.000, 14:06:22.679
178, -3881.04, -3506.40, -3554.94, -3085.22, 0.000, 0.000, 0.000, 14:06:22.680
179, -3793.82, -3553.21, -3532.88, -3061.63, 0.000, 0.000, 0.000, 14:06:22.680
180, -3634.91, -3520.14, -3438.79, -2951.05, 0.000, 0.000, 0.000, 14:06:22.680
181, -3630.40, -3472.12, -3439.83, -2982.02, 0.000, 0.000, 0.000, 14:06:22.695
182, -3830.94, -3501.25, -3557.86, -3082.92, 0.000, 0.000, 0.000, 14:06:22.695
183, -3812.88, -3557.39, -3520.53, -3030.43, 0.000, 0.000, 0.000, 14:06:22.741
184, -3616.65, -3521.70, -3448.08, -2973.46, 0.000, 0.000, 0.000, 14:06:22.741
185, -3637.96, -3465.26, -3442.82, -2994.26, 0.000, 0.000, 0.000, 14:06:22.742
186, -3864.09, -3494.96, -3539.83, -3083.22, 0.000, 0.000, 0.000, 14:06:22.742
187, -3805.77, -3538.56, -3533.98, -3030.15, 0.000, 0.000, 0.000, 14:06:22.742
188, -3572.68, -3529.46, -3457.37, -2969.67, 0.000, 0.000, 0.000, 14:06:22.742
189, -3610.44, -3469.74, -3428.78, -2975.24, 0.000, 0.000, 0.000, 14:06:22.743
190, -3885.96, -3509.73, -3537.00, -3069.92, 0.000, 0.000, 0.000, 14:06:22.743
191, -3818.59, -3549.69, -3532.17, -3017.48, 0.000, 0.000, 0.000, 14:06:22.743
192, -3604.47, -3521.91, -3451.22, -2956.73, 0.000, 0.000, 0.000, 14:06:22.744
193, -3577.16, -3461.30, -3440.13, -2980.43, 0.000, 0.000, 0.000, 14:06:22.755
194, -3843.90, -3496.33, -3524.36, -3077.67, 0.000, 0.000, 0.000, 14:06:22.756
195, -3749.66, -3546.89, -3516.47, -3062.38, 0.000, 0.000, 0.000, 14:06:22.785
196, -3585.58, -3518.90, -3436.79, -2951.68, 0.000, 0.000, 0.000, 14:06:22.785
197, -3638.88, -3491.96, -3472.55, -2977.20, 0.000, 0.000, 0.000, 14:06:22.786
198, -3886.99, -3536.75, -3569.89, -3094.12, 0.000, 0.000, 0.000, 14:06:22.786
199, -3817.74, -3548.73, -3535.59, -3052.50, 0.000, 0.000, 0.000, 14:06:22.786
200, -3588.08, -3513.24, -3425.00, -2921.15, 0.000, 0.000, 0.000, 14:06:22.786
0, -3622.64, -3460.61, -3420.57, -2956.28, 0.000, 0.000, 0.000, 14:06:22.787
1, -3861.68, -3505.05, -3562.35, -3093.22, 0.000, 0.000, 0.000, 14:06:22.799
2, -3796.55, -3564.34, -3532.99, -3050.29, 0.000, 0.000, 0.000, 14:06:22.799
3, -3572.63, -3525.76, -3434.56, -2973.55, 0.000, 0.000, 0.000, 14:06:22.815
4, -3660.18, -3478.50, -3440.86, -2958.22, 0.000, 0.000, 0.000, 14:06:22.815
5, -3878.81, -3523.45, -3554.89, -3102.70, 0.000, 0.000, 0.000, 14:06:22.829
6, -3825.34, -3557.22, -3529.61, -3057.18, 0.000, 0.000, 0.000, 14:06:22.829
7, -3623.19, -3526.73, -3436.96, -2947.84, 0.000, 0.000, 0.000, 14:06:22.830
8, -3636.80, -3475.65, -3439.40, -2969.14, 0.000, 0.000, 0.000, 14:06:22.830
9, -3883.92, -3514.46, -3550.95, -3082.96, 0.000, 0.000, 0.000, 14:06:22.860
10, -3781.08, -3535.35, -3494.44, -3034.14, 0.000, 0.000, 0.000, 14:06:22.860
11, -3604.75, -3530.61, -3446.02, -2954.99, 0.000, 0.000, 0.000, 14:06:22.860
12, -3636.50, -3471.65, -3444.91, -2990.74, 0.000, 0.000, 0.000, 14:06:22.860
13, -3878.64, -3533.06, -3567.99, -3125.11, 0.000, 0.000, 0.000, 14:06:22.861
14, -3821.91, -3559.81, -3539.76, -3073.43, 0.000, 0.000, 0.000, 14:06:22.861
15, -3602.48, -3522.14, -3438.62, -2950.46, 0.000, 0.000, 0.000, 14:06:22.862
16, -3601.66, -3449.98, -3417.01, -2932.97, 0.000, 0.000, 0.000, 14:06:22.862
17, -3883.19, -3551.30, -3573.66, -3114.51, 0.000, 0.000, 0.000, 14:06:22.875
18, -3809.65, -3560.68, -3537.57, -3053.34, 0.000, 0.000, 0.000, 14:06:22.876
19, -3580.78, -3519.87, -3437.86, -2939.32, 0.000, 0.000, 0.000, 14:06:22.891
20, -3642.89, -3483.37, -3457.24, -2987.73, 0.000, 0.000, 0.000, 14:06:22.891
21, -3886.16, -3513.09, -3543.09, -3095.02, 0.000, 0.000, 0.000, 14:06:22.906
22, -3812.05, -3548.11, -3516.99, -3044.02, 0.000, 0.000, 0.000, 14:06:22.906
23, -3624.65, -3524.92, -3448.97, -2973.12, 0.000, 0.000, 0.000, 14:06:22.906
24, -3630.75, -3482.71, -3443.82, -2995.87, 0.000, 0.000, 0.000, 14:06:22.906
25, -3848.85, -3507.84, -3531.18, -3076.75, 0.000, 0.000, 0.000, 14:06:22.920
26, -3817.04, -3552.78, -3534.84, -3031.49, 0.000, 0.000, 0.000, 14:06:22.920
27, -3604.63, -3514.89, -3433.60, -2936.34, 0.000, 0.000, 0.000, 14:06:22.935
28, -3614.28, -3463.39, -3437.83, -2983.05, 0.000, 0.000, 0.000, 14:06:22.935
29, -3901.96, -3525.88, -3564.62, -3100.65, 0.000, 0.000, 0.000, 14:06:22.935
30, -3807.19, -3557.12, -3541.14, -3066.16, 0.000, 0.000, 0.000, 14:06:22.935
31, -3580.24, -3518.38, -3433.07, -2973.96, 0.000, 0.000, 0.000, 14:06:22.950
32, -3616.52, -3453.48, -3436.14, -2989.18, 0.000, 0.000, 0.000, 14:06:22.950
33, -3888.64, -3527.32, -3558.21, -3076.88, 0.000, 0.000, 0.000, 14:06:22.980
34, -3782.26, -3562.13, -3529.99, -3025.95, 0.000, 0.000, 0.000, 14:06:22.980
35, -3580.32, -3520.30, -3439.11, -2940.83, 0.000, 0.000, 0.000, 14:06:22.981
36, -3627.23, -3470.73, -3453.43, -2983.79, 0.000, 0.000, 0.000, 14:06:22.981
37, -3829.86, -3520.57, -3550.62, -3079.16, 0.000, 0.000, 0.000, 14:06:22.981
38, -3776.52, -3541.42, -3518.54, -3044.25, 0.000, 0.000, 0.000, 14:06:22.981
39, -3586.32, -3541.37, -3442.97, -2943.16, 0.000, 0.000, 0.000, 14:06:22.981
40, -3623.15, -3462.16, -3443.47, -2970.07, 0.000, 0.000, 0.000, 14:06:22.982
41, -3897.97, -3523.90, -3567.81, -3108.30, 0.000, 0.000, 0.000, 14:06:22.995
42, -3820.49, -3560.13, -3535.48, -3069.40, 0.000, 0.000, 0.000, 14:06:22.995
43, -3569.43, -3514.98, -3428.99, -2935.48, 0.000, 0.000, 0.000, 14:06:23.010
44, -3603.48, -3455.58, -3424.45, -3002.61, 0.000, 0.000, 0.000, 14:06:23.011
45, -3844.67, -3539.46, -3576.26, -3109.64, 0.000, 0.000, 0.000, 14:06:23.024
46, -3772.62, -3558.68, -3520.19, -3044.79, 0.000, 0.000, 0.000, 14:06:23.024
47, -3589.22, -3531.78, -3435.33, -2957.15, 0.000, 0.000, 0.000, 14:06:23.040
48, -3643.45, -3473.75, -3469.16, -2982.36, 0.000, 0.000, 0.000, 14:06:23.041
49, -3886.45, -3526.99, -3566.26, -3081.38, 0.000, 0.000, 0.000, 14:06:23.041
50, -3782.31, -3562.32, -3532.28, -3038.41, 0.000, 0.000, 0.000, 14:06:23.041
51, -3587.35, -3514.02, -3423.16, -2943.03, 0.000, 0.000, 0.000, 14:06:23.055
52, -3658.21, -3471.30, -3442.84, -2975.88, 0.000, 0.000, 0.000, 14:06:23.055
53, -3850.89, -3512.87, -3531.65, -3091.26, 0.000, 0.000, 0.000, 14:06:23.056
54, -3805.92, -3571.07, -3518.35, -3054.12, 0.000, 0.000, 0.000, 14:06:23.056
55, -3579.20, -3535.41, -3466.47, -2956.60, 0.000, 0.000, 0.000, 14:06:23.070
56, -3650.67, -3475.70, -3459.50, -2999.32, 0.000, 0.000, 0.000, 14:06:23.070
57, -3899.63, -3529.60, -3566.86, -3107.10, 0.000, 0.000, 0.000, 14:06:23.084
58, -3763.61, -3543.65, -3523.70, -3043.78, 0.000, 0.000, 0.000, 14:06:23.084
59, -3593.85, -3521.08, -3423.37, -2927.47, 0.000, 0.000, 0.000, 14:06:23.085
60, -3622.70, -3462.49, -3426.17, -2979.54, 0.000, 0.000, 0.000, 14:06:23.085
61, -3862.65, -3532.73, -3563.26, -3116.75, 0.000, 0.000, 0.000, 14:06:23.115
62, -3840.46, -3546.99, -3510.48, -3025.55, 0.000, 0.000, 0.000, 14:06:23.115
63, -3599.96, -3527.11, -3436.76, -2935.36, 0.000, 0.000, 0.000, 14:06:23.116
64, -3678.15, -3475.94, -3460.57, -2984.79, 0.000, 0.000, 0.000, 14:06:23.116
65, -3895.97, -3528.96, -3562.93, -3106.91, 0.000, 0.000, 0.000, 14:06:23.116
66, -3755.48, -3541.92, -3508.67, -3035.00, 0.000, 0.000, 0.000, 14:06:23.116
67, -3581.62, -3527.14, -3435.39, -2948.44, 0.000, 0.000, 0.000, 14:06:23.129
68, -3649.20, -3478.26, -3459.10, -2995.99, 0.000, 0.000, 0.000, 14:06:23.130
69, -3864.75, -3505.91, -3551.88, -3087.53, 0.000, 0.000, 0.000, 14:06:23.160
70, -3785.67, -3550.49, -3523.37, -3018.98, 0.000, 0.000, 0.000, 14:06:23.160
71, -3602.13, -3519.52, -3422.36, -2939.00, 0.000, 0.000, 0.000, 14:06:23.161
72, -3658.43, -3474.71, -3463.52, -2990.14, 0.000, 0.000, 0.000, 14:06:23.161
73, -3907.53, -3542.64, -3570.81, -3120.51, 0.000, 0.000, 0.000, 14:06:23.161
74, -3744.16, -3551.70, -3518.65, -3051.53, 0.000, 0.000, 0.000, 14:06:23.161
75, -3610.23, -3517.71, -3431.07, -2950.45, 0.000, 0.000, 0.000, 14:06:23.162
76, -3625.37, -3465.80, -3454.87, -3011.58, 0.000, 0.000, 0.000, 14:06:23.162
77, -3893.78, -3522.08, -3551.04, -3102.46, 0.000, 0.000, 0.000, 14:06:23.175
78, -3765.98, -3545.09, -3528.69, -3022.33, 0.000, 0.000, 0.000, 14:06:23.175
79, -3606.66, -3498.20, -3413.83, -2928.15, 0.000, 0.000, 0.000, 14:06:23.190
80, -3680.61, -3496.87, -3469.68, -2985.90, 0.000, 0.000, 0.000, 14:06:23.190
81, -3908.65, -3540.47, -3571.19, -3112.26, 0.000, 0.000, 0.000, 14:06:23.206
82, -3763.47, -3564.13, -3524.22, -3034.79, 0.000, 0.000, 0.000, 14:06:23.206
83, -3564.09, -3526.97, -3425.33, -2946.58, 0.000, 0.000, 0.000, 14:06:23.206
84, -3677.50, -3471.98, -3454.45, -2986.71, 0.000, 0.000, 0.000, 14:06:23.206
85, -3875.08, -3507.85, -3527.55, -3079.06, 0.000, 0.000, 0.000, 14:06:23.220
86, -3790.87, -3568.12, -3519.98, -3035.84, 0.000, 0.000, 0.000, 14:06:23.220
87, -3584.10, -3538.82, -3444.56, -2954.60, 0.000, 0.000, 0.000, 14:06:23.235
88, -3643.09, -3483.99, -3464.57, -3006.17, 0.000, 0.000, 0.000, 14:06:23.235
89, -3878.56, -3531.20, -3560.36, -3123.25, 0.000, 0.000, 0.000, 14:06:23.235
90, -3769.36, -3559.22, -3518.97, -3054.66, 0.000, 0.000, 0.000, 14:06:23.236
91, -3582.12, -3520.02, -3416.84, -2918.63, 0.000, 0.000, 0.000, 14:06:23.250
92, -3648.19, -3475.04, -3460.33, -2995.89, 0.000, 0.000, 0.000, 14:06:23.250
93, -3841.21, -3522.81, -3561.68, -3127.54, 0.000, 0.000, 0.000, 14:06:23.281
94, -3734.80, -3552.22, -3511.03, -3013.31, 0.000, 0.000, 0.000, 14:06:23.281
95, -3547.27, -3512.39, -3426.82, -2925.21, 0.000, 0.000, 0.000, 14:06:23.281
96, -3671.77, -3488.07, -3460.13, -2985.87, 0.000, 0.000, 0.000, 14:06:23.281
97, -3929.85, -3539.42, -3561.91, -3103.18, 0.000, 0.000, 0.000, 14:06:23.281
98, -3814.73, -3553.10, -3532.74, -3032.38, 0.000, 0.000, 0.000, 14:06:23.281
99, -3551.06, -3519.18, -3432.22, -2936.00, 0.000, 0.000, 0.000, 14:06:23.282
100, -3661.99, -3483.04, -3460.53, -2991.53, 0.000, 0.000, 0.000, 14:06:23.282
101, -3880.76, -3516.65, -3532.46, -3078.89, 0.000, 0.000, 0.000, 14:06:23.294
102, -3795.60, -3574.56, -3520.24, -3051.38, 0.000, 0.000, 0.000, 14:06:23.294
