%OpenBCI Raw EEG Data
%
%Sample Rate = 200.0 Hz
%First Column = SampleIndex
%Last Column = Timestamp 
%Other Columns = EEG data in microvolts followed by Accel Data (in G) interleaved with Aux Data
0, -3871.65, -3790.72, -3758.33, -3223.17, 0.000, 0.000, 0.000, 14:11:22.937
1, -3666.68, -3707.88, -3641.19, -3125.16, 0.000, 0.000, 0.000, 14:11:22.951
2, -4036.52, -3781.76, -3868.83, -3300.72, 0.000, 0.000, 0.000, 14:11:22.951
3, -4093.92, -3811.89, -3868.62, -3294.57, 0.000, 0.000, 0.000, 14:11:22.980
4, -3785.25, -3727.94, -3682.99, -3133.85, 0.000, 0.000, 0.000, 14:11:22.980
5, -3638.36, -3684.62, -3603.15, -3104.30, 0.000, 0.000, 0.000, 14:11:22.981
6, -4049.42, -3767.24, -3840.66, -3310.81, 0.000, 0.000, 0.000, 14:11:22.982
7, -4096.98, -3828.14, -3874.19, -3288.61, 0.000, 0.000, 0.000, 14:11:22.982
8, -3766.46, -3732.88, -3698.91, -3152.82, 0.000, 0.000, 0.000, 14:11:22.982
9, -3626.07, -3650.24, -3589.07, -3071.60, 0.000, 0.000, 0.000, 14:11:22.982
10, -3980.15, -3720.58, -3824.77, -3263.52, 0.000, 0.000, 0.000, 14:11:22.982
11, -4045.38, -3786.34, -3845.21, -3293.74, 0.000, 0.000, 0.000, 14:11:23.026
12, -3791.79, -3719.51, -3677.03, -3178.72, 0.000, 0.000, 0.000, 14:11:23.026
13, -3609.70, -3631.38, -3563.46, -3066.13, 0.000, 0.000, 0.000, 14:11:23.026
14, -4000.10, -3704.11, -3796.22, -3260.71, 0.000, 0.000, 0.000, 14:11:23.027
15, -4041.34, -3782.63, -3835.39, -3273.96, 0.000, 0.000, 0.000, 14:11:23.027
16, -3772.25, -3703.14, -3671.47, -3127.52, 0.000, 0.000, 0.000, 14:11:23.027
17, -3596.87, -3632.58, -3563.80, -3080.96, 0.000, 0.000, 0.000, 14:11:23.056
18, -3991.94, -3729.99, -3809.01, -3280.30, 0.000, 0.000, 0.000, 14:11:23.056
19, -4030.71, -3789.53, -3812.60, -3259.64, 0.000, 0.000, 0.000, 14:11:23.056
20, -3768.78, -3700.44, -3651.61, -3125.05, 0.000, 0.000, 0.000, 14:11:23.056
21, -3599.05, -3620.82, -3548.41, -3047.34, 0.000, 0.000, 0.000, 14:11:23.057
22, -4001.42, -3721.81, -3809.28, -3282.77, 0.000, 0.000, 0.000, 14:11:23.057
23, -4041.37, -3781.51, -3829.85, -3285.26, 0.000, 0.000, 0.000, 14:11:23.057
24, -3783.85, -3729.41, -3665.30, -3140.74, 0.000, 0.000, 0.000, 14:11:23.058
25, -3609.81, -3667.47, -3585.52, -3093.27, 0.000, 0.000, 0.000, 14:11:23.071
26, -3953.51, -3722.98, -3829.61, -3280.22, 0.000, 0.000, 0.000, 14:11:23.071
27, -4025.04, -3784.98, -3912.37, -3287.47, 0.000, 0.000, 0.000, 14:11:23.100
28, -3773.33, -3728.35, -3755.13, -3133.23, 0.000, 0.000, 0.000, 14:11:23.100
29, -3615.48, -3673.68, -3649.67, -3095.38, 0.000, 0.000, 0.000, 14:11:23.101
30, -3976.03, -3722.97, -3856.88, -3284.06, 0.000, 0.000, 0.000, 14:11:23.101
31, -4022.58, -3801.82, -3875.09, -3282.53, 0.000, 0.000, 0.000, 14:11:23.102
32, -3740.87, -3742.75, -3697.60, -3127.39, 0.000, 0.000, 0.000, 14:11:23.102
33, -3560.95, -3651.34, -3589.04, -3086.67, 0.000, 0.000, 0.000, 14:11:23.103
34, -3972.74, -3765.88, -3852.13, -3300.71, 0.000, 0.000, 0.000, 14:11:23.103
35, -4016.09, -3832.97, -3852.35, -3245.37, 0.000, 0.000, 0.000, 14:11:23.147
36, -3728.71, -3760.64, -3679.75, -3122.72, 0.000, 0.000, 0.000, 14:11:23.147
37, -3578.02, -3769.01, -3619.17, -3088.89, 0.000, 0.000, 0.000, 14:11:23.148
38, -3919.02, -3762.64, -3820.05, -3255.20, 0.000, 0.000, 0.000, 14:11:23.148
39, -3954.94, -3795.61, -3853.92, -3240.91, 0.000, 0.000, 0.000, 14:11:23.148
40, -3645.72, -3748.66, -3677.51, -3079.64, 0.000, 0.000, 0.000, 14:11:23.148
41, -3513.33, -3637.28, -3589.34, -3046.13, 0.000, 0.000, 0.000, 14:11:23.155
42, -3842.53, -3764.85, -3800.09, -3194.60, 0.000, 0.000, 0.000, 14:11:23.155
43, -3859.56, -3858.92, -3829.39, -3193.75, 0.000, 0.000, 0.000, 14:11:23.191
44, -3607.06, -3777.55, -3649.10, -3022.99, 0.000, 0.000, 0.000, 14:11:23.192
45, -3462.52, -3659.60, -3576.10, -2952.31, 0.000, 0.000, 0.000, 14:11:23.192
46, -3888.19, -3739.13, -3802.73, -3198.82, 0.000, 0.000, 0.000, 14:11:23.192
47, -3925.40, -3800.25, -3833.73, -3222.49, 0.000, 0.000, 0.000, 14:11:23.193
48, -3716.62, -3694.34, -3645.68, -3063.00, 0.000, 0.000, 0.000, 14:11:23.193
49, -3560.95, -3612.30, -3581.59, -3025.53, 0.000, 0.000, 0.000, 14:11:23.194
50, -3944.97, -3682.00, -3788.84, -3244.74, 0.000, 0.000, 0.000, 14:11:23.194
51, -3979.18, -3698.19, -3795.58, -3195.78, 0.000, 0.000, 0.000, 14:11:23.194
52, -3752.74, -3650.09, -3660.47, -3075.52, 0.000, 0.000, 0.000, 14:11:23.194
53, -3595.88, -3552.69, -3550.60, -2995.27, 0.000, 0.000, 0.000, 14:11:23.220
54, -3998.39, -3610.49, -3794.22, -3225.83, 0.000, 0.000, 0.000, 14:11:23.220
55, -4036.79, -3655.84, -3802.59, -3178.71, 0.000, 0.000, 0.000, 14:11:23.221
56, -3830.03, -3649.21, -3689.19, -3106.67, 0.000, 0.000, 0.000, 14:11:23.221
57, -3643.87, -3544.04, -3583.02, -3007.03, 0.000, 0.000, 0.000, 14:11:23.235
58, -4028.37, -3599.48, -3777.33, -3203.17, 0.000, 0.000, 0.000, 14:11:23.235
59, -4081.26, -3675.39, -3805.67, -3230.82, 0.000, 0.000, 0.000, 14:11:23.236
60, -3785.08, -3607.86, -3631.40, -3049.66, 0.000, 0.000, 0.000, 14:11:23.236
61, -3666.38, -3555.50, -3584.10, -3019.42, 0.000, 0.000, 0.000, 14:11:23.266
62, -4025.16, -3592.54, -3796.13, -3201.21, 0.000, 0.000, 0.000, 14:11:23.266
63, -4082.66, -3654.53, -3817.44, -3214.76, 0.000, 0.000, 0.000, 14:11:23.266
64, -3824.46, -3638.45, -3680.87, -3096.43, 0.000, 0.000, 0.000, 14:11:23.266
65, -3674.08, -3535.89, -3575.81, -3036.18, 0.000, 0.000, 0.000, 14:11:23.267
66, -4019.17, -3583.48, -3773.84, -3179.04, 0.000, 0.000, 0.000, 14:11:23.267
67, -4070.86, -3710.61, -3827.85, -3231.86, 0.000, 0.000, 0.000, 14:11:23.281
68, -3823.31, -3639.85, -3669.09, -3098.74, 0.000, 0.000, 0.000, 14:11:23.281
69, -3686.87, -3580.88, -3580.51, -3079.30, 0.000, 0.000, 0.000, 14:11:23.311
70, -4033.53, -3626.73, -3759.05, -3250.69, 0.000, 0.000, 0.000, 14:11:23.311
71, -4080.27, -3696.41, -3787.70, -3226.33, 0.000, 0.000, 0.000, 14:11:23.312
72, -3847.56, -3696.46, -3674.14, -3108.81, 0.000, 0.000, 0.000, 14:11:23.313
73, -3715.35, -3608.25, -3591.26, -3057.63, 0.000, 0.000, 0.000, 14:11:23.313
74, -4038.11, -3652.63, -3762.55, -3225.78, 0.000, 0.000, 0.000, 14:11:23.314
75, -4083.31, -3756.15, -3819.33, -3240.29, 0.000, 0.000, 0.000, 14:11:23.325
76, -3838.16, -3694.65, -3665.78, -3099.57, 0.000, 0.000, 0.000, 14:11:23.325
77, -3700.72, -3627.80, -3595.60, -3079.80, 0.000, 0.000, 0.000, 14:11:23.327
78, -4044.58, -3668.06, -3798.00, -3277.06, 0.000, 0.000, 0.000, 14:11:23.327
79, -4088.34, -3745.95, -3812.17, -3254.26, 0.000, 0.000, 0.000, 14:11:23.341
80, -3820.75, -3717.48, -3672.66, -3145.88, 0.000, 0.000, 0.000, 14:11:23.341
81, -3685.66, -3625.50, -3572.28, -3055.21, 0.000, 0.000, 0.000, 14:11:23.385
82, -4019.15, -3670.79, -3770.64, -3248.49, 0.000, 0.000, 0.000, 14:11:23.385
83, -4059.20, -3726.41, -3789.35, -3243.05, 0.000, 0.000, 0.000, 14:11:23.386
84, -3842.17, -3742.20, -3690.43, -3159.63, 0.000, 0.000, 0.000, 14:11:23.386
85, -3690.91, -3681.67, -3615.71, -3104.85, 0.000, 0.000, 0.000, 14:11:23.386
86, -4004.98, -3644.40, -3746.16, -3272.83, 0.000, 0.000, 0.000, 14:11:23.387
87, -4075.76, -3731.31, -3801.72, -3216.47, 0.000, 0.000, 0.000, 14:11:23.387
88, -3834.07, -3721.49, -3673.26, -3125.88, 0.000, 0.000, 0.000, 14:11:23.387
89, -3695.44, -3647.26, -3593.53, -3083.30, 0.000, 0.000, 0.000, 14:11:23.388
90, -3996.92, -3642.68, -3727.51, -3252.14, 0.000, 0.000, 0.000, 14:11:23.388
91, -4024.51, -3702.29, -3769.39, -3222.74, 0.000, 0.000, 0.000, 14:11:23.401
92, -3796.34, -3701.03, -3676.99, -3105.78, 0.000, 0.000, 0.000, 14:11:23.401
93, -3679.14, -3649.85, -3596.59, -3115.34, 0.000, 0.000, 0.000, 14:11:23.416
94, -3976.50, -3645.73, -3731.41, -3262.38, 0.000, 0.000, 0.000, 14:11:23.417
95, -4013.60, -3694.75, -3753.61, -3250.15, 0.000, 0.000, 0.000, 14:11:23.417
96, -3793.94, -3705.35, -3656.55, -3151.70, 0.000, 0.000, 0.000, 14:11:23.417
97, -3626.38, -3616.39, -3558.29, -3062.73, 0.000, 0.000, 0.000, 14:11:23.431
98, -3982.72, -3646.82, -3726.78, -3268.53, 0.000, 0.000, 0.000, 14:11:23.431
99, -4002.90, -3711.65, -3753.87, -3262.80, 0.000, 0.000, 0.000, 14:11:23.446
100, -3771.45, -3706.56, -3654.33, -3115.53, 0.000, 0.000, 0.000, 14:11:23.446
101, -3652.10, -3670.48, -3578.00, -3073.92, 0.000, 0.000, 0.000, 14:11:23.447
102, -3974.90, -3676.68, -3743.76, -3265.71, 0.000, 0.000, 0.000, 14:11:23.447
103, -3987.52, -3721.62, -3769.19, -3274.64, 0.000, 0.000, 0.000, 14:11:23.461
104, -3792.88, -3722.96, -3671.44, -3144.47, 0.000, 0.000, 0.000, 14:11:23.462
105, -3643.70, -3674.00, -3588.23, -3075.61, 0.000, 0.000, 0.000, 14:11:23.491
106, -3952.64, -3688.10, -3747.35, -3275.02, 0.000, 0.000, 0.000, 14:11:23.491
107, -4011.29, -3747.94, -3768.61, -3270.85, 0.000, 0.000, 0.000, 14:11:23.491
108, -3798.55, -3755.36, -3675.59, -3161.93, 0.000, 0.000, 0.000, 14:11:23.491
109, -3652.46, -3674.87, -3606.09, -3116.07, 0.000, 0.000, 0.000, 14:11:23.492
110, -3945.29, -3660.76, -3726.37, -3263.21, 0.000, 0.000, 0.000, 14:11:23.492
111, -3995.20, -3751.67, -3762.64, -3255.96, 0.000, 0.000, 0.000, 14:11:23.493
112, -3807.70, -3779.28, -3687.97, -3171.27, 0.000, 0.000, 0.000, 14:11:23.493
113, -3661.32, -3700.61, -3603.97, -3140.53, 0.000, 0.000, 0.000, 14:11:23.506
114, -3972.17, -3694.43, -3718.34, -3247.03, 0.000, 0.000, 0.000, 14:11:23.506
115, -4030.30, -3770.41, -3775.16, -3287.09, 0.000, 0.000, 0.000, 14:11:23.521
116, -3838.55, -3763.21, -3689.23, -3164.30, 0.000, 0.000, 0.000, 14:11:23.521
117, -3704.96, -3669.26, -3610.85, -3114.26, 0.000, 0.000, 0.000, 14:11:23.536
118, -4002.72, -3695.31, -3743.27, -3293.98, 0.000, 0.000, 0.000, 14:11:23.536
119, -4018.90, -3735.18, -3751.49, -3265.80, 0.000, 0.000, 0.000, 14:11:23.536
120, -3818.77, -3738.40, -3685.62, -3160.81, 0.000, 0.000, 0.000, 14:11:23.537
121, -3689.14, -3690.12, -3606.59, -3134.28, 0.000, 0.000, 0.000, 14:11:23.566
122, -3993.71, -3686.55, -3741.19, -3328.15, 0.000, 0.000, 0.000, 14:11:23.566
123, -4018.40, -3748.19, -3753.80, -3296.72, 0.000, 0.000, 0.000, 14:11:23.566
124, -3818.23, -3720.81, -3669.76, -3141.70, 0.000, 0.000, 0.000, 14:11:23.566
125, -3694.62, -3695.38, -3618.62, -3126.94, 0.000, 0.000, 0.000, 14:11:23.567
126, -3977.93, -3657.89, -3731.51, -3288.31, 0.000, 0.000, 0.000, 14:11:23.567
127, -4012.57, -3740.77, -3774.74, -3265.86, 0.000, 0.000, 0.000, 14:11:23.582
128, -3793.53, -3743.86, -3679.42, -3207.03, 0.000, 0.000, 0.000, 14:11:23.582
129, -3645.16, -3670.61, -3588.23, -3111.78, 0.000, 0.000, 0.000, 14:11:23.597
130, -3959.68, -3665.98, -3720.54, -3224.84, 0.000, 0.000, 0.000, 14:11:23.597
131, -3988.54, -3731.37, -3758.68, -3237.86, 0.000, 0.000, 0.000, 14:11:23.598
132, -3767.17, -3740.23, -3696.44, -3167.30, 0.000, 0.000, 0.000, 14:11:23.598
133, -3664.86, -3665.54, -3616.27, -3116.69, 0.000, 0.000, 0.000, 14:11:23.611
134, -3944.69, -3661.80, -3703.53, -3241.59, 0.000, 0.000, 0.000, 14:11:23.612
135, -3974.92, -3733.17, -3748.06, -3243.63, 0.000, 0.000, 0.000, 14:11:23.626
136, -3770.77, -3742.63, -3690.42, -3142.04, 0.000, 0.000, 0.000, 14:11:23.626
137, -3658.92, -3670.37, -3606.70, -3111.40, 0.000, 0.000, 0.000, 14:11:23.627
138, -3961.73, -3644.92, -3708.28, -3245.93, 0.000, 0.000, 0.000, 14:11:23.627
139, -4008.88, -3730.86, -3755.57, -3271.37, 0.000, 0.000, 0.000, 14:11:23.641
140, -3784.13, -3745.77, -3671.63, -3141.33, 0.000, 0.000, 0.000, 14:11:23.641
141, -3638.56, -3671.48, -3597.47, -3112.58, 0.000, 0.000, 0.000, 14:11:23.656
142, -3911.19, -3649.88, -3716.94, -3245.46, 0.000, 0.000, 0.000, 14:11:23.656
143, -3962.75, -3716.44, -3759.73, -3228.70, 0.000, 0.000, 0.000, 14:11:23.656
144, -3770.79, -3732.34, -3680.30, -3148.55, 0.000, 0.000, 0.000, 14:11:23.656
145, -3642.84, -3674.19, -3604.39, -3098.05, 0.000, 0.000, 0.000, 14:11:23.671
146, -3930.08, -3653.38, -3722.31, -3253.46, 0.000, 0.000, 0.000, 14:11:23.671
147, -3966.95, -3741.82, -3770.90, -3265.16, 0.000, 0.000, 0.000, 14:11:23.701
148, -3766.32, -3728.11, -3669.84, -3147.77, 0.000, 0.000, 0.000, 14:11:23.701
149, -3651.16, -3644.08, -3600.74, -3094.46, 0.000, 0.000, 0.000, 14:11:23.701
150, -3938.64, -3640.03, -3724.65, -3222.54, 0.000, 0.000, 0.000, 14:11:23.702
151, -4003.15, -3730.85, -3768.52, -3244.73, 0.000, 0.000, 0.000, 14:11:23.702
152, -3782.77, -3723.27, -3687.25, -3147.28, 0.000, 0.000, 0.000, 14:11:23.702
153, -3683.93, -3658.04, -3616.76, -3100.18, 0.000, 0.000, 0.000, 14:11:23.703
154, -3934.28, -3627.92, -3703.14, -3226.91, 0.000, 0.000, 0.000, 14:11:23.703
155, -4007.78, -3745.63, -3790.13, -3250.24, 0.000, 0.000, 0.000, 14:11:23.731
156, -3809.40, -3741.10, -3702.53, -3157.72, 0.000, 0.000, 0.000, 14:11:23.731
157, -3671.52, -3666.67, -3628.35, -3107.30, 0.000, 0.000, 0.000, 14:11:23.733
158, -3945.24, -3658.97, -3722.25, -3247.57, 0.000, 0.000, 0.000, 14:11:23.733
159, -3991.55, -3718.64, -3761.73, -3245.21, 0.000, 0.000, 0.000, 14:11:23.746
160, -3767.89, -3699.27, -3682.99, -3124.03, 0.000, 0.000, 0.000, 14:11:23.747
161, -3664.33, -3659.99, -3620.97, -3105.07, 0.000, 0.000, 0.000, 14:11:23.747
162, -3968.51, -3663.65, -3726.62, -3273.94, 0.000, 0.000, 0.000, 14:11:23.747
163, -3992.29, -3743.31, -3777.76, -3252.16, 0.000, 0.000, 0.000, 14:11:23.776
164, -3792.76, -3747.29, -3704.33, -3136.02, 0.000, 0.000, 0.000, 14:11:23.776
165, -3663.62, -3677.59, -3619.27, -3103.41, 0.000, 0.000, 0.000, 14:11:23.776
166, -3952.04, -3650.76, -3726.40, -3259.34, 0.000, 0.000, 0.000, 14:11:23.776
167, -3982.34, -3734.54, -3776.86, -3269.40, 0.000, 0.000, 0.000, 14:11:23.777
168, -3780.48, -3740.21, -3707.67, -3178.27, 0.000, 0.000, 0.000, 14:11:23.777
169, -3676.82, -3673.00, -3626.07, -3173.59, 0.000, 0.000, 0.000, 14:11:23.790
170, -3954.38, -3665.43, -3732.23, -3353.69, 0.000, 0.000, 0.000, 14:11:23.791
171, -3971.03, -3732.10, -3774.02, -3353.69, 0.000, 0.000, 0.000, 14:11:23.821
172, -3777.77, -3739.25, -3700.03, -3264.25, 0.000, 0.000, 0.000, 14:11:23.821
173, -3661.55, -3666.66, -3622.34, -3201.06, 0.000, 0.000, 0.000, 14:11:23.821
174, -3933.84, -3658.26, -3717.31, -3328.00, 0.000, 0.000, 0.000, 14:11:23.821
175, -3975.18, -3736.11, -3765.13, -3313.22, 0.000, 0.000, 0.000, 14:11:23.822
176, -3797.01, -3737.53, -3688.54, -3212.66, 0.000, 0.000, 0.000, 14:11:23.822
177, -3679.68, -3668.78, -3626.45, -3175.68, 0.000, 0.000, 0.000, 14:11:23.822
178, -3925.46, -3660.44, -3725.34, -3333.07, 0.000, 0.000, 0.000, 14:11:23.823
179, -3950.55, -3734.71, -3765.20, -3281.66, 0.000, 0.000, 0.000, 14:11:23.851
180, -3782.45, -3741.11, -3694.84, -3170.35, 0.000, 0.000, 0.000, 14:11:23.851
181, -3684.69, -3668.56, -3637.79, -3135.46, 0.000, 0.000, 0.000, 14:11:23.851
182, -3931.10, -3657.96, -3719.77, -3284.61, 0.000, 0.000, 0.000, 14:11:23.852
183, -3950.32, -3744.47, -3765.52, -3308.51, 0.000, 0.000, 0.000, 14:11:23.896
184, -3779.75, -3738.42, -3705.25, -3186.12, 0.000, 0.000, 0.000, 14:11:23.896
185, -3661.15, -3659.06, -3631.18, -3129.49, 0.000, 0.000, 0.000, 14:11:23.896
186, -3945.38, -3668.84, -3722.63, -3253.56, 0.000, 0.000, 0.000, 14:11:23.896
187, -3941.52, -3719.26, -3760.13, -3248.24, 0.000, 0.000, 0.000, 14:11:23.897
188, -3781.63, -3735.43, -3684.49, -3146.05, 0.000, 0.000, 0.000, 14:11:23.898
189, -3684.01, -3662.15, -3647.33, -3143.11, 0.000, 0.000, 0.000, 14:11:23.899
190, -3926.60, -3663.73, -3730.11, -3266.58, 0.000, 0.000, 0.000, 14:11:23.899
191, -3916.13, -3718.05, -3740.69, -3245.05, 0.000, 0.000, 0.000, 14:11:23.899
192, -3780.56, -3731.96, -3694.12, -3154.02, 0.000, 0.000, 0.000, 14:11:23.899
193, -3705.94, -3681.38, -3634.57, -3116.19, 0.000, 0.000, 0.000, 14:11:23.941
194, -3932.46, -3657.00, -3724.01, -3238.51, 0.000, 0.000, 0.000, 14:11:23.941
195, -3948.26, -3733.38, -3759.96, -3236.21, 0.000, 0.000, 0.000, 14:11:23.941
196, -3763.34, -3724.56, -3686.32, -3157.28, 0.000, 0.000, 0.000, 14:11:23.941
197, -3699.72, -3689.19, -3653.61, -3150.75, 0.000, 0.000, 0.000, 14:11:23.942
198, -3932.98, -3655.25, -3726.66, -3249.84, 0.000, 0.000, 0.000, 14:11:23.942
199, -3963.23, -3725.56, -3767.12, -3234.16, 0.000, 0.000, 0.000, 14:11:23.943
200, -3796.79, -3724.88, -3694.23, -3146.84, 0.000, 0.000, 0.000, 14:11:23.943
0, -3673.47, -3669.35, -3630.72, -3103.19, 0.000, 0.000, 0.000, 14:11:23.944
1, -3929.22, -3655.69, -3724.73, -3235.83, 0.000, 0.000, 0.000, 14:11:23.956
2, -3957.04, -3724.31, -3761.22, -3235.38, 0.000, 0.000, 0.000, 14:11:23.956
3, -3755.47, -3744.52, -3705.31, -3150.33, 0.000, 0.000, 0.000, 14:11:23.970
4, -3681.39, -3677.40, -3651.54, -3116.52, 0.000, 0.000, 0.000, 14:11:23.970
5, -3918.56, -3656.95, -3710.52, -3235.80, 0.000, 0.000, 0.000, 14:11:23.971
6, -3950.02, -3734.06, -3754.53, -3226.38, 0.000, 0.000, 0.000, 14:11:23.971
7, -3759.42, -3725.46, -3698.53, -3129.79, 0.000, 0.000, 0.000, 14:11:24.001
8, -3699.29, -3673.80, -3662.64, -3124.51, 0.000, 0.000, 0.000, 14:11:24.001
9, -3968.16, -3664.90, -3732.74, -3239.72, 0.000, 0.000, 0.000, 14:11:24.001
10, -3953.26, -3723.44, -3767.68, -3231.58, 0.000, 0.000, 0.000, 14:11:24.001
11, -3750.50, -3716.36, -3693.56, -3129.89, 0.000, 0.000, 0.000, 14:11:24.002
12, -3695.05, -3695.87, -3653.39, -3145.36, 0.000, 0.000, 0.000, 14:11:24.002
13, -3936.78, -3668.86, -3718.02, -3254.79, 0.000, 0.000, 0.000, 14:11:24.016
14, -3975.48, -3736.29, -3763.32, -3229.04, 0.000, 0.000, 0.000, 14:11:24.016
15, -3782.79, -3729.62, -3700.09, -3139.00, 0.000, 0.000, 0.000, 14:11:24.046
16, -3686.66, -3677.71, -3652.08, -3148.95, 0.000, 0.000, 0.000, 14:11:24.046
17, -3928.44, -3673.89, -3734.74, -3257.54, 0.000, 0.000, 0.000, 14:11:24.046
18, -3955.87, -3725.71, -3765.56, -3245.67, 0.000, 0.000, 0.000, 14:11:24.046
19, -3780.29, -3730.85, -3693.69, -3160.14, 0.000, 0.000, 0.000, 14:11:24.047
20, -3713.41, -3665.81, -3634.91, -3122.92, 0.000, 0.000, 0.000, 14:11:24.047
21, -3938.80, -3649.08, -3721.52, -3246.37, 0.000, 0.000, 0.000, 14:11:24.048
22, -3941.04, -3721.22, -3749.66, -3231.00, 0.000, 0.000, 0.000, 14:11:24.048
23, -3743.70, -3731.14, -3691.14, -3129.98, 0.000, 0.000, 0.000, 14:11:24.064
24, -3692.76, -3686.08, -3653.68, -3113.02, 0.000, 0.000, 0.000, 14:11:24.064
25, -3928.13, -3655.99, -3735.17, -3242.97, 0.000, 0.000, 0.000, 14:11:24.076
26, -3950.83, -3725.02, -3758.53, -3243.23, 0.000, 0.000, 0.000, 14:11:24.076
27, -3799.88, -3734.90, -3697.12, -3141.75, 0.000, 0.000, 0.000, 14:11:24.090
28, -3690.95, -3652.20, -3631.18, -3114.94, 0.000, 0.000, 0.000, 14:11:24.091
29, -3941.23, -3658.04, -3722.06, -3255.10, 0.000, 0.000, 0.000, 14:11:24.091
30, -3960.00, -3729.29, -3759.41, -3242.85, 0.000, 0.000, 0.000, 14:11:24.091
31, -3791.89, -3723.93, -3699.66, -3161.64, 0.000, 0.000, 0.000, 14:11:24.120
32, -3703.30, -3657.82, -3650.62, -3125.43, 0.000, 0.000, 0.000, 14:11:24.120
33, -3948.53, -3649.24, -3717.11, -3260.03, 0.000, 0.000, 0.000, 14:11:24.121
34, -3971.35, -3705.81, -3751.07, -3251.55, 0.000, 0.000, 0.000, 14:11:24.121
35, -3755.68, -3719.61, -3687.52, -3143.43, 0.000, 0.000, 0.000, 14:11:24.122
36, -3671.64, -3704.66, -3661.21, -3133.80, 0.000, 0.000, 0.000, 14:11:24.122
37, -3938.22, -3663.67, -3722.94, -3259.20, 0.000, 0.000, 0.000, 14:11:24.142
38, -3947.58, -3713.98, -3756.16, -3263.28, 0.000, 0.000, 0.000, 14:11:24.142
39, -3794.54, -3720.70, -3697.90, -3177.96, 0.000, 0.000, 0.000, 14:11:24.165
40, -3711.04, -3662.21, -3646.25, -3158.19, 0.000, 0.000, 0.000, 14:11:24.165
41, -3934.56, -3645.40, -3716.54, -3252.77, 0.000, 0.000, 0.000, 14:11:24.166
42, -3956.96, -3738.83, -3765.59, -3266.40, 0.000, 0.000, 0.000, 14:11:24.166
43, -3768.27, -3743.43, -3701.55, -3166.00, 0.000, 0.000, 0.000, 14:11:24.166
44, -3691.85, -3669.85, -3637.03, -3131.91, 0.000, 0.000, 0.000, 14:11:24.166
45, -3944.03, -3661.68, -3730.05, -3250.41, 0.000, 0.000, 0.000, 14:11:24.167
46, -3946.57, -3712.45, -3746.10, -3228.22, 0.000, 0.000, 0.000, 14:11:24.167
47, -3775.71, -3724.84, -3685.19, -3154.27, 0.000, 0.000, 0.000, 14:11:24.182
48, -3727.05, -3681.57, -3660.70, -3158.21, 0.000, 0.000, 0.000, 14:11:24.182
49, -3949.59, -3656.69, -3726.75, -3262.88, 0.000, 0.000, 0.000, 14:11:24.196
50, -3940.41, -3723.71, -3765.05, -3240.59, 0.000, 0.000, 0.000, 14:11:24.196
51, -3773.65, -3737.98, -3708.08, -3144.32, 0.000, 0.000, 0.000, 14:11:24.211
52, -3684.26, -3662.10, -3640.20, -3120.50, 0.000, 0.000, 0.000, 14:11:24.211
53, -3945.45, -3668.16, -3725.67, -3245.15, 0.000, 0.000, 0.000, 14:11:24.211
54, -3946.42, -3721.53, -3753.32, -3216.43, 0.000, 0.000, 0.000, 14:11:24.212
55, -3772.81, -3742.63, -3726.73, -3131.39, 0.000, 0.000, 0.000, 14:11:24.241
56, -3690.80, -3689.40, -3644.15, -3113.93, 0.000, 0.000, 0.000, 14:11:24.241
57, -3935.67, -3649.41, -3723.92, -3241.66, 0.000, 0.000, 0.000, 14:11:24.241
58, -3943.76, -3710.92, -3751.45, -3227.66, 0.000, 0.000, 0.000, 14:11:24.241
59, -3768.02, -3724.46, -3689.88, -3141.85, 0.000, 0.000, 0.000, 14:11:24.242
60, -3702.95, -3664.83, -3643.09, -3133.39, 0.000, 0.000, 0.000, 14:11:24.242
61, -3947.04, -3664.87, -3724.18, -3244.90, 0.000, 0.000, 0.000, 14:11:24.255
62, -3935.74, -3715.08, -3748.32, -3214.11, 0.000, 0.000, 0.000, 14:11:24.256
63, -3776.77, -3736.12, -3708.25, -3136.64, 0.000, 0.000, 0.000, 14:11:24.271
64, -3711.63, -3670.55, -3649.50, -3125.86, 0.000, 0.000, 0.000, 14:11:24.271
65, -3960.56, -3667.72, -3727.67, -3239.71, 0.000, 0.000, 0.000, 14:11:24.272
66, -3943.64, -3714.71, -3755.24, -3213.90, 0.000, 0.000, 0.000, 14:11:24.272
67, -3784.60, -3738.70, -3706.16, -3131.43, 0.000, 0.000, 0.000, 14:11:24.286
68, -3692.49, -3667.21, -3643.72, -3112.44, 0.000, 0.000, 0.000, 14:11:24.286
69, -3938.40, -3664.32, -3732.83, -3251.33, 0.000, 0.000, 0.000, 14:11:24.301
70, -3936.41, -3736.84, -3761.20, -3234.91, 0.000, 0.000, 0.000, 14:11:24.301
71, -3785.26, -3748.03, -3714.99, -3155.91, 0.000, 0.000, 0.000, 14:11:24.301
72, -3697.98, -3682.85, -3655.71, -3144.06, 0.000, 0.000, 0.000, 14:11:24.301
73, -3935.23, -3639.35, -3708.93, -3214.77, 0.000, 0.000, 0.000, 14:11:24.332
74, -3929.08, -3722.62, -3751.61, -3208.51, 0.000, 0.000, 0.000, 14:11:24.332
75, -3773.11, -3746.87, -3696.69, -3143.87, 0.000, 0.000, 0.000, 14:11:24.332
76, -3692.00, -3663.24, -3644.48, -3129.20, 0.000, 0.000, 0.000, 14:11:24.332
77, -3946.68, -3654.81, -3731.67, -3233.21, 0.000, 0.000, 0.000, 14:11:24.332
78, -3965.92, -3726.83, -3757.88, -3217.69, 0.000, 0.000, 0.000, 14:11:24.332
79, -3782.69, -3752.02, -3704.29, -3151.99, 0.000, 0.000, 0.000, 14:11:24.346
80, -3699.02, -3657.57, -3629.62, -3106.75, 0.000, 0.000, 0.000, 14:11:24.346
81, -3925.30, -3635.40, -3725.78, -3230.94, 0.000, 0.000, 0.000, 14:11:24.376
82, -3921.58, -3701.27, -3743.63, -3209.17, 0.000, 0.000, 0.000, 14:11:24.377
83, -3775.49, -3763.67, -3712.27, -3140.51, 0.000, 0.000, 0.000, 14:11:24.377
84, -3700.46, -3682.58, -3643.96, -3119.29, 0.000, 0.000, 0.000, 14:11:24.377
85, -3936.72, -3652.20, -3736.25, -3223.73, 0.000, 0.000, 0.000, 14:11:24.377
86, -3939.27, -3767.63, -3785.35, -3221.77, 0.000, 0.000, 0.000, 14:11:24.378
87, -3820.50, -3814.38, -3716.41, -3165.44, 0.000, 0.000, 0.000, 14:11:24.378
88, -3701.18, -3686.74, -3650.52, -3129.23, 0.000, 0.000, 0.000, 14:11:24.378
89, -3908.07, -3651.01, -3691.59, -3209.71, 0.000, 0.000, 0.000, 14:11:24.391
90, -3886.67, -3714.63, -3723.53, -3213.71, 0.000, 0.000, 0.000, 14:11:24.391
91, -3687.26, -3734.18, -3660.41, -3137.67, 0.000, 0.000, 0.000, 14:11:24.405
92, -3614.43, -3611.62, -3596.47, -3123.42, 0.000, 0.000, 0.000, 14:11:24.405
93, -3840.23, -3673.39, -3684.04, -3226.87, 0.000, 0.000, 0.000, 14:11:24.420
94, -3821.02, -3729.13, -3710.92, -3212.93, 0.000, 0.000, 0.000, 14:11:24.420
95, -3649.57, -3752.59, -3646.93, -3147.40, 0.000, 0.000, 0.000, 14:11:24.421
96, -3540.07, -3719.27, -3597.25, -3125.77, 0.000, 0.000, 0.000, 14:11:24.421
97, -3733.30, -3713.82, -3686.86, -3261.37, 0.000, 0.000, 0.000, 14:11:24.451
98, -3701.00, -3753.65, -3674.90, -3218.61, 0.000, 0.000, 0.000, 14:11:24.451
99, -3548.45, -3796.88, -3634.07, -3180.58, 0.000, 0.000, 0.000, 14:11:24.451
100, -3475.86, -3748.44, -3590.68, -3163.50, 0.000, 0.000, 0.000, 14:11:24.452
101, -3742.42, -3739.61, -3669.43, -3270.99, 0.000, 0.000, 0.000, 14:11:24.452
102, -3763.61, -3817.40, -3704.68, -3278.01, 0.000, 0.000, 0.000, 14:11:24.452
103, -3583.71, -3800.40, -3628.66, -3176.55, 0.000, 0.000, 0.000, 14:11:24.496
104, -3503.00, -3712.04, -3564.84, -3135.04, 0.000, 0.000, 0.000, 14:11:24.496
105, -3753.66, -3709.66, -3671.32, -3287.10, 0.000, 0.000, 0.000, 14:11:24.497
106, -3790.79, -3776.52, -3695.60, -3249.32, 0.000, 0.000, 0.000, 14:11:24.497
107, -3629.77, -3791.26, -3642.25, -3191.43, 0.000, 0.000, 0.000, 14:11:24.497
108, -3587.24, -3715.88, -3594.68, -3197.84, 0.000, 0.000, 0.000, 14:11:24.498
109, -3856.95, -3696.76, -3691.66, -3314.33, 0.000, 0.000, 0.000, 14:11:24.498
110, -3858.45, -3754.85, -3701.98, -3298.84, 0.000, 0.000, 0.000, 14:11:24.499
111, -3711.54, -3770.67, -3651.71, -3212.47, 0.000, 0.000, 0.000, 14:11:24.511
112, -3679.96, -3702.76, -3615.46, -3197.29, 0.000, 0.000, 0.000, 14:11:24.511
113, -3922.64, -3702.65, -3702.31, -3287.04, 0.000, 0.000, 0.000, 14:11:24.512
114, -3866.93, -3749.52, -3705.85, -3289.83, 0.000, 0.000, 0.000, 14:11:24.512
115, -3720.72, -3724.76, -3627.19, -3215.01, 0.000, 0.000, 0.000, 14:11:24.526
116, -3684.86, -3691.35, -3606.94, -3186.19, 0.000, 0.000, 0.000, 14:11:24.526
117, -3950.35, -3680.77, -3700.94, -3290.96, 0.000, 0.000, 0.000, 14:11:24.601
118, -3946.92, -3750.20, -3733.04, -3292.23, 0.000, 0.000, 0.000, 14:11:24.601
119, -3751.19, -3723.14, -3639.09, -3200.35, 0.000, 0.000, 0.000, 14:11:24.602
120, -3729.66, -3658.78, -3592.62, -3184.65, 0.000, 0.000, 0.000, 14:11:24.602
121, -3934.87, -3657.52, -3677.80, -3294.38, 0.000, 0.000, 0.000, 14:11:24.602
122, -3957.79, -3742.45, -3716.62, -3289.13, 0.000, 0.000, 0.000, 14:11:24.602
123, -3780.75, -3729.43, -3643.92, -3215.07, 0.000, 0.000, 0.000, 14:11:24.603
124, -3728.81, -3663.02, -3595.91, -3209.37, 0.000, 0.000, 0.000, 14:11:24.603
125, -3979.39, -3662.08, -3717.77, -3324.71, 0.000, 0.000, 0.000, 14:11:24.604
126, -3975.01, -3727.38, -3738.33, -3275.54, 0.000, 0.000, 0.000, 14:11:24.604
127, -3797.46, -3714.49, -3629.09, -3212.51, 0.000, 0.000, 0.000, 14:11:24.604
128, -3691.48, -3641.37, -3588.97, -3189.27, 0.000, 0.000, 0.000, 14:11:24.605
129, -3965.52, -3647.31, -3713.33, -3267.13, 0.000, 0.000, 0.000, 14:11:24.605
130, -3978.46, -3716.68, -3732.53, -3269.69, 0.000, 0.000, 0.000, 14:11:24.605
133, -4234.04, -3728.08, -3867.14, -3380.71, 0.000, 0.000, 0.000, 14:11:24.616
134, -4219.72, -3787.34, -3879.61, -3363.90, 0.000, 0.000, 0.000, 14:11:24.616
135, -4015.31, -3773.14, -3800.51, -3262.16, 0.000, 0.000, 0.000, 14:11:24.631
136, -3980.07, -3736.25, -3783.68, -3275.43, 0.000, 0.000, 0.000, 14:11:24.631
137, -4234.74, -3725.70, -3902.02, -3386.74, 0.000, 0.000, 0.000, 14:11:24.631
138, -4212.38, -3773.44, -3890.73, -3337.68, 0.000, 0.000, 0.000, 14:11:24.632
139, -3983.07, -3772.98, -3793.18, -3238.09, 0.000, 0.000, 0.000, 14:11:24.647
140, -3952.36, -3729.97, -3785.32, -3235.17, 0.000, 0.000, 0.000, 14:11:24.647
141, -4238.61, -3746.23, -3895.58, -3381.14, 0.000, 0.000, 0.000, 14:11:24.676
142, -4201.10, -3800.00, -3892.02, -3345.71, 0.000, 0.000, 0.000, 14:11:24.676
143, -4026.42, -3813.56, -3826.46, -3310.17, 0.000, 0.000, 0.000, 14:11:24.676
144, -3954.19, -3737.61, -3787.81, -3254.16, 0.000, 0.000, 0.000, 14:11:24.676
145, -4199.44, -3743.61, -3894.19, -3363.69, 0.000, 0.000, 0.000, 14:11:24.677
146, -4202.58, -3798.40, -3908.15, -3333.53, 0.000, 0.000, 0.000, 14:11:24.677
147, -4017.21, -3807.80, -3835.78, -3271.21, 0.000, 0.000, 0.000, 14:11:24.679
148, -3953.03, -3742.88, -3776.16, -3260.02, 0.000, 0.000, 0.000, 14:11:24.679
149, -4224.68, -3753.71, -3889.68, -3337.54, 0.000, 0.000, 0.000, 14:11:24.691
150, -4176.15, -3797.12, -3903.16, -3333.47, 0.000, 0.000, 0.000, 14:11:24.691
151, -3997.69, -3791.85, -3815.42, -3272.92, 0.000, 0.000, 0.000, 14:11:24.706
152, -3943.81, -3737.08, -3782.74, -3255.59, 0.000, 0.000, 0.000, 14:11:24.706
153, -4202.20, -3746.95, -3882.94, -3342.66, 0.000, 0.000, 0.000, 14:11:24.720
154, -4204.71, -3824.33, -3902.00, -3341.71, 0.000, 0.000, 0.000, 14:11:24.720
155, -4009.49, -3784.44, -3819.41, -3249.86, 0.000, 0.000, 0.000, 14:11:24.721
156, -3939.19, -3735.72, -3781.66, -3266.42, 0.000, 0.000, 0.000, 14:11:24.721
157, -4208.51, -3761.64, -3913.28, -3381.21, 0.000, 0.000, 0.000, 14:11:24.736
158, -4195.18, -3800.84, -3907.29, -3332.22, 0.000, 0.000, 0.000, 14:11:24.736
159, -3975.43, -3782.02, -3792.02, -3252.91, 0.000, 0.000, 0.000, 14:11:24.751
160, -3937.96, -3733.09, -3770.91, -3239.40, 0.000, 0.000, 0.000, 14:11:24.751
161, -4194.49, -3752.78, -3883.97, -3363.09, 0.000, 0.000, 0.000, 14:11:24.752
162, -4181.18, -3817.86, -3899.03, -3327.95, 0.000, 0.000, 0.000, 14:11:24.752
163, -3959.71, -3779.84, -3778.95, -3253.74, 0.000, 0.000, 0.000, 14:11:24.766
164, -3950.02, -3736.76, -3776.53, -3247.03, 0.000, 0.000, 0.000, 14:11:24.766
165, -4194.56, -3753.77, -3893.91, -3362.88, 0.000, 0.000, 0.000, 14:11:24.811
166, -4165.89, -3797.50, -3891.12, -3325.10, 0.000, 0.000, 0.000, 14:11:24.811
167, -3976.18, -3787.48, -3807.88, -3245.30, 0.000, 0.000, 0.000, 14:11:24.812
168, -3939.80, -3737.85, -3770.43, -3233.77, 0.000, 0.000, 0.000, 14:11:24.812
169, -4200.25, -3755.18, -3904.35, -3329.29, 0.000, 0.000, 0.000, 14:11:24.812
170, -4157.54, -3795.24, -3896.36, -3310.67, 0.000, 0.000, 0.000, 14:11:24.812
171, -3979.23, -3794.28, -3814.63, -3258.81, 0.000, 0.000, 0.000, 14:11:24.813
172, -3933.13, -3726.89, -3787.68, -3253.46, 0.000, 0.000, 0.000, 14:11:24.813
173, -4192.22, -3750.77, -3888.24, -3344.43, 0.000, 0.000, 0.000, 14:11:24.813
174, -4179.12, -3815.54, -3908.67, -3343.63, 0.000, 0.000, 0.000, 14:11:24.813
175, -3980.76, -3789.98, -3816.88, -3238.65, 0.000, 0.000, 0.000, 14:11:24.840
176, -3941.25, -3726.79, -3781.55, -3228.70, 0.000, 0.000, 0.000, 14:11:24.840
177, -4195.94, -3753.80, -3898.76, -3332.86, 0.000, 0.000, 0.000, 14:11:24.841
178, -4170.08, -3808.40, -3902.97, -3319.11, 0.000, 0.000, 0.000, 14:11:24.841
179, -3989.29, -3802.48, -3810.80, -3254.49, 0.000, 0.000, 0.000, 14:11:24.842
180, -3922.58, -3723.77, -3772.35, -3238.84, 0.000, 0.000, 0.000, 14:11:24.842
181, -4202.79, -3767.91, -3899.41, -3354.09, 0.000, 0.000, 0.000, 14:11:24.871
182, -4176.12, -3788.98, -3887.75, -3319.43, 0.000, 0.000, 0.000, 14:11:24.871
183, -3996.07, -3783.68, -3796.23, -3240.56, 0.000, 0.000, 0.000, 14:11:24.871
184, -3963.30, -3741.25, -3777.61, -3248.13, 0.000, 0.000, 0.000, 14:11:24.871
185, -4180.88, -3754.37, -3898.64, -3340.28, 0.000, 0.000, 0.000, 14:11:24.872
186, -4137.27, -3808.44, -3909.44, -3324.16, 0.000, 0.000, 0.000, 14:11:24.872
187, -3951.20, -3782.37, -3787.60, -3256.03, 0.000, 0.000, 0.000, 14:11:24.886
188, -3944.63, -3734.90, -3769.23, -3239.36, 0.000, 0.000, 0.000, 14:11:24.886
189, -4187.36, -3752.43, -3892.81, -3344.28, 0.000, 0.000, 0.000, 14:11:24.931
190, -4132.26, -3789.42, -3879.78, -3289.40, 0.000, 0.000, 0.000, 14:11:24.932
191, -3988.09, -3800.00, -3810.74, -3261.95, 0.000, 0.000, 0.000, 14:11:24.932
192, -3950.99, -3740.49, -3791.43, -3238.95, 0.000, 0.000, 0.000, 14:11:24.933
193, -4238.58, -3773.94, -3916.52, -3342.60, 0.000, 0.000, 0.000, 14:11:24.933
194, -4141.87, -3809.88, -3878.71, -3336.20, 0.000, 0.000, 0.000, 14:11:24.933
195, -3954.81, -3786.61, -3774.63, -3258.42, 0.000, 0.000, 0.000, 14:11:24.933
196, -3958.60, -3732.99, -3771.71, -3237.04, 0.000, 0.000, 0.000, 14:11:24.933
197, -4208.74, -3752.17, -3901.31, -3345.67, 0.000, 0.000, 0.000, 14:11:24.933
198, -4167.86, -3808.45, -3896.93, -3318.51, 0.000, 0.000, 0.000, 14:11:24.933
199, -3967.48, -3788.25, -3792.22, -3230.73, 0.000, 0.000, 0.000, 14:11:24.948
200, -3949.63, -3736.45, -3784.55, -3245.84, 0.000, 0.000, 0.000, 14:11:24.950
0, -3974.04, -3670.70, -3768.63, -3219.49, 0.000, 0.000, 0.000, 14:11:24.960
1, -3954.12, -3725.23, -3748.47, -3221.42, 0.000, 0.000, 0.000, 14:11:24.962
2, -3741.27, -3727.10, -3663.97, -3152.24, 0.000, 0.000, 0.000, 14:11:24.962
3, -3712.58, -3685.58, -3649.72, -3152.95, 0.000, 0.000, 0.000, 14:11:24.991
4, -3993.44, -3726.77, -3785.87, -3245.50, 0.000, 0.000, 0.000, 14:11:24.991
5, -3945.49, -3740.81, -3749.37, -3197.26, 0.000, 0.000, 0.000, 14:11:24.991
6, -3750.57, -3728.67, -3667.27, -3125.68, 0.000, 0.000, 0.000, 14:11:24.991
7, -3703.44, -3696.26, -3662.04, -3131.21, 0.000, 0.000, 0.000, 14:11:24.992
8, -3976.25, -3730.33, -3782.46, -3247.22, 0.000, 0.000, 0.000, 14:11:24.992
9, -3937.29, -3730.15, -3743.02, -3217.51, 0.000, 0.000, 0.000, 14:11:24.993
10, -3718.49, -3729.66, -3645.53, -3152.69, 0.000, 0.000, 0.000, 14:11:24.993
11, -3709.56, -3691.04, -3640.02, -3142.19, 0.000, 0.000, 0.000, 14:11:25.006
12, -3976.15, -3710.75, -3771.37, -3244.69, 0.000, 0.000, 0.000, 14:11:25.006
13, -3912.62, -3757.50, -3746.04, -3213.73, 0.000, 0.000, 0.000, 14:11:25.036
14, -3744.73, -3731.36, -3646.15, -3142.04, 0.000, 0.000, 0.000, 14:11:25.036
15, -3684.98, -3684.15, -3630.68, -3156.67, 0.000, 0.000, 0.000, 14:11:25.036
16, -3951.83, -3715.47, -3781.59, -3227.96, 0.000, 0.000, 0.000, 14:11:25.036
17, -3901.01, -3757.23, -3753.77, -3218.75, 0.000, 0.000, 0.000, 14:11:25.037
18, -3728.03, -3728.29, -3662.03, -3120.66, 0.000, 0.000, 0.000, 14:11:25.037
19, -3660.52, -3660.66, -3623.53, -3129.72, 0.000, 0.000, 0.000, 14:11:25.051
20, -3942.97, -3703.98, -3764.77, -3232.27, 0.000, 0.000, 0.000, 14:11:25.051
21, -3939.77, -3753.71, -3760.76, -3224.27, 0.000, 0.000, 0.000, 14:11:25.082
22, -3709.53, -3712.50, -3639.26, -3137.66, 0.000, 0.000, 0.000, 14:11:25.082
23, -3711.87, -3657.55, -3631.82, -3119.54, 0.000, 0.000, 0.000, 14:11:25.082
24, -3974.57, -3702.50, -3789.45, -3220.74, 0.000, 0.000, 0.000, 14:11:25.082
25, -3935.67, -3754.79, -3763.46, -3204.34, 0.000, 0.000, 0.000, 14:11:25.083
26, -3713.72, -3716.11, -3652.86, -3123.03, 0.000, 0.000, 0.000, 14:11:25.083
27, -3711.37, -3668.23, -3629.43, -3152.78, 0.000, 0.000, 0.000, 14:11:25.084
28, -3981.10, -3694.87, -3781.29, -3243.38, 0.000, 0.000, 0.000, 14:11:25.084
29, -3949.44, -3744.87, -3763.82, -3228.96, 0.000, 0.000, 0.000, 14:11:25.110
30, -3778.39, -3711.04, -3649.50, -3128.08, 0.000, 0.000, 0.000, 14:11:25.110
31, -3702.81, -3661.65, -3650.68, -3130.29, 0.000, 0.000, 0.000, 14:11:25.126
32, -3964.95, -3713.36, -3801.68, -3248.65, 0.000, 0.000, 0.000, 14:11:25.126
33, -3920.85, -3748.34, -3748.96, -3216.60, 0.000, 0.000, 0.000, 14:11:25.126
34, -3762.07, -3720.34, -3659.45, -3138.07, 0.000, 0.000, 0.000, 14:11:25.126
35, -3719.55, -3664.19, -3634.79, -3133.97, 0.000, 0.000, 0.000, 14:11:25.127
36, -3992.97, -3701.56, -3768.78, -3249.49, 0.000, 0.000, 0.000, 14:11:25.127
37, -3951.30, -3728.38, -3762.29, -3206.90, 0.000, 0.000, 0.000, 14:11:25.156
38, -3763.95, -3708.73, -3659.84, -3134.48, 0.000, 0.000, 0.000, 14:11:25.156
39, -3714.65, -3651.46, -3646.59, -3121.51, 0.000, 0.000, 0.000, 14:11:25.156
40, -3928.63, -3689.02, -3754.18, -3214.87, 0.000, 0.000, 0.000, 14:11:25.156
41, -3933.94, -3731.97, -3754.38, -3219.82, 0.000, 0.000, 0.000, 14:11:25.157
42, -3732.15, -3697.57, -3650.32, -3114.12, 0.000, 0.000, 0.000, 14:11:25.157
43, -3721.23, -3661.20, -3642.07, -3119.46, 0.000, 0.000, 0.000, 14:11:25.170
44, -3984.16, -3689.00, -3772.60, -3215.73, 0.000, 0.000, 0.000, 14:11:25.170
45, -3950.30, -3726.85, -3746.90, -3204.78, 0.000, 0.000, 0.000, 14:11:25.186
46, -3737.89, -3729.96, -3659.61, -3137.27, 0.000, 0.000, 0.000, 14:11:25.186
47, -3737.09, -3667.42, -3636.43, -3160.06, 0.000, 0.000, 0.000, 14:11:25.187
48, -3942.67, -3659.61, -3764.92, -3242.73, 0.000, 0.000, 0.000, 14:11:25.187
49, -3914.03, -3746.05, -3752.98, -3214.97, 0.000, 0.000, 0.000, 14:11:25.201
50, -3728.04, -3705.59, -3626.85, -3140.05, 0.000, 0.000, 0.000, 14:11:25.201
51, -3714.95, -3652.56, -3633.43, -3153.92, 0.000, 0.000, 0.000, 14:11:25.216
52, -3994.76, -3694.03, -3774.36, -3244.59, 0.000, 0.000, 0.000, 14:11:25.216
53, -3958.07, -3726.11, -3751.91, -3225.83, 0.000, 0.000, 0.000, 14:11:25.230
54, -3722.87, -3709.38, -3649.51, -3154.27, 0.000, 0.000, 0.000, 14:11:25.230
55, -3735.10, -3657.49, -3647.51, -3150.15, 0.000, 0.000, 0.000, 14:11:25.233
56, -4019.74, -3691.74, -3788.41, -3242.63, 0.000, 0.000, 0.000, 14:11:25.233
57, -3930.61, -3741.24, -3757.54, -3229.28, 0.000, 0.000, 0.000, 14:11:25.247
58, -3716.93, -3692.50, -3632.55, -3116.76, 0.000, 0.000, 0.000, 14:11:25.247
59, -3705.56, -3652.80, -3648.95, -3142.75, 0.000, 0.000, 0.000, 14:11:25.249
60, -3981.17, -3695.92, -3771.05, -3241.26, 0.000, 0.000, 0.000, 14:11:25.249
61, -3956.23, -3746.83, -3752.54, -3229.82, 0.000, 0.000, 0.000, 14:11:25.276
62, -3715.76, -3697.01, -3649.71, -3142.42, 0.000, 0.000, 0.000, 14:11:25.276
63, -3723.50, -3655.35, -3663.02, -3158.27, 0.000, 0.000, 0.000, 14:11:25.276
64, -4003.75, -3710.57, -3791.71, -3254.00, 0.000, 0.000, 0.000, 14:11:25.276
65, -3933.36, -3747.17, -3750.69, -3225.34, 0.000, 0.000, 0.000, 14:11:25.284
66, -3726.20, -3693.15, -3624.10, -3111.04, 0.000, 0.000, 0.000, 14:11:25.284
67, -3723.99, -3652.32, -3636.95, -3122.06, 0.000, 0.000, 0.000, 14:11:25.291
68, -3999.43, -3707.32, -3779.97, -3241.42, 0.000, 0.000, 0.000, 14:11:25.291
69, -3924.65, -3738.07, -3753.34, -3233.07, 0.000, 0.000, 0.000, 14:11:25.305
70, -3718.26, -3694.70, -3642.07, -3131.18, 0.000, 0.000, 0.000, 14:11:25.305
71, -3732.56, -3657.72, -3652.41, -3156.54, 0.000, 0.000, 0.000, 14:11:25.321
72, -3994.70, -3715.33, -3784.70, -3248.13, 0.000, 0.000, 0.000, 14:11:25.321
73, -3926.94, -3733.84, -3752.20, -3206.86, 0.000, 0.000, 0.000, 14:11:25.321
74, -3735.00, -3700.16, -3645.13, -3139.16, 0.000, 0.000, 0.000, 14:11:25.321
75, -3712.03, -3655.96, -3630.09, -3135.00, 0.000, 0.000, 0.000, 14:11:25.366
76, -3993.26, -3709.96, -3788.11, -3231.29, 0.000, 0.000, 0.000, 14:11:25.366
77, -3934.94, -3743.92, -3760.50, -3226.79, 0.000, 0.000, 0.000, 14:11:25.367
78, -3726.38, -3692.83, -3649.21, -3126.02, 0.000, 0.000, 0.000, 14:11:25.367
79, -3744.39, -3658.81, -3638.34, -3160.20, 0.000, 0.000, 0.000, 14:11:25.367
80, -3971.19, -3701.93, -3760.21, -3237.45, 0.000, 0.000, 0.000, 14:11:25.367
81, -3922.59, -3742.06, -3756.54, -3205.12, 0.000, 0.000, 0.000, 14:11:25.368
82, -3730.65, -3704.45, -3659.25, -3133.86, 0.000, 0.000, 0.000, 14:11:25.368
83, -3733.70, -3657.60, -3654.68, -3160.32, 0.000, 0.000, 0.000, 14:11:25.369
84, -4001.98, -3706.29, -3779.49, -3255.29, 0.000, 0.000, 0.000, 14:11:25.369
85, -3940.74, -3729.61, -3748.69, -3214.83, 0.000, 0.000, 0.000, 14:11:25.382
86, -3735.28, -3698.24, -3644.05, -3130.71, 0.000, 0.000, 0.000, 14:11:25.382
87, -3706.99, -3664.41, -3628.53, -3154.65, 0.000, 0.000, 0.000, 14:11:25.396
88, -3997.75, -3715.23, -3798.16, -3248.84, 0.000, 0.000, 0.000, 14:11:25.396
89, -3940.86, -3734.32, -3753.04, -3244.74, 0.000, 0.000, 0.000, 14:11:25.397
90, -3740.11, -3707.82, -3647.10, -3139.29, 0.000, 0.000, 0.000, 14:11:25.397
91, -3742.66, -3667.48, -3642.73, -3140.58, 0.000, 0.000, 0.000, 14:11:25.412
92, -3977.55, -3705.26, -3772.09, -3221.63, 0.000, 0.000, 0.000, 14:11:25.412
93, -3914.68, -3734.16, -3749.90, -3216.33, 0.000, 0.000, 0.000, 14:11:25.426
94, -3721.34, -3707.44, -3664.06, -3162.00, 0.000, 0.000, 0.000, 14:11:25.426
95, -3724.64, -3660.35, -3657.58, -3161.55, 0.000, 0.000, 0.000, 14:11:25.427
96, -4001.95, -3715.42, -3781.82, -3271.67, 0.000, 0.000, 0.000, 14:11:25.427
97, -3944.35, -3741.24, -3758.87, -3215.96, 0.000, 0.000, 0.000, 14:11:25.441
98, -3729.18, -3713.86, -3644.87, -3137.58, 0.000, 0.000, 0.000, 14:11:25.441
99, -3715.97, -3636.55, -3626.75, -3114.16, 0.000, 0.000, 0.000, 14:11:25.486
100, -3976.97, -3699.13, -3784.12, -3242.70, 0.000, 0.000, 0.000, 14:11:25.486
101, -3940.85, -3744.62, -3764.16, -3236.65, 0.000, 0.000, 0.000, 14:11:25.486
102, -3724.35, -3710.12, -3646.98, -3131.57, 0.000, 0.000, 0.000, 14:11:25.486
103, -3734.54, -3663.85, -3659.59, -3153.67, 0.000, 0.000, 0.000, 14:11:25.487
104, -4001.54, -3727.32, -3802.17, -3254.99, 0.000, 0.000, 0.000, 14:11:25.487
105, -3933.95, -3721.84, -3724.27, -3199.97, 0.000, 0.000, 0.000, 14:11:25.488
106, -3769.62, -3706.49, -3646.96, -3142.91, 0.000, 0.000, 0.000, 14:11:25.488
107, -3727.48, -3667.41, -3647.91, -3157.00, 0.000, 0.000, 0.000, 14:11:25.488
108, -3991.50, -3718.56, -3800.98, -3266.04, 0.000, 0.000, 0.000, 14:11:25.489
109, -3898.08, -3731.60, -3742.33, -3203.22, 0.000, 0.000, 0.000, 14:11:25.501
110, -3719.86, -3711.83, -3646.89, -3142.88, 0.000, 0.000, 0.000, 14:11:25.501
111, -3706.00, -3663.56, -3639.12, -3140.87, 0.000, 0.000, 0.000, 14:11:25.516
112, -3996.05, -3722.70, -3798.53, -3245.73, 0.000, 0.000, 0.000, 14:11:25.516
113, -3951.58, -3745.60, -3752.87, -3228.22, 0.000, 0.000, 0.000, 14:11:25.517
114, -3724.77, -3696.88, -3635.75, -3135.15, 0.000, 0.000, 0.000, 14:11:25.517
115, -3749.18, -3673.39, -3647.34, -3161.51, 0.000, 0.000, 0.000, 14:11:25.562
116, -4023.25, -3719.55, -3796.73, -3262.98, 0.000, 0.000, 0.000, 14:11:25.562
117, -3912.59, -3749.65, -3756.70, -3215.47, 0.000, 0.000, 0.000, 14:11:25.563
118, -3718.51, -3708.22, -3641.65, -3130.90, 0.000, 0.000, 0.000, 14:11:25.563
119, -3720.65, -3663.51, -3645.61, -3149.06, 0.000, 0.000, 0.000, 14:11:25.563
120, -3975.78, -3714.77, -3808.78, -3250.36, 0.000, 0.000, 0.000, 14:11:25.564
121, -3941.75, -3752.61, -3750.60, -3227.21, 0.000, 0.000, 0.000, 14:11:25.565
122, -3728.04, -3697.63, -3628.60, -3126.96, 0.000, 0.000, 0.000, 14:11:25.565
123, -3767.32, -3647.81, -3639.29, -3130.16, 0.000, 0.000, 0.000, 14:11:25.565
124, -4033.46, -3716.90, -3795.60, -3266.28, 0.000, 0.000, 0.000, 14:11:25.565
125, -3912.00, -3736.21, -3759.70, -3216.18, 0.000, 0.000, 0.000, 14:11:25.591
126, -3695.53, -3704.32, -3637.02, -3141.13, 0.000, 0.000, 0.000, 14:11:25.591
127, -3714.31, -3665.10, -3647.52, -3160.42, 0.000, 0.000, 0.000, 14:11:25.591
128, -3990.43, -3731.58, -3819.48, -3277.12, 0.000, 0.000, 0.000, 14:11:25.592
129, -3908.62, -3738.98, -3740.56, -3223.08, 0.000, 0.000, 0.000, 14:11:25.606
130, -3715.41, -3706.12, -3622.20, -3127.45, 0.000, 0.000, 0.000, 14:11:25.606
131, -3760.59, -3660.16, -3649.19, -3148.24, 0.000, 0.000, 0.000, 14:11:25.606
132, -4002.91, -3718.52, -3793.02, -3235.68, 0.000, 0.000, 0.000, 14:11:25.606
133, -3932.88, -3744.83, -3746.80, -3231.20, 0.000, 0.000, 0.000, 14:11:25.636
134, -3687.73, -3695.18, -3631.35, -3125.15, 0.000, 0.000, 0.000, 14:11:25.636
135, -3718.20, -3653.15, -3651.72, -3167.33, 0.000, 0.000, 0.000, 14:11:25.636
136, -4011.63, -3725.92, -3795.62, -3275.14, 0.000, 0.000, 0.000, 14:11:25.636
137, -3921.78, -3740.17, -3741.18, -3207.25, 0.000, 0.000, 0.000, 14:11:25.637
138, -3705.98, -3707.75, -3634.47, -3141.88, 0.000, 0.000, 0.000, 14:11:25.637
139, -3740.04, -3668.24, -3649.38, -3139.59, 0.000, 0.000, 0.000, 14:11:25.681
140, -4013.43, -3716.13, -3796.78, -3263.40, 0.000, 0.000, 0.000, 14:11:25.681
141, -3934.93, -3735.18, -3747.78, -3225.79, 0.000, 0.000, 0.000, 14:11:25.681
142, -3718.33, -3696.46, -3633.97, -3147.72, 0.000, 0.000, 0.000, 14:11:25.681
143, -3738.12, -3654.35, -3644.94, -3153.66, 0.000, 0.000, 0.000, 14:11:25.682
144, -4000.16, -3718.35, -3792.37, -3272.12, 0.000, 0.000, 0.000, 14:11:25.682
145, -3944.04, -3748.03, -3747.30, -3243.22, 0.000, 0.000, 0.000, 14:11:25.683
146, -3712.50, -3704.25, -3639.17, -3136.74, 0.000, 0.000, 0.000, 14:11:25.683
147, -3706.77, -3657.60, -3644.31, -3136.21, 0.000, 0.000, 0.000, 14:11:25.684
148, -3989.77, -3711.98, -3781.62, -3262.15, 0.000, 0.000, 0.000, 14:11:25.684
149, -3931.75, -3733.77, -3752.88, -3230.51, 0.000, 0.000, 0.000, 14:11:25.711
150, -3718.03, -3694.29, -3636.95, -3129.28, 0.000, 0.000, 0.000, 14:11:25.711
151, -3755.61, -3659.16, -3642.62, -3159.07, 0.000, 0.000, 0.000, 14:11:25.726
152, -4009.71, -3710.15, -3781.56, -3229.44, 0.000, 0.000, 0.000, 14:11:25.726
153, -3927.98, -3733.68, -3747.05, -3208.34, 0.000, 0.000, 0.000, 14:11:25.727
154, -3707.55, -3691.20, -3623.59, -3143.84, 0.000, 0.000, 0.000, 14:11:25.727
155, -3742.42, -3658.46, -3637.57, -3176.28, 0.000, 0.000, 0.000, 14:11:25.727
156, -4002.81, -3719.96, -3802.90, -3267.56, 0.000, 0.000, 0.000, 14:11:25.727
157, -3922.39, -3731.54, -3753.46, -3227.20, 0.000, 0.000, 0.000, 14:11:25.741
158, -3710.43, -3693.06, -3646.21, -3115.06, 0.000, 0.000, 0.000, 14:11:25.741
159, -3745.93, -3657.45, -3640.30, -3144.49, 0.000, 0.000, 0.000, 14:11:25.755
160, -3991.14, -3709.97, -3778.19, -3233.36, 0.000, 0.000, 0.000, 14:11:25.755
161, -3915.01, -3744.25, -3755.01, -3217.37, 0.000, 0.000, 0.000, 14:11:25.756
162, -3719.40, -3692.88, -3632.27, -3115.22, 0.000, 0.000, 0.000, 14:11:25.756
163, -3721.09, -3655.95, -3644.26, -3150.40, 0.000, 0.000, 0.000, 14:11:25.800
164, -3987.77, -3705.45, -3796.94, -3262.66, 0.000, 0.000, 0.000, 14:11:25.800
165, -3943.06, -3728.18, -3765.79, -3224.45, 0.000, 0.000, 0.000, 14:11:25.801
166, -3717.52, -3706.40, -3636.38, -3139.03, 0.000, 0.000, 0.000, 14:11:25.801
167, -3744.92, -3659.56, -3639.14, -3143.27, 0.000, 0.000, 0.000, 14:11:25.801
168, -3995.79, -3706.02, -3787.20, -3236.09, 0.000, 0.000, 0.000, 14:11:25.801
169, -3939.49, -3730.32, -3747.40, -3208.01, 0.000, 0.000, 0.000, 14:11:25.803
170, -3684.06, -3681.89, -3611.76, -3107.28, 0.000, 0.000, 0.000, 14:11:25.803
171, -3757.20, -3682.73, -3669.34, -3174.39, 0.000, 0.000, 0.000, 14:11:25.804
172, -3996.78, -3709.73, -3788.95, -3242.45, 0.000, 0.000, 0.000, 14:11:25.804
173, -3929.04, -3738.22, -3750.55, -3219.72, 0.000, 0.000, 0.000, 14:11:25.833
174, -3717.57, -3704.72, -3633.07, -3114.99, 0.000, 0.000, 0.000, 14:11:25.833
175, -3724.04, -3649.61, -3637.56, -3125.51, 0.000, 0.000, 0.000, 14:11:25.833
176, -4015.54, -3714.26, -3783.65, -3242.42, 0.000, 0.000, 0.000, 14:11:25.833
177, -3914.99, -3734.29, -3747.16, -3185.16, 0.000, 0.000, 0.000, 14:11:25.846
178, -3711.70, -3708.01, -3644.84, -3138.24, 0.000, 0.000, 0.000, 14:11:25.846
179, -3737.55, -3659.98, -3662.05, -3173.29, 0.000, 0.000, 0.000, 14:11:25.847
180, -4009.78, -3724.73, -3790.36, -3263.57, 0.000, 0.000, 0.000, 14:11:25.847
181, -3950.32, -3741.43, -3732.07, -3206.19, 0.000, 0.000, 0.000, 14:11:25.861
182, -3731.11, -3701.26, -3623.72, -3103.06, 0.000, 0.000, 0.000, 14:11:25.861
183, -3736.85, -3661.64, -3643.57, -3139.41, 0.000, 0.000, 0.000, 14:11:25.876
184, -3968.51, -3714.84, -3791.25, -3224.96, 0.000, 0.000, 0.000, 14:11:25.876
185, -3903.19, -3742.83, -3764.70, -3223.20, 0.000, 0.000, 0.000, 14:11:25.877
186, -3710.68, -3706.92, -3641.91, -3131.25, 0.000, 0.000, 0.000, 14:11:25.877
187, -3741.52, -3655.72, -3649.29, -3146.35, 0.000, 0.000, 0.000, 14:11:25.921
188, -4026.97, -3719.11, -3785.44, -3258.49, 0.000, 0.000, 0.000, 14:11:25.921
189, -3898.09, -3727.07, -3725.26, -3186.68, 0.000, 0.000, 0.000, 14:11:25.921
190, -3688.40, -3696.85, -3630.83, -3115.71, 0.000, 0.000, 0.000, 14:11:25.921
191, -3730.26, -3659.73, -3642.78, -3155.13, 0.000, 0.000, 0.000, 14:11:25.922
192, -3992.80, -3710.36, -3797.51, -3265.64, 0.000, 0.000, 0.000, 14:11:25.922
193, -3910.49, -3729.08, -3740.44, -3220.04, 0.000, 0.000, 0.000, 14:11:25.923
194, -3723.42, -3705.07, -3624.93, -3124.14, 0.000, 0.000, 0.000, 14:11:25.923
195, -3742.43, -3648.29, -3642.55, -3134.79, 0.000, 0.000, 0.000, 14:11:25.923
196, -4002.13, -3709.35, -3779.57, -3231.92, 0.000, 0.000, 0.000, 14:11:25.923
197, -3920.51, -3733.56, -3733.21, -3215.59, 0.000, 0.000, 0.000, 14:11:25.936
198, -3693.54, -3697.41, -3625.37, -3141.91, 0.000, 0.000, 0.000, 14:11:25.936
199, -3713.58, -3642.17, -3644.12, -3143.12, 0.000, 0.000, 0.000, 14:11:25.951
200, -3982.82, -3718.64, -3785.34, -3254.72, 0.000, 0.000, 0.000, 14:11:25.951
0, -3932.81, -3739.54, -3745.39, -3220.67, 0.000, 0.000, 0.000, 14:11:25.952
1, -3715.47, -3685.79, -3632.85, -3121.82, 0.000, 0.000, 0.000, 14:11:25.982
2, -3747.14, -3663.09, -3659.15, -3143.49, 0.000, 0.000, 0.000, 14:11:25.982
3, -3988.83, -3708.16, -3777.29, -3252.30, 0.000, 0.000, 0.000, 14:11:25.996
4, -3929.19, -3749.65, -3753.19, -3221.79, 0.000, 0.000, 0.000, 14:11:25.996
5, -3733.58, -3701.52, -3625.49, -3114.71, 0.000, 0.000, 0.000, 14:11:25.996
6, -3736.95, -3658.00, -3644.74, -3162.52, 0.000, 0.000, 0.000, 14:11:25.996
7, -3998.02, -3712.60, -3798.47, -3261.77, 0.000, 0.000, 0.000, 14:11:25.997
8, -3908.95, -3733.52, -3748.37, -3210.00, 0.000, 0.000, 0.000, 14:11:25.998
9, -3697.60, -3674.71, -3616.70, -3117.89, 0.000, 0.000, 0.000, 14:11:25.998
10, -3755.57, -3660.17, -3659.19, -3149.98, 0.000, 0.000, 0.000, 14:11:25.998
11, -4003.34, -3730.74, -3808.73, -3258.87, 0.000, 0.000, 0.000, 14:11:26.027
12, -3933.12, -3743.28, -3738.92, -3215.23, 0.000, 0.000, 0.000, 14:11:26.027
13, -3719.01, -3694.39, -3629.21, -3129.49, 0.000, 0.000, 0.000, 14:11:26.027
14, -3773.35, -3656.05, -3655.57, -3164.74, 0.000, 0.000, 0.000, 14:11:26.027
15, -4001.82, -3713.54, -3794.84, -3241.74, 0.000, 0.000, 0.000, 14:11:26.041
16, -3913.26, -3726.02, -3726.27, -3184.41, 0.000, 0.000, 0.000, 14:11:26.041
17, -3692.76, -3702.64, -3624.05, -3111.54, 0.000, 0.000, 0.000, 14:11:26.042
18, -3747.98, -3663.51, -3659.31, -3154.84, 0.000, 0.000, 0.000, 14:11:26.042
19, -4002.34, -3721.51, -3796.40, -3265.17, 0.000, 0.000, 0.000, 14:11:26.056
20, -3911.17, -3747.15, -3737.99, -3204.44, 0.000, 0.000, 0.000, 14:11:26.056
21, -3713.64, -3693.35, -3632.48, -3114.70, 0.000, 0.000, 0.000, 14:11:26.071
22, -3756.83, -3657.88, -3651.88, -3158.31, 0.000, 0.000, 0.000, 14:11:26.071
23, -4010.23, -3716.37, -3781.47, -3252.88, 0.000, 0.000, 0.000, 14:11:26.072
24, -3901.91, -3746.70, -3750.45, -3220.34, 0.000, 0.000, 0.000, 14:11:26.072
25, -3730.69, -3709.70, -3635.65, -3135.73, 0.000, 0.000, 0.000, 14:11:26.086
26, -3757.02, -3655.12, -3649.14, -3153.98, 0.000, 0.000, 0.000, 14:11:26.086
27, -3992.26, -3732.03, -3798.58, -3261.51, 0.000, 0.000, 0.000, 14:11:26.100
28, -3901.84, -3733.40, -3752.64, -3207.95, 0.000, 0.000, 0.000, 14:11:26.100
29, -3707.62, -3696.19, -3635.27, -3125.04, 0.000, 0.000, 0.000, 14:11:26.101
30, -3780.89, -3667.34, -3664.86, -3168.52, 0.000, 0.000, 0.000, 14:11:26.101
31, -4009.19, -3706.12, -3781.07, -3244.64, 0.000, 0.000, 0.000, 14:11:26.162
32, -3905.58, -3735.70, -3734.99, -3204.50, 0.000, 0.000, 0.000, 14:11:26.162
33, -3705.27, -3692.18, -3625.83, -3135.40, 0.000, 0.000, 0.000, 14:11:26.162
34, -3736.93, -3660.30, -3648.90, -3153.06, 0.000, 0.000, 0.000, 14:11:26.162
35, -3965.21, -3711.14, -3792.02, -3255.28, 0.000, 0.000, 0.000, 14:11:26.162
36, -3900.99, -3732.05, -3743.52, -3205.31, 0.000, 0.000, 0.000, 14:11:26.162
37, -3713.25, -3697.89, -3626.11, -3134.05, 0.000, 0.000, 0.000, 14:11:26.163
38, -3747.11, -3656.09, -3652.94, -3156.17, 0.000, 0.000, 0.000, 14:11:26.163
39, -3988.17, -3712.96, -3785.22, -3243.85, 0.000, 0.000, 0.000, 14:11:26.165
40, -3908.36, -3749.73, -3738.59, -3180.31, 0.000, 0.000, 0.000, 14:11:26.165
41, -3701.46, -3700.14, -3623.83, -3147.03, 0.000, 0.000, 0.000, 14:11:26.165
42, -3754.70, -3662.95, -3651.36, -3178.30, 0.000, 0.000, 0.000, 14:11:26.165
43, -4008.70, -3728.69, -3804.41, -3269.40, 0.000, 0.000, 0.000, 14:11:26.175
44, -3909.54, -3740.64, -3746.07, -3181.35, 0.000, 0.000, 0.000, 14:11:26.175
45, -3680.23, -3694.50, -3617.50, -3108.98, 0.000, 0.000, 0.000, 14:11:26.190
46, -3739.65, -3661.26, -3645.77, -3136.61, 0.000, 0.000, 0.000, 14:11:26.190
47, -4007.30, -3723.29, -3797.38, -3238.66, 0.000, 0.000, 0.000, 14:11:26.191
48, -3876.11, -3727.98, -3748.44, -3192.16, 0.000, 0.000, 0.000, 14:11:26.191
49, -3683.36, -3700.14, -3620.57, -3108.75, 0.000, 0.000, 0.000, 14:11:26.206
50, -3753.63, -3672.42, -3648.36, -3153.56, 0.000, 0.000, 0.000, 14:11:26.206
51, -4009.48, -3729.09, -3799.11, -3252.85, 0.000, 0.000, 0.000, 14:11:26.236
52, -3915.31, -3741.44, -3733.66, -3177.33, 0.000, 0.000, 0.000, 14:11:26.236
53, -3686.62, -3700.67, -3619.82, -3112.41, 0.000, 0.000, 0.000, 14:11:26.265
54, -3757.80, -3665.12, -3659.57, -3164.76, 0.000, 0.000, 0.000, 14:11:26.265
55, -3989.73, -3729.20, -3805.93, -3253.71, 0.000, 0.000, 0.000, 14:11:26.266
56, -3924.00, -3746.78, -3765.17, -3204.58, 0.000, 0.000, 0.000, 14:11:26.266
57, -3698.50, -3708.12, -3632.01, -3134.94, 0.000, 0.000, 0.000, 14:11:26.281
58, -3758.49, -3665.22, -3657.02, -3154.50, 0.000, 0.000, 0.000, 14:11:26.281
59, -3983.87, -3716.95, -3787.47, -3234.25, 0.000, 0.000, 0.000, 14:11:26.311
60, -3907.97, -3734.55, -3740.73, -3206.62, 0.000, 0.000, 0.000, 14:11:26.311
61, -3683.35, -3683.65, -3620.42, -3095.65, 0.000, 0.000, 0.000, 14:11:26.312
62, -3767.69, -3661.91, -3678.20, -3146.63, 0.000, 0.000, 0.000, 14:11:26.312
63, -4018.38, -3717.99, -3811.24, -3256.74, 0.000, 0.000, 0.000, 14:11:26.312
64, -3921.53, -3727.02, -3749.44, -3192.24, 0.000, 0.000, 0.000, 14:11:26.312
65, -3724.52, -3667.60, -3632.99, -3098.85, 0.000, 0.000, 0.000, 14:11:26.312
66, -3780.29, -3642.91, -3662.47, -3130.43, 0.000, 0.000, 0.000, 14:11:26.313
67, -4007.51, -3699.13, -3785.67, -3243.53, 0.000, 0.000, 0.000, 14:11:26.313
68, -3920.68, -3709.60, -3746.11, -3197.17, 0.000, 0.000, 0.000, 14:11:26.314
69, -3735.92, -3666.70, -3636.08, -3116.79, 0.000, 0.000, 0.000, 14:11:26.314
70, -3788.82, -3641.21, -3680.67, -3149.72, 0.000, 0.000, 0.000, 14:11:26.315
73, -3605.37, -3604.52, -3553.91, -3062.82, 0.000, 0.000, 0.000, 14:11:26.327
74, -3697.16, -3577.89, -3606.10, -3100.99, 0.000, 0.000, 0.000, 14:11:26.327
75, -3914.86, -3627.07, -3724.85, -3196.35, 0.000, 0.000, 0.000, 14:11:26.356
76, -3813.18, -3645.37, -3683.14, -3139.13, 0.000, 0.000, 0.000, 14:11:26.356
77, -3591.54, -3593.90, -3565.58, -3070.68, 0.000, 0.000, 0.000, 14:11:26.356
78, -3651.48, -3576.04, -3608.27, -3113.57, 0.000, 0.000, 0.000, 14:11:26.356
79, -3922.66, -3650.41, -3749.46, -3207.72, 0.000, 0.000, 0.000, 14:11:26.357
80, -3794.21, -3649.10, -3682.26, -3160.76, 0.000, 0.000, 0.000, 14:11:26.357
81, -3590.43, -3603.18, -3553.11, -3088.01, 0.000, 0.000, 0.000, 14:11:26.357
82, -3655.18, -3585.71, -3603.98, -3121.79, 0.000, 0.000, 0.000, 14:11:26.357
83, -3894.42, -3632.58, -3732.30, -3185.79, 0.000, 0.000, 0.000, 14:11:26.386
84, -3808.96, -3660.35, -3682.43, -3145.92, 0.000, 0.000, 0.000, 14:11:26.386
85, -3586.08, -3605.53, -3553.70, -3052.55, 0.000, 0.000, 0.000, 14:11:26.387
86, -3656.68, -3587.52, -3606.67, -3118.04, 0.000, 0.000, 0.000, 14:11:26.387
87, -3899.35, -3650.50, -3749.06, -3212.42, 0.000, 0.000, 0.000, 14:11:26.401
88, -3803.35, -3658.64, -3697.33, -3181.74, 0.000, 0.000, 0.000, 14:11:26.401
89, -3594.24, -3603.58, -3564.71, -3064.17, 0.000, 0.000, 0.000, 14:11:26.401
90, -3658.57, -3575.70, -3591.10, -3113.51, 0.000, 0.000, 0.000, 14:11:26.401
91, -3924.05, -3647.94, -3737.69, -3209.28, 0.000, 0.000, 0.000, 14:11:26.422
92, -3796.66, -3652.91, -3676.88, -3163.51, 0.000, 0.000, 0.000, 14:11:26.422
93, -3597.29, -3606.74, -3566.77, -3071.47, 0.000, 0.000, 0.000, 14:11:26.432
94, -3635.21, -3562.06, -3587.54, -3111.36, 0.000, 0.000, 0.000, 14:11:26.432
95, -3900.46, -3643.35, -3747.15, -3226.34, 0.000, 0.000, 0.000, 14:11:26.433
96, -3776.09, -3655.20, -3674.21, -3153.53, 0.000, 0.000, 0.000, 14:11:26.433
97, -3584.95, -3615.14, -3569.02, -3071.16, 0.000, 0.000, 0.000, 14:11:26.447
98, -3652.14, -3565.97, -3594.83, -3098.56, 0.000, 0.000, 0.000, 14:11:26.447
99, -3912.60, -3646.82, -3746.87, -3218.86, 0.000, 0.000, 0.000, 14:11:26.476
100, -3779.14, -3654.77, -3676.39, -3152.98, 0.000, 0.000, 0.000, 14:11:26.476
101, -3591.49, -3622.54, -3569.40, -3092.80, 0.000, 0.000, 0.000, 14:11:26.477
102, -3670.25, -3581.83, -3596.71, -3101.67, 0.000, 0.000, 0.000, 14:11:26.477
103, -3913.56, -3643.86, -3747.75, -3196.35, 0.000, 0.000, 0.000, 14:11:26.477
104, -3816.62, -3660.90, -3697.73, -3155.86, 0.000, 0.000, 0.000, 14:11:26.477
105, -3592.97, -3617.64, -3572.87, -3073.84, 0.000, 0.000, 0.000, 14:11:26.478
106, -3659.79, -3582.04, -3601.13, -3118.10, 0.000, 0.000, 0.000, 14:11:26.478
107, -3906.60, -3646.79, -3749.47, -3216.12, 0.000, 0.000, 0.000, 14:11:26.505
108, -3796.17, -3654.10, -3675.60, -3150.32, 0.000, 0.000, 0.000, 14:11:26.506
109, -3586.02, -3606.67, -3572.31, -3072.30, 0.000, 0.000, 0.000, 14:11:26.506
110, -3678.71, -3579.76, -3600.66, -3098.62, 0.000, 0.000, 0.000, 14:11:26.506
111, -3903.50, -3643.17, -3728.68, -3196.58, 0.000, 0.000, 0.000, 14:11:26.521
112, -3795.36, -3675.53, -3687.43, -3146.76, 0.000, 0.000, 0.000, 14:11:26.521
113, -3593.87, -3601.71, -3551.54, -3076.23, 0.000, 0.000, 0.000, 14:11:26.521
114, -3683.75, -3587.96, -3618.30, -3130.01, 0.000, 0.000, 0.000, 14:11:26.522
115, -3912.15, -3640.23, -3734.44, -3210.47, 0.000, 0.000, 0.000, 14:11:26.551
116, -3798.70, -3655.11, -3676.69, -3158.49, 0.000, 0.000, 0.000, 14:11:26.551
117, -3581.68, -3612.61, -3567.64, -3060.73, 0.000, 0.000, 0.000, 14:11:26.551
118, -3684.44, -3594.34, -3616.69, -3122.40, 0.000, 0.000, 0.000, 14:11:26.551
119, -3881.64, -3643.07, -3727.60, -3195.15, 0.000, 0.000, 0.000, 14:11:26.552
120, -3787.18, -3653.77, -3680.07, -3162.70, 0.000, 0.000, 0.000, 14:11:26.552
121, -3593.80, -3616.35, -3557.82, -3078.15, 0.000, 0.000, 0.000, 14:11:26.582
122, -3681.53, -3585.29, -3605.15, -3131.49, 0.000, 0.000, 0.000, 14:11:26.582
123, -3894.26, -3652.33, -3732.82, -3200.14, 0.000, 0.000, 0.000, 14:11:26.582
124, -3789.40, -3647.77, -3679.34, -3145.23, 0.000, 0.000, 0.000, 14:11:26.582
125, -3591.92, -3601.97, -3560.97, -3079.35, 0.000, 0.000, 0.000, 14:11:26.582
126, -3679.03, -3594.26, -3606.52, -3124.54, 0.000, 0.000, 0.000, 14:11:26.582
127, -3924.38, -3664.58, -3747.56, -3215.97, 0.000, 0.000, 0.000, 14:11:26.596
128, -3790.58, -3650.01, -3678.29, -3149.50, 0.000, 0.000, 0.000, 14:11:26.596
129, -3575.92, -3619.28, -3586.10, -3076.55, 0.000, 0.000, 0.000, 14:11:26.626
130, -3646.52, -3580.75, -3597.98, -3121.92, 0.000, 0.000, 0.000, 14:11:26.626
131, -3903.30, -3641.57, -3735.27, -3208.36, 0.000, 0.000, 0.000, 14:11:26.627
132, -3807.95, -3653.76, -3672.39, -3154.67, 0.000, 0.000, 0.000, 14:11:26.627
133, -3603.81, -3610.50, -3562.71, -3072.47, 0.000, 0.000, 0.000, 14:11:26.627
134, -3675.01, -3583.82, -3609.06, -3149.81, 0.000, 0.000, 0.000, 14:11:26.627
135, -3898.06, -3642.67, -3721.01, -3199.79, 0.000, 0.000, 0.000, 14:11:26.628
136, -3784.24, -3649.76, -3672.91, -3141.02, 0.000, 0.000, 0.000, 14:11:26.628
137, -3560.43, -3600.19, -3557.65, -3067.62, 0.000, 0.000, 0.000, 14:11:26.671
138, -3659.51, -3571.50, -3602.71, -3111.29, 0.000, 0.000, 0.000, 14:11:26.671
139, -3884.04, -3646.28, -3724.15, -3204.57, 0.000, 0.000, 0.000, 14:11:26.672
140, -3797.62, -3647.92, -3670.85, -3160.45, 0.000, 0.000, 0.000, 14:11:26.672
141, -3609.09, -3601.70, -3559.17, -3076.32, 0.000, 0.000, 0.000, 14:11:26.672
142, -3652.04, -3569.54, -3601.14, -3092.80, 0.000, 0.000, 0.000, 14:11:26.672
143, -3907.66, -3639.01, -3719.04, -3226.25, 0.000, 0.000, 0.000, 14:11:26.673
144, -3782.71, -3651.52, -3673.22, -3160.45, 0.000, 0.000, 0.000, 14:11:26.673
145, -3554.67, -3606.47, -3554.89, -3058.94, 0.000, 0.000, 0.000, 14:11:26.686
146, -3682.20, -3587.39, -3607.19, -3104.24, 0.000, 0.000, 0.000, 14:11:26.686
147, -3880.91, -3643.55, -3737.57, -3192.73, 0.000, 0.000, 0.000, 14:11:26.715
148, -3789.60, -3648.50, -3675.15, -3131.77, 0.000, 0.000, 0.000, 14:11:26.717
149, -3584.22, -3609.11, -3551.12, -3072.08, 0.000, 0.000, 0.000, 14:11:26.717
150, -3687.48, -3569.05, -3602.02, -3114.75, 0.000, 0.000, 0.000, 14:11:26.717
151, -3904.52, -3648.72, -3738.29, -3220.23, 0.000, 0.000, 0.000, 14:11:26.717
152, -3813.61, -3654.44, -3666.80, -3147.81, 0.000, 0.000, 0.000, 14:11:26.717
153, -3558.16, -3610.91, -3566.42, -3070.36, 0.000, 0.000, 0.000, 14:11:26.717
154, -3629.01, -3572.04, -3600.96, -3153.64, 0.000, 0.000, 0.000, 14:11:26.717
155, -3897.06, -3637.24, -3731.96, -3249.86, 0.000, 0.000, 0.000, 14:11:26.747
156, -3774.41, -3638.38, -3665.47, -3187.77, 0.000, 0.000, 0.000, 14:11:26.747
157, -3600.07, -3601.85, -3550.56, -3105.86, 0.000, 0.000, 0.000, 14:11:26.747
158, -3690.79, -3583.94, -3612.61, -3163.28, 0.000, 0.000, 0.000, 14:11:26.747
159, -3876.81, -3625.87, -3729.93, -3231.92, 0.000, 0.000, 0.000, 14:11:26.790
160, -3780.14, -3658.96, -3669.29, -3195.53, 0.000, 0.000, 0.000, 14:11:26.790
161, -3559.20, -3594.65, -3543.77, -3098.10, 0.000, 0.000, 0.000, 14:11:26.791
162, -3666.21, -3572.80, -3601.51, -3141.07, 0.000, 0.000, 0.000, 14:11:26.791
163, -3886.26, -3643.66, -3730.51, -3225.04, 0.000, 0.000, 0.000, 14:11:26.792
164, -3781.83, -3647.29, -3672.43, -3182.59, 0.000, 0.000, 0.000, 14:11:26.792
165, -3591.87, -3596.91, -3551.05, -3095.47, 0.000, 0.000, 0.000, 14:11:26.793
166, -3687.68, -3596.13, -3602.32, -3147.02, 0.000, 0.000, 0.000, 14:11:26.793
167, -3889.44, -3659.90, -3727.43, -3234.76, 0.000, 0.000, 0.000, 14:11:26.793
168, -3787.23, -3676.76, -3691.25, -3178.22, 0.000, 0.000, 0.000, 14:11:26.793
181, -3754.08, -3687.56, -3661.75, -3158.33, 0.000, 0.000, 0.000, 14:11:35.821
182, -4009.87, -3734.19, -3819.05, -3273.34, 0.000, 0.000, 0.000, 14:11:35.821
183, -3925.11, -3755.36, -3757.55, -3223.58, 0.000, 0.000, 0.000, 14:11:35.822
184, -3703.97, -3717.70, -3635.97, -3122.39, 0.000, 0.000, 0.000, 14:11:35.822
185, -3743.24, -3677.45, -3660.64, -3152.47, 0.000, 0.000, 0.000, 14:11:35.823
186, -4019.56, -3734.11, -3821.57, -3264.87, 0.000, 0.000, 0.000, 14:11:35.823
187, -3932.44, -3746.52, -3754.59, -3221.29, 0.000, 0.000, 0.000, 14:11:35.836
188, -3737.95, -3724.74, -3637.74, -3130.60, 0.000, 0.000, 0.000, 14:11:35.836
189, -3769.55, -3684.90, -3651.20, -3163.85, 0.000, 0.000, 0.000, 14:11:35.851
190, -4009.83, -3741.88, -3807.59, -3264.55, 0.000, 0.000, 0.000, 14:11:35.851
191, -3924.33, -3759.90, -3761.64, -3213.27, 0.000, 0.000, 0.000, 14:11:35.852
192, -3715.38, -3721.21, -3635.07, -3133.88, 0.000, 0.000, 0.000, 14:11:35.852
193, -3747.59, -3685.80, -3667.09, -3173.54, 0.000, 0.000, 0.000, 14:11:35.865
194, -4040.12, -3734.81, -3817.49, -3271.43, 0.000, 0.000, 0.000, 14:11:35.865
195, -3951.48, -3755.70, -3769.02, -3225.83, 0.000, 0.000, 0.000, 14:11:35.911
196, -3740.37, -3715.68, -3648.80, -3126.15, 0.000, 0.000, 0.000, 14:11:35.912
197, -3737.91, -3665.16, -3646.15, -3155.82, 0.000, 0.000, 0.000, 14:11:35.912
198, -4007.29, -3734.34, -3802.36, -3307.80, 0.000, 0.000, 0.000, 14:11:35.912
199, -3918.70, -3758.95, -3766.03, -3255.99, 0.000, 0.000, 0.000, 14:11:35.912
200, -3715.34, -3719.28, -3652.58, -3155.14, 0.000, 0.000, 0.000, 14:11:35.912
0, -3751.47, -3667.49, -3655.37, -3154.33, 0.000, 0.000, 0.000, 14:11:35.912
1, -4016.92, -3744.86, -3806.15, -3258.81, 0.000, 0.000, 0.000, 14:11:35.913
2, -3966.16, -3761.53, -3769.87, -3227.49, 0.000, 0.000, 0.000, 14:11:35.913
3, -3714.28, -3716.07, -3640.91, -3121.24, 0.000, 0.000, 0.000, 14:11:35.914
4, -3741.34, -3679.58, -3651.85, -3144.28, 0.000, 0.000, 0.000, 14:11:35.914
5, -4030.78, -3735.93, -3805.86, -3252.08, 0.000, 0.000, 0.000, 14:11:35.941
6, -3930.93, -3757.85, -3768.89, -3228.35, 0.000, 0.000, 0.000, 14:11:35.941
7, -3729.64, -3711.29, -3641.01, -3131.72, 0.000, 0.000, 0.000, 14:11:35.942
8, -3746.87, -3672.81, -3657.17, -3154.03, 0.000, 0.000, 0.000, 14:11:35.942
9, -4042.06, -3734.65, -3797.64, -3250.58, 0.000, 0.000, 0.000, 14:11:35.956
10, -3935.21, -3753.56, -3764.25, -3206.52, 0.000, 0.000, 0.000, 14:11:35.956
11, -3735.30, -3716.64, -3646.20, -3128.75, 0.000, 0.000, 0.000, 14:11:35.957
12, -3747.14, -3675.10, -3661.25, -3153.29, 0.000, 0.000, 0.000, 14:11:35.957
13, -3993.50, -3734.10, -3800.62, -3247.56, 0.000, 0.000, 0.000, 14:11:35.971
14, -3937.58, -3758.00, -3767.82, -3230.69, 0.000, 0.000, 0.000, 14:11:35.971
15, -3717.52, -3716.84, -3657.80, -3124.54, 0.000, 0.000, 0.000, 14:11:35.986
16, -3737.38, -3675.57, -3668.46, -3151.75, 0.000, 0.000, 0.000, 14:11:35.986
17, -4034.66, -3741.52, -3813.85, -3266.34, 0.000, 0.000, 0.000, 14:11:35.986
18, -3917.17, -3732.13, -3739.82, -3210.29, 0.000, 0.000, 0.000, 14:11:35.986
19, -3726.08, -3708.60, -3647.00, -3133.06, 0.000, 0.000, 0.000, 14:11:36.001
20, -3754.23, -3675.65, -3662.63, -3151.74, 0.000, 0.000, 0.000, 14:11:36.001
21, -4011.36, -3734.16, -3800.02, -3252.28, 0.000, 0.000, 0.000, 14:11:36.015
22, -3926.83, -3760.33, -3760.42, -3209.38, 0.000, 0.000, 0.000, 14:11:36.015
23, -3724.12, -3709.91, -3643.28, -3129.86, 0.000, 0.000, 0.000, 14:11:36.016
24, -3776.28, -3676.84, -3663.76, -3160.65, 0.000, 0.000, 0.000, 14:11:36.016
25, -4026.88, -3725.45, -3802.20, -3267.79, 0.000, 0.000, 0.000, 14:11:36.031
26, -3928.45, -3744.64, -3763.32, -3208.33, 0.000, 0.000, 0.000, 14:11:36.031
27, -3699.80, -3704.61, -3632.81, -3124.89, 0.000, 0.000, 0.000, 14:11:36.045
28, -3764.36, -3677.65, -3665.68, -3176.33, 0.000, 0.000, 0.000, 14:11:36.045
29, -4013.20, -3739.62, -3808.03, -3262.18, 0.000, 0.000, 0.000, 14:11:36.046
30, -3935.83, -3752.13, -3758.53, -3205.98, 0.000, 0.000, 0.000, 14:11:36.046
31, -3709.23, -3704.32, -3644.28, -3113.69, 0.000, 0.000, 0.000, 14:11:36.062
32, -3784.90, -3670.76, -3666.69, -3146.19, 0.000, 0.000, 0.000, 14:11:36.062
33, -3999.91, -3733.90, -3810.46, -3268.65, 0.000, 0.000, 0.000, 14:11:36.091
34, -3925.49, -3754.90, -3774.31, -3218.51, 0.000, 0.000, 0.000, 14:11:36.092
35, -3722.06, -3718.09, -3645.83, -3130.91, 0.000, 0.000, 0.000, 14:11:36.092
36, -3745.88, -3678.02, -3650.13, -3151.80, 0.000, 0.000, 0.000, 14:11:36.092
37, -4029.91, -3732.59, -3804.82, -3262.46, 0.000, 0.000, 0.000, 14:11:36.093
38, -3909.69, -3747.74, -3754.40, -3225.55, 0.000, 0.000, 0.000, 14:11:36.093
39, -3711.65, -3703.06, -3641.90, -3129.12, 0.000, 0.000, 0.000, 14:11:36.094
40, -3764.66, -3674.60, -3659.84, -3154.93, 0.000, 0.000, 0.000, 14:11:36.094
41, -4008.62, -3731.57, -3799.33, -3269.29, 0.000, 0.000, 0.000, 14:11:36.105
42, -3920.21, -3754.96, -3757.20, -3217.27, 0.000, 0.000, 0.000, 14:11:36.105
43, -3703.19, -3712.57, -3635.84, -3124.05, 0.000, 0.000, 0.000, 14:11:36.120
44, -3751.35, -3672.53, -3662.16, -3163.14, 0.000, 0.000, 0.000, 14:11:36.120
45, -4041.97, -3748.97, -3817.02, -3266.68, 0.000, 0.000, 0.000, 14:11:36.136
46, -3965.95, -3759.05, -3778.68, -3227.48, 0.000, 0.000, 0.000, 14:11:36.136
47, -3713.57, -3709.66, -3651.35, -3118.58, 0.000, 0.000, 0.000, 14:11:36.137
48, -3754.94, -3672.86, -3657.90, -3166.00, 0.000, 0.000, 0.000, 14:11:36.137
49, -4011.56, -3733.82, -3797.35, -3245.12, 0.000, 0.000, 0.000, 14:11:36.151
50, -3897.01, -3740.60, -3750.31, -3203.12, 0.000, 0.000, 0.000, 14:11:36.151
51, -3706.18, -3710.69, -3642.02, -3135.22, 0.000, 0.000, 0.000, 14:11:36.166
52, -3753.24, -3687.99, -3670.85, -3157.14, 0.000, 0.000, 0.000, 14:11:36.166
53, -4024.04, -3740.39, -3821.12, -3267.49, 0.000, 0.000, 0.000, 14:11:36.166
54, -3941.47, -3751.53, -3763.12, -3223.84, 0.000, 0.000, 0.000, 14:11:36.166
55, -3723.01, -3721.87, -3642.95, -3156.16, 0.000, 0.000, 0.000, 14:11:36.181
56, -3781.30, -3689.76, -3682.61, -3167.75, 0.000, 0.000, 0.000, 14:11:36.181
57, -4042.62, -3732.20, -3810.70, -3241.78, 0.000, 0.000, 0.000, 14:11:36.197
58, -3937.77, -3753.64, -3761.47, -3216.54, 0.000, 0.000, 0.000, 14:11:36.197
59, -3696.94, -3710.28, -3649.81, -3121.37, 0.000, 0.000, 0.000, 14:11:36.197
60, -3755.11, -3665.71, -3674.56, -3156.45, 0.000, 0.000, 0.000, 14:11:36.197
61, -4026.23, -3740.36, -3820.55, -3258.71, 0.000, 0.000, 0.000, 14:11:36.211
62, -3946.95, -3754.95, -3762.61, -3231.42, 0.000, 0.000, 0.000, 14:11:36.212
63, -3730.35, -3710.49, -3642.50, -3133.58, 0.000, 0.000, 0.000, 14:11:36.227
64, -3785.13, -3676.46, -3669.19, -3147.70, 0.000, 0.000, 0.000, 14:11:36.227
65, -3994.99, -3739.22, -3810.09, -3265.10, 0.000, 0.000, 0.000, 14:11:36.227
66, -3942.47, -3743.92, -3751.96, -3209.01, 0.000, 0.000, 0.000, 14:11:36.227
67, -3706.50, -3709.96, -3641.20, -3123.95, 0.000, 0.000, 0.000, 14:11:36.242
68, -3762.72, -3674.15, -3668.00, -3167.73, 0.000, 0.000, 0.000, 14:11:36.242
69, -4025.39, -3735.72, -3814.04, -3263.61, 0.000, 0.000, 0.000, 14:11:36.256
70, -3933.96, -3754.98, -3766.81, -3221.10, 0.000, 0.000, 0.000, 14:11:36.256
71, -3709.94, -3710.03, -3641.30, -3120.30, 0.000, 0.000, 0.000, 14:11:36.256
72, -3767.14, -3683.17, -3670.64, -3155.00, 0.000, 0.000, 0.000, 14:11:36.256
73, -4017.55, -3737.92, -3816.92, -3257.30, 0.000, 0.000, 0.000, 14:11:36.271
74, -3936.96, -3756.60, -3765.37, -3206.45, 0.000, 0.000, 0.000, 14:11:36.271
75, -3726.90, -3718.94, -3647.59, -3120.40, 0.000, 0.000, 0.000, 14:11:36.286
76, -3736.94, -3668.33, -3661.61, -3154.00, 0.000, 0.000, 0.000, 14:11:36.286
77, -4020.71, -3731.36, -3801.58, -3266.85, 0.000, 0.000, 0.000, 14:11:36.286
78, -3929.21, -3750.03, -3760.25, -3218.17, 0.000, 0.000, 0.000, 14:11:36.286
79, -3710.60, -3706.03, -3645.20, -3127.15, 0.000, 0.000, 0.000, 14:11:36.301
80, -3763.53, -3677.32, -3664.06, -3158.03, 0.000, 0.000, 0.000, 14:11:36.301
81, -4045.02, -3739.75, -3814.39, -3265.85, 0.000, 0.000, 0.000, 14:11:36.315
82, -3920.73, -3747.92, -3753.19, -3213.03, 0.000, 0.000, 0.000, 14:11:36.315
83, -3674.16, -3707.27, -3639.18, -3114.84, 0.000, 0.000, 0.000, 14:11:36.331
84, -3737.24, -3683.52, -3661.74, -3152.44, 0.000, 0.000, 0.000, 14:11:36.331
85, -4020.32, -3739.07, -3810.22, -3261.36, 0.000, 0.000, 0.000, 14:11:36.331
86, -3924.57, -3744.75, -3754.61, -3209.14, 0.000, 0.000, 0.000, 14:11:36.331
87, -3723.68, -3715.40, -3645.41, -3135.04, 0.000, 0.000, 0.000, 14:11:36.346
88, -3774.94, -3681.02, -3676.34, -3191.21, 0.000, 0.000, 0.000, 14:11:36.346
89, -4031.69, -3731.02, -3804.29, -3289.97, 0.000, 0.000, 0.000, 14:11:36.346
90, -3898.44, -3745.97, -3757.33, -3224.28, 0.000, 0.000, 0.000, 14:11:36.346
91, -3684.07, -3703.83, -3631.17, -3108.10, 0.000, 0.000, 0.000, 14:11:36.376
92, -3777.44, -3684.83, -3667.29, -3148.96, 0.000, 0.000, 0.000, 14:11:36.376
93, -4028.52, -3745.22, -3821.29, -3274.27, 0.000, 0.000, 0.000, 14:11:36.376
94, -3931.29, -3751.77, -3750.32, -3221.50, 0.000, 0.000, 0.000, 14:11:36.376
95, -3718.54, -3701.32, -3624.21, -3128.07, 0.000, 0.000, 0.000, 14:11:36.377
96, -3766.29, -3675.58, -3667.60, -3168.84, 0.000, 0.000, 0.000, 14:11:36.377
97, -3997.03, -3741.03, -3814.93, -3276.18, 0.000, 0.000, 0.000, 14:11:36.391
98, -3917.30, -3741.43, -3752.60, -3215.73, 0.000, 0.000, 0.000, 14:11:36.392
99, -3734.34, -3709.45, -3635.46, -3127.67, 0.000, 0.000, 0.000, 14:11:36.406
100, -3769.30, -3686.24, -3666.43, -3171.14, 0.000, 0.000, 0.000, 14:11:36.406
101, -4022.94, -3735.82, -3801.73, -3266.11, 0.000, 0.000, 0.000, 14:11:36.407
102, -3922.93, -3748.77, -3760.48, -3214.66, 0.000, 0.000, 0.000, 14:11:36.407
103, -3709.60, -3738.83, -3647.34, -3156.82, 0.000, 0.000, 0.000, 14:11:36.420
104, -3761.14, -3705.53, -3679.16, -3157.52, 0.000, 0.000, 0.000, 14:11:36.420
105, -4007.74, -3737.02, -3809.66, -3235.47, 0.000, 0.000, 0.000, 14:11:36.465
106, -3916.44, -3753.64, -3770.25, -3190.37, 0.000, 0.000, 0.000, 14:11:36.465
107, -3706.14, -3723.77, -3671.49, -3109.26, 0.000, 0.000, 0.000, 14:11:36.466
108, -3758.61, -3687.06, -3682.84, -3119.58, 0.000, 0.000, 0.000, 14:11:36.466
109, -4016.88, -3737.54, -3829.46, -3213.20, 0.000, 0.000, 0.000, 14:11:36.466
110, -3923.24, -3753.29, -3780.49, -3163.86, 0.000, 0.000, 0.000, 14:11:36.467
111, -3700.29, -3722.26, -3677.84, -3081.21, 0.000, 0.000, 0.000, 14:11:36.467
112, -3757.07, -3685.42, -3696.10, -3134.87, 0.000, 0.000, 0.000, 14:11:36.467
113, -4010.19, -3756.68, -3831.87, -3221.87, 0.000, 0.000, 0.000, 14:11:36.468
114, -3947.10, -3771.79, -3794.31, -3193.79, 0.000, 0.000, 0.000, 14:11:36.468
115, -3718.34, -3722.86, -3662.93, -3102.75, 0.000, 0.000, 0.000, 14:11:36.482
116, -3754.32, -3681.10, -3687.57, -3148.21, 0.000, 0.000, 0.000, 14:11:36.482
117, -4014.44, -3747.75, -3831.41, -3240.91, 0.000, 0.000, 0.000, 14:11:36.496
118, -3928.51, -3764.10, -3780.76, -3189.08, 0.000, 0.000, 0.000, 14:11:36.496
119, -3702.29, -3713.49, -3648.64, -3105.15, 0.000, 0.000, 0.000, 14:11:36.496
120, -3752.17, -3677.72, -3677.26, -3144.63, 0.000, 0.000, 0.000, 14:11:36.496
121, -4020.82, -3745.71, -3822.54, -3244.27, 0.000, 0.000, 0.000, 14:11:36.517
122, -3939.20, -3762.06, -3777.61, -3219.50, 0.000, 0.000, 0.000, 14:11:36.517
123, -3727.80, -3721.21, -3649.70, -3136.28, 0.000, 0.000, 0.000, 14:11:36.527
124, -3746.79, -3680.75, -3684.38, -3171.59, 0.000, 0.000, 0.000, 14:11:36.527
125, -4028.86, -3750.66, -3825.57, -3266.66, 0.000, 0.000, 0.000, 14:11:36.527
126, -3926.19, -3760.59, -3778.57, -3209.57, 0.000, 0.000, 0.000, 14:11:36.527
127, -3722.68, -3724.93, -3652.88, -3121.74, 0.000, 0.000, 0.000, 14:11:36.542
128, -3769.12, -3678.72, -3672.60, -3154.11, 0.000, 0.000, 0.000, 14:11:36.542
129, -4010.73, -3740.77, -3819.68, -3253.41, 0.000, 0.000, 0.000, 14:11:36.556
130, -3922.14, -3754.40, -3764.70, -3213.91, 0.000, 0.000, 0.000, 14:11:36.556
131, -3698.65, -3709.97, -3639.07, -3120.90, 0.000, 0.000, 0.000, 14:11:36.557
132, -3779.05, -3681.37, -3671.98, -3161.99, 0.000, 0.000, 0.000, 14:11:36.557
133, -4039.00, -3748.27, -3812.88, -3254.28, 0.000, 0.000, 0.000, 14:11:36.586
134, -3938.38, -3749.65, -3760.67, -3194.94, 0.000, 0.000, 0.000, 14:11:36.586
135, -3678.88, -3708.14, -3638.72, -3107.20, 0.000, 0.000, 0.000, 14:11:36.586
136, -3715.93, -3668.89, -3663.69, -3142.04, 0.000, 0.000, 0.000, 14:11:36.587
137, -4023.59, -3741.38, -3816.30, -3259.19, 0.000, 0.000, 0.000, 14:11:36.587
138, -3940.80, -3758.77, -3759.39, -3198.45, 0.000, 0.000, 0.000, 14:11:36.587
139, -3712.59, -3704.34, -3637.46, -3101.50, 0.000, 0.000, 0.000, 14:11:36.601
140, -3754.67, -3678.41, -3672.77, -3159.33, 0.000, 0.000, 0.000, 14:11:36.601
141, -4012.58, -3735.93, -3823.39, -3263.91, 0.000, 0.000, 0.000, 14:11:36.615
142, -3917.83, -3765.51, -3749.23, -3210.88, 0.000, 0.000, 0.000, 14:11:36.615
143, -3728.23, -3752.83, -3652.65, -3146.10, 0.000, 0.000, 0.000, 14:11:36.616
144, -3739.56, -3676.34, -3664.26, -3140.54, 0.000, 0.000, 0.000, 14:11:36.616
145, -4006.60, -3724.72, -3809.43, -3233.60, 0.000, 0.000, 0.000, 14:11:36.646
146, -3922.51, -3765.27, -3758.24, -3207.01, 0.000, 0.000, 0.000, 14:11:36.646
147, -3694.49, -3720.97, -3646.45, -3090.02, 0.000, 0.000, 0.000, 14:11:36.647
148, -3739.04, -3679.61, -3679.51, -3136.24, 0.000, 0.000, 0.000, 14:11:36.647
149, -4022.70, -3751.46, -3818.85, -3257.45, 0.000, 0.000, 0.000, 14:11:36.647
150, -3929.07, -3774.21, -3763.08, -3203.96, 0.000, 0.000, 0.000, 14:11:36.648
151, -3704.27, -3713.91, -3630.14, -3116.65, 0.000, 0.000, 0.000, 14:11:36.662
152, -3755.36, -3690.28, -3670.23, -3141.47, 0.000, 0.000, 0.000, 14:11:36.662
153, -3997.33, -3742.36, -3821.71, -3256.15, 0.000, 0.000, 0.000, 14:11:36.675
154, -3919.97, -3757.97, -3759.88, -3202.81, 0.000, 0.000, 0.000, 14:11:36.675
155, -3693.38, -3705.08, -3631.32, -3110.09, 0.000, 0.000, 0.000, 14:11:36.676
156, -3759.53, -3673.44, -3671.97, -3143.76, 0.000, 0.000, 0.000, 14:11:36.676
157, -4023.84, -3736.84, -3813.09, -3252.79, 0.000, 0.000, 0.000, 14:11:36.706
158, -3906.44, -3755.28, -3758.03, -3212.06, 0.000, 0.000, 0.000, 14:11:36.706
159, -3706.24, -3710.06, -3645.44, -3117.09, 0.000, 0.000, 0.000, 14:11:36.707
160, -3759.83, -3678.76, -3674.86, -3151.03, 0.000, 0.000, 0.000, 14:11:36.707
161, -4019.50, -3742.10, -3812.40, -3253.85, 0.000, 0.000, 0.000, 14:11:36.707
162, -3947.91, -3749.16, -3756.51, -3211.42, 0.000, 0.000, 0.000, 14:11:36.707
163, -3705.04, -3718.15, -3636.41, -3112.36, 0.000, 0.000, 0.000, 14:11:36.720
164, -3751.89, -3676.94, -3663.18, -3145.24, 0.000, 0.000, 0.000, 14:11:36.720
165, -4004.97, -3731.94, -3800.71, -3256.91, 0.000, 0.000, 0.000, 14:11:36.736
166, -3920.45, -3760.43, -3761.20, -3215.82, 0.000, 0.000, 0.000, 14:11:36.736
167, -3705.33, -3718.70, -3640.84, -3132.24, 0.000, 0.000, 0.000, 14:11:36.737
168, -3772.63, -3678.03, -3681.93, -3168.56, 0.000, 0.000, 0.000, 14:11:36.737
169, -4016.28, -3744.93, -3822.14, -3305.25, 0.000, 0.000, 0.000, 14:11:36.750
170, -3940.39, -3750.41, -3755.77, -3234.24, 0.000, 0.000, 0.000, 14:11:36.750
171, -3706.88, -3717.09, -3640.92, -3117.81, 0.000, 0.000, 0.000, 14:11:36.765
172, -3784.54, -3678.77, -3678.45, -3136.51, 0.000, 0.000, 0.000, 14:11:36.765
173, -4024.28, -3736.93, -3809.20, -3248.96, 0.000, 0.000, 0.000, 14:11:36.768
174, -3920.78, -3747.44, -3754.88, -3212.29, 0.000, 0.000, 0.000, 14:11:36.768
175, -3707.61, -3707.04, -3634.57, -3096.60, 0.000, 0.000, 0.000, 14:11:36.781
176, -3778.61, -3677.94, -3671.15, -3139.12, 0.000, 0.000, 0.000, 14:11:36.781
177, -4039.85, -3745.38, -3814.87, -3253.60, 0.000, 0.000, 0.000, 14:11:36.811
178, -3920.18, -3754.41, -3776.46, -3203.24, 0.000, 0.000, 0.000, 14:11:36.812
179, -3704.83, -3705.06, -3632.64, -3110.00, 0.000, 0.000, 0.000, 14:11:36.812
180, -3774.22, -3679.00, -3665.61, -3163.41, 0.000, 0.000, 0.000, 14:11:36.812
181, -4027.66, -3732.46, -3793.41, -3263.73, 0.000, 0.000, 0.000, 14:11:36.812
182, -3935.53, -3753.05, -3758.00, -3203.90, 0.000, 0.000, 0.000, 14:11:36.812
183, -3705.27, -3702.80, -3638.00, -3120.15, 0.000, 0.000, 0.000, 14:11:36.813
184, -3773.39, -3677.82, -3678.05, -3163.44, 0.000, 0.000, 0.000, 14:11:36.813
185, -4025.42, -3742.90, -3803.27, -3280.59, 0.000, 0.000, 0.000, 14:11:36.826
186, -3912.38, -3742.58, -3764.09, -3206.78, 0.000, 0.000, 0.000, 14:11:36.826
187, -3707.38, -3695.03, -3636.62, -3113.40, 0.000, 0.000, 0.000, 14:11:36.842
188, -3798.89, -3678.80, -3680.57, -3157.95, 0.000, 0.000, 0.000, 14:11:36.842
189, -4009.33, -3739.32, -3807.18, -3249.64, 0.000, 0.000, 0.000, 14:11:36.857
190, -3909.02, -3759.40, -3746.86, -3205.65, 0.000, 0.000, 0.000, 14:11:36.857
191, -3710.27, -3710.75, -3638.46, -3121.63, 0.000, 0.000, 0.000, 14:11:36.857
192, -3761.16, -3674.13, -3670.26, -3169.04, 0.000, 0.000, 0.000, 14:11:36.857
193, -4020.91, -3740.25, -3806.37, -3270.58, 0.000, 0.000, 0.000, 14:11:36.886
194, -3927.67, -3745.49, -3751.95, -3203.48, 0.000, 0.000, 0.000, 14:11:36.886
195, -3714.54, -3714.21, -3650.52, -3110.15, 0.000, 0.000, 0.000, 14:11:36.886
196, -3756.88, -3670.53, -3659.42, -3156.82, 0.000, 0.000, 0.000, 14:11:36.886
197, -4020.39, -3748.45, -3814.20, -3260.03, 0.000, 0.000, 0.000, 14:11:36.887
198, -3929.58, -3753.46, -3761.84, -3203.07, 0.000, 0.000, 0.000, 14:11:36.887
199, -3702.43, -3709.20, -3633.04, -3122.03, 0.000, 0.000, 0.000, 14:11:36.901
200, -3793.77, -3678.62, -3678.51, -3167.13, 0.000, 0.000, 0.000, 14:11:36.901
0, -4001.41, -3734.42, -3803.28, -3277.41, 0.000, 0.000, 0.000, 14:11:36.902
1, -3909.61, -3754.56, -3755.64, -3210.96, 0.000, 0.000, 0.000, 14:11:36.930
2, -3695.06, -3706.45, -3641.86, -3121.04, 0.000, 0.000, 0.000, 14:11:36.930
3, -3754.83, -3665.95, -3674.20, -3165.17, 0.000, 0.000, 0.000, 14:11:36.931
4, -4043.22, -3748.73, -3816.38, -3261.81, 0.000, 0.000, 0.000, 14:11:36.931
5, -3944.73, -3756.18, -3754.60, -3204.33, 0.000, 0.000, 0.000, 14:11:36.932
6, -3698.82, -3707.93, -3632.90, -3142.79, 0.000, 0.000, 0.000, 14:11:36.932
7, -3766.23, -3672.76, -3662.08, -3165.41, 0.000, 0.000, 0.000, 14:11:36.945
8, -4033.89, -3744.17, -3809.75, -3274.29, 0.000, 0.000, 0.000, 14:11:36.946
9, -3930.06, -3753.02, -3755.83, -3216.03, 0.000, 0.000, 0.000, 14:11:36.961
10, -3690.64, -3700.92, -3627.92, -3128.13, 0.000, 0.000, 0.000, 14:11:36.961
11, -3780.54, -3674.62, -3676.54, -3163.77, 0.000, 0.000, 0.000, 14:11:36.962
12, -4026.47, -3745.46, -3804.02, -3256.44, 0.000, 0.000, 0.000, 14:11:36.962
13, -3910.93, -3744.92, -3746.49, -3210.02, 0.000, 0.000, 0.000, 14:11:36.976
14, -3690.31, -3700.07, -3636.48, -3124.14, 0.000, 0.000, 0.000, 14:11:36.976
15, -3765.31, -3671.55, -3669.58, -3172.41, 0.000, 0.000, 0.000, 14:11:36.991
16, -4028.19, -3748.44, -3821.59, -3276.46, 0.000, 0.000, 0.000, 14:11:36.991
17, -3933.90, -3753.17, -3756.82, -3224.30, 0.000, 0.000, 0.000, 14:11:36.992
18, -3702.12, -3697.80, -3624.49, -3128.45, 0.000, 0.000, 0.000, 14:11:36.992
19, -3749.86, -3685.05, -3676.03, -3179.54, 0.000, 0.000, 0.000, 14:11:37.021
20, -4021.72, -3750.89, -3809.05, -3281.76, 0.000, 0.000, 0.000, 14:11:37.021
21, -3934.61, -3742.44, -3764.35, -3232.12, 0.000, 0.000, 0.000, 14:11:37.022
22, -3683.09, -3699.42, -3631.59, -3158.72, 0.000, 0.000, 0.000, 14:11:37.022
23, -3766.46, -3673.83, -3665.01, -3188.82, 0.000, 0.000, 0.000, 14:11:37.022
24, -4015.69, -3746.47, -3812.41, -3283.83, 0.000, 0.000, 0.000, 14:11:37.022
25, -3921.85, -3751.02, -3745.79, -3234.60, 0.000, 0.000, 0.000, 14:11:37.050
26, -3705.73, -3711.05, -3628.01, -3141.32, 0.000, 0.000, 0.000, 14:11:37.050
27, -3791.74, -3687.07, -3676.53, -3163.08, 0.000, 0.000, 0.000, 14:11:37.051
28, -4010.56, -3739.78, -3806.96, -3270.24, 0.000, 0.000, 0.000, 14:11:37.051
29, -3920.19, -3750.38, -3756.97, -3211.08, 0.000, 0.000, 0.000, 14:11:37.051
30, -3709.57, -3704.66, -3643.25, -3127.42, 0.000, 0.000, 0.000, 14:11:37.052
31, -3751.13, -3679.04, -3666.90, -3158.06, 0.000, 0.000, 0.000, 14:11:37.072
32, -4033.60, -3734.87, -3823.21, -3276.31, 0.000, 0.000, 0.000, 14:11:37.072
33, -3909.59, -3745.59, -3745.83, -3197.39, 0.000, 0.000, 0.000, 14:11:37.080
34, -3721.70, -3718.17, -3640.89, -3130.74, 0.000, 0.000, 0.000, 14:11:37.080
35, -3769.02, -3675.76, -3671.19, -3160.19, 0.000, 0.000, 0.000, 14:11:37.081
36, -4001.20, -3736.00, -3800.78, -3252.34, 0.000, 0.000, 0.000, 14:11:37.081
37, -3923.41, -3759.35, -3767.69, -3217.53, 0.000, 0.000, 0.000, 14:11:37.095
38, -3707.60, -3694.17, -3626.09, -3126.71, 0.000, 0.000, 0.000, 14:11:37.095
39, -3770.47, -3659.40, -3658.33, -3183.33, 0.000, 0.000, 0.000, 14:11:37.141
40, -4041.07, -3727.32, -3807.81, -3299.01, 0.000, 0.000, 0.000, 14:11:37.142
41, -3928.19, -3728.76, -3717.05, -3244.75, 0.000, 0.000, 0.000, 14:11:37.142
42, -3717.91, -3676.73, -3603.61, -3176.18, 0.000, 0.000, 0.000, 14:11:37.142
43, -3776.13, -3645.72, -3627.65, -3222.64, 0.000, 0.000, 0.000, 14:11:37.143
44, -4034.25, -3709.15, -3763.76, -3308.84, 0.000, 0.000, 0.000, 14:11:37.143
45, -3935.65, -3724.59, -3717.97, -3261.98, 0.000, 0.000, 0.000, 14:11:37.143
46, -3719.43, -3676.03, -3591.73, -3172.85, 0.000, 0.000, 0.000, 14:11:37.143
47, -3784.04, -3654.19, -3653.65, -3226.22, 0.000, 0.000, 0.000, 14:11:37.143
48, -4030.28, -3717.22, -3783.63, -3308.56, 0.000, 0.000, 0.000, 14:11:37.143
49, -3922.86, -3724.19, -3742.71, -3229.97, 0.000, 0.000, 0.000, 14:11:37.156
50, -3734.49, -3685.77, -3617.32, -3154.48, 0.000, 0.000, 0.000, 14:11:37.157
51, -3780.03, -3666.12, -3646.03, -3198.12, 0.000, 0.000, 0.000, 14:11:37.170
52, -4027.75, -3730.73, -3783.16, -3300.80, 0.000, 0.000, 0.000, 14:11:37.170
53, -3894.05, -3715.89, -3714.62, -3218.67, 0.000, 0.000, 0.000, 14:11:37.171
54, -3703.10, -3697.52, -3615.41, -3143.91, 0.000, 0.000, 0.000, 14:11:37.171
55, -3787.99, -3671.71, -3662.88, -3194.37, 0.000, 0.000, 0.000, 14:11:37.200
56, -4018.65, -3735.87, -3819.32, -3288.28, 0.000, 0.000, 0.000, 14:11:37.200
57, -3916.56, -3747.25, -3742.18, -3232.78, 0.000, 0.000, 0.000, 14:11:37.201
58, -3734.38, -3706.57, -3629.44, -3147.84, 0.000, 0.000, 0.000, 14:11:37.201
59, -3809.40, -3672.98, -3665.58, -3188.38, 0.000, 0.000, 0.000, 14:11:37.202
60, -4020.66, -3733.19, -3785.48, -3268.29, 0.000, 0.000, 0.000, 14:11:37.202
61, -3913.61, -3742.43, -3745.90, -3209.53, 0.000, 0.000, 0.000, 14:11:37.216
62, -3687.51, -3697.81, -3623.88, -3121.39, 0.000, 0.000, 0.000, 14:11:37.216
63, -3772.76, -3678.71, -3665.60, -3181.03, 0.000, 0.000, 0.000, 14:11:37.230
64, -4022.38, -3746.24, -3805.81, -3272.46, 0.000, 0.000, 0.000, 14:11:37.230
65, -3943.68, -3741.75, -3741.16, -3219.05, 0.000, 0.000, 0.000, 14:11:37.231
66, -3716.15, -3709.82, -3647.31, -3138.36, 0.000, 0.000, 0.000, 14:11:37.231
67, -3758.95, -3675.99, -3676.90, -3179.55, 0.000, 0.000, 0.000, 14:11:37.246
68, -4008.72, -3746.09, -3811.83, -3273.37, 0.000, 0.000, 0.000, 14:11:37.246
69, -3891.67, -3745.25, -3743.50, -3207.63, 0.000, 0.000, 0.000, 14:11:37.261
70, -3700.04, -3705.93, -3619.19, -3117.50, 0.000, 0.000, 0.000, 14:11:37.261
71, -3779.51, -3673.12, -3659.86, -3155.25, 0.000, 0.000, 0.000, 14:11:37.262
72, -4048.58, -3738.96, -3805.22, -3262.94, 0.000, 0.000, 0.000, 14:11:37.262
73, -3946.66, -3752.83, -3754.20, -3210.80, 0.000, 0.000, 0.000, 14:11:37.276
74, -3676.07, -3693.18, -3622.25, -3114.74, 0.000, 0.000, 0.000, 14:11:37.276
75, -3750.22, -3670.48, -3670.77, -3181.79, 0.000, 0.000, 0.000, 14:11:37.291
76, -4011.03, -3739.88, -3799.11, -3276.78, 0.000, 0.000, 0.000, 14:11:37.292
77, -3922.97, -3754.62, -3743.25, -3228.58, 0.000, 0.000, 0.000, 14:11:37.292
78, -3707.45, -3710.95, -3624.72, -3144.02, 0.000, 0.000, 0.000, 14:11:37.292
79, -3770.49, -3669.27, -3663.88, -3175.79, 0.000, 0.000, 0.000, 14:11:37.321
80, -4047.16, -3745.15, -3799.76, -3259.38, 0.000, 0.000, 0.000, 14:11:37.321
81, -3895.98, -3738.29, -3733.79, -3214.63, 0.000, 0.000, 0.000, 14:11:37.322
82, -3666.17, -3700.39, -3625.16, -3130.80, 0.000, 0.000, 0.000, 14:11:37.322
83, -3762.18, -3665.03, -3670.20, -3172.39, 0.000, 0.000, 0.000, 14:11:37.336
84, -4004.31, -3728.42, -3796.95, -3263.18, 0.000, 0.000, 0.000, 14:11:37.336
85, -3903.48, -3749.61, -3741.24, -3205.50, 0.000, 0.000, 0.000, 14:11:37.344
86, -3714.63, -3716.27, -3633.81, -3125.99, 0.000, 0.000, 0.000, 14:11:37.344
87, -3794.18, -3681.30, -3666.15, -3178.47, 0.000, 0.000, 0.000, 14:11:37.351
88, -4045.41, -3753.58, -3808.73, -3300.71, 0.000, 0.000, 0.000, 14:11:37.351
89, -3897.73, -3752.86, -3743.36, -3219.88, 0.000, 0.000, 0.000, 14:11:37.365
90, -3690.16, -3704.57, -3631.58, -3128.25, 0.000, 0.000, 0.000, 14:11:37.365
91, -3759.71, -3673.66, -3663.55, -3165.08, 0.000, 0.000, 0.000, 14:11:37.366
92, -4033.62, -3737.78, -3809.22, -3264.23, 0.000, 0.000, 0.000, 14:11:37.366
93, -3912.88, -3746.63, -3744.38, -3211.03, 0.000, 0.000, 0.000, 14:11:37.381
94, -3715.93, -3709.14, -3632.66, -3134.08, 0.000, 0.000, 0.000, 14:11:37.381
95, -3790.23, -3675.28, -3665.89, -3160.54, 0.000, 0.000, 0.000, 14:11:37.382
96, -4008.73, -3745.67, -3803.00, -3263.46, 0.000, 0.000, 0.000, 14:11:37.382
97, -3884.97, -3743.93, -3736.23, -3208.54, 0.000, 0.000, 0.000, 14:11:37.396
98, -3687.52, -3705.14, -3637.27, -3136.53, 0.000, 0.000, 0.000, 14:11:37.396
99, -3782.58, -3673.08, -3667.87, -3173.31, 0.000, 0.000, 0.000, 14:11:37.412
100, -4023.19, -3745.71, -3814.19, -3267.34, 0.000, 0.000, 0.000, 14:11:37.412
101, -3932.38, -3746.71, -3753.06, -3228.71, 0.000, 0.000, 0.000, 14:11:37.412
102, -3703.35, -3704.28, -3632.47, -3122.68, 0.000, 0.000, 0.000, 14:11:37.412
103, -3772.94, -3674.59, -3663.37, -3153.89, 0.000, 0.000, 0.000, 14:11:37.426
104, -3999.01, -3734.87, -3793.72, -3267.83, 0.000, 0.000, 0.000, 14:11:37.426
105, -3905.85, -3741.37, -3750.00, -3213.46, 0.000, 0.000, 0.000, 14:11:37.441
106, -3680.90, -3700.18, -3634.16, -3132.45, 0.000, 0.000, 0.000, 14:11:37.441
107, -3775.68, -3668.36, -3668.63, -3173.17, 0.000, 0.000, 0.000, 14:11:37.442
108, -4040.20, -3731.86, -3792.85, -3264.54, 0.000, 0.000, 0.000, 14:11:37.442
109, -3907.06, -3755.45, -3745.85, -3205.41, 0.000, 0.000, 0.000, 14:11:37.456
110, -3701.94, -3714.87, -3644.45, -3120.68, 0.000, 0.000, 0.000, 14:11:37.456
111, -3787.66, -3675.75, -3684.02, -3175.56, 0.000, 0.000, 0.000, 14:11:37.486
112, -4006.01, -3733.88, -3805.81, -3271.32, 0.000, 0.000, 0.000, 14:11:37.486
113, -3888.96, -3736.64, -3735.08, -3210.46, 0.000, 0.000, 0.000, 14:11:37.487
114, -3713.67, -3703.71, -3630.71, -3133.02, 0.000, 0.000, 0.000, 14:11:37.487
115, -3800.43, -3674.19, -3676.27, -3174.48, 0.000, 0.000, 0.000, 14:11:37.487
116, -4009.92, -3745.33, -3802.29, -3257.15, 0.000, 0.000, 0.000, 14:11:37.487
117, -3905.24, -3748.58, -3750.24, -3202.27, 0.000, 0.000, 0.000, 14:11:37.488
118, -3688.29, -3702.13, -3641.26, -3126.03, 0.000, 0.000, 0.000, 14:11:37.488
119, -3770.81, -3681.44, -3677.09, -3172.34, 0.000, 0.000, 0.000, 14:11:37.500
120, -4013.95, -3739.48, -3812.76, -3259.02, 0.000, 0.000, 0.000, 14:11:37.501
121, -3911.64, -3751.49, -3744.21, -3208.08, 0.000, 0.000, 0.000, 14:11:37.516
122, -3703.97, -3708.37, -3620.02, -3109.25, 0.000, 0.000, 0.000, 14:11:37.516
123, -3785.05, -3667.31, -3663.30, -3172.12, 0.000, 0.000, 0.000, 14:11:37.531
124, -4027.88, -3734.20, -3796.24, -3264.88, 0.000, 0.000, 0.000, 14:11:37.531
125, -3894.26, -3744.11, -3739.31, -3196.11, 0.000, 0.000, 0.000, 14:11:37.531
126, -3689.35, -3712.46, -3632.72, -3125.50, 0.000, 0.000, 0.000, 14:11:37.531
127, -3758.74, -3675.86, -3668.38, -3156.77, 0.000, 0.000, 0.000, 14:11:37.545
128, -3998.61, -3738.41, -3812.71, -3292.08, 0.000, 0.000, 0.000, 14:11:37.546
129, -3898.16, -3751.31, -3761.36, -3219.15, 0.000, 0.000, 0.000, 14:11:37.562
130, -3712.55, -3708.05, -3630.27, -3121.17, 0.000, 0.000, 0.000, 14:11:37.562
131, -3761.76, -3670.44, -3660.27, -3150.51, 0.000, 0.000, 0.000, 14:11:37.576
132, -4003.91, -3741.13, -3803.94, -3243.07, 0.000, 0.000, 0.000, 14:11:37.576
133, -3926.22, -3746.83, -3749.62, -3199.91, 0.000, 0.000, 0.000, 14:11:37.576
134, -3708.20, -3706.45, -3630.64, -3116.21, 0.000, 0.000, 0.000, 14:11:37.576
135, -3774.24, -3672.97, -3675.66, -3162.41, 0.000, 0.000, 0.000, 14:11:37.591
136, -4012.18, -3730.08, -3806.24, -3260.08, 0.000, 0.000, 0.000, 14:11:37.593
137, -3899.95, -3753.27, -3757.88, -3217.26, 0.000, 0.000, 0.000, 14:11:37.606
138, -3697.01, -3706.35, -3627.70, -3120.48, 0.000, 0.000, 0.000, 14:11:37.607
139, -3766.73, -3682.92, -3681.36, -3157.76, 0.000, 0.000, 0.000, 14:11:37.607
140, -4006.65, -3739.13, -3794.68, -3235.25, 0.000, 0.000, 0.000, 14:11:37.607
141, -3945.73, -3748.02, -3745.81, -3194.88, 0.000, 0.000, 0.000, 14:11:37.621
142, -3698.16, -3704.97, -3638.54, -3136.13, 0.000, 0.000, 0.000, 14:11:37.621
143, -3793.78, -3682.47, -3679.40, -3176.36, 0.000, 0.000, 0.000, 14:11:37.622
144, -4012.27, -3736.87, -3806.11, -3262.40, 0.000, 0.000, 0.000, 14:11:37.622
145, -3919.01, -3742.46, -3755.90, -3212.98, 0.000, 0.000, 0.000, 14:11:37.636
146, -3694.17, -3705.05, -3626.65, -3132.23, 0.000, 0.000, 0.000, 14:11:37.636
147, -3763.37, -3683.90, -3679.21, -3171.68, 0.000, 0.000, 0.000, 14:11:37.650
148, -4015.19, -3732.10, -3810.17, -3253.79, 0.000, 0.000, 0.000, 14:11:37.650
149, -3897.04, -3746.06, -3751.70, -3218.69, 0.000, 0.000, 0.000, 14:11:37.651
150, -3703.80, -3714.07, -3639.97, -3150.52, 0.000, 0.000, 0.000, 14:11:37.651
151, -3789.63, -3686.15, -3681.06, -3199.45, 0.000, 0.000, 0.000, 14:11:37.666
152, -4001.59, -3741.67, -3804.99, -3273.98, 0.000, 0.000, 0.000, 14:11:37.666
153, -3913.43, -3754.12, -3756.02, -3224.98, 0.000, 0.000, 0.000, 14:11:37.681
154, -3684.41, -3699.72, -3633.61, -3134.37, 0.000, 0.000, 0.000, 14:11:37.681
155, -3795.40, -3670.58, -3666.85, -3193.44, 0.000, 0.000, 0.000, 14:11:37.696
156, -4017.88, -3736.56, -3799.42, -3275.22, 0.000, 0.000, 0.000, 14:11:37.696
157, -3916.24, -3746.78, -3753.99, -3221.51, 0.000, 0.000, 0.000, 14:11:37.696
158, -3703.44, -3701.52, -3624.95, -3126.17, 0.000, 0.000, 0.000, 14:11:37.696
159, -3794.79, -3672.84, -3667.58, -3162.25, 0.000, 0.000, 0.000, 14:11:37.712
160, -4005.55, -3741.87, -3797.80, -3273.07, 0.000, 0.000, 0.000, 14:11:37.712
161, -3887.85, -3752.24, -3738.72, -3227.29, 0.000, 0.000, 0.000, 14:11:37.712
162, -3698.44, -3708.12, -3642.29, -3135.69, 0.000, 0.000, 0.000, 14:11:37.712
163, -3786.86, -3673.42, -3680.13, -3183.10, 0.000, 0.000, 0.000, 14:11:37.727
164, -4037.10, -3740.85, -3802.22, -3261.98, 0.000, 0.000, 0.000, 14:11:37.727
165, -3910.62, -3735.19, -3743.72, -3211.57, 0.000, 0.000, 0.000, 14:11:37.742
166, -3695.06, -3695.65, -3627.31, -3119.59, 0.000, 0.000, 0.000, 14:11:37.742
167, -3758.88, -3673.16, -3679.90, -3158.33, 0.000, 0.000, 0.000, 14:11:37.756
168, -4006.86, -3748.74, -3812.70, -3282.49, 0.000, 0.000, 0.000, 14:11:37.757
169, -3908.73, -3762.72, -3742.27, -3211.08, 0.000, 0.000, 0.000, 14:11:37.757
170, -3699.65, -3700.59, -3629.42, -3123.44, 0.000, 0.000, 0.000, 14:11:37.757
171, -3800.88, -3684.07, -3694.91, -3169.02, 0.000, 0.000, 0.000, 14:11:37.771
172, -4034.15, -3743.44, -3815.45, -3262.21, 0.000, 0.000, 0.000, 14:11:37.771
173, -3914.64, -3746.83, -3744.12, -3193.98, 0.000, 0.000, 0.000, 14:11:37.779
174, -3691.85, -3706.78, -3627.15, -3118.81, 0.000, 0.000, 0.000, 14:11:37.779
175, -3779.38, -3673.85, -3669.71, -3166.25, 0.000, 0.000, 0.000, 14:11:37.786
176, -4020.38, -3734.28, -3806.65, -3250.92, 0.000, 0.000, 0.000, 14:11:37.786
177, -3907.59, -3752.65, -3753.81, -3206.16, 0.000, 0.000, 0.000, 14:11:37.801
178, -3704.16, -3703.05, -3628.97, -3114.73, 0.000, 0.000, 0.000, 14:11:37.801
179, -3792.68, -3688.31, -3677.29, -3172.99, 0.000, 0.000, 0.000, 14:11:37.816
180, -4034.75, -3737.15, -3797.07, -3273.64, 0.000, 0.000, 0.000, 14:11:37.816
181, -3886.24, -3736.12, -3739.45, -3201.05, 0.000, 0.000, 0.000, 14:11:37.816
182, -3684.73, -3701.65, -3636.98, -3127.31, 0.000, 0.000, 0.000, 14:11:37.816
183, -3767.11, -3665.29, -3678.95, -3165.74, 0.000, 0.000, 0.000, 14:11:37.830
184, -4027.59, -3747.00, -3815.02, -3273.19, 0.000, 0.000, 0.000, 14:11:37.830
185, -3900.33, -3741.65, -3735.06, -3212.89, 0.000, 0.000, 0.000, 14:11:37.831
186, -3700.52, -3709.23, -3631.18, -3130.74, 0.000, 0.000, 0.000, 14:11:37.831
187, -3780.11, -3682.64, -3673.88, -3183.69, 0.000, 0.000, 0.000, 14:11:37.846
188, -4026.69, -3746.97, -3812.36, -3272.04, 0.000, 0.000, 0.000, 14:11:37.846
189, -3913.50, -3743.08, -3743.10, -3220.76, 0.000, 0.000, 0.000, 14:11:37.862
190, -3693.68, -3703.75, -3645.48, -3144.42, 0.000, 0.000, 0.000, 14:11:37.862
191, -3794.04, -3679.16, -3682.90, -3195.71, 0.000, 0.000, 0.000, 14:11:37.862
192, -4013.25, -3734.97, -3803.46, -3269.43, 0.000, 0.000, 0.000, 14:11:37.862
193, -3905.64, -3744.78, -3747.61, -3204.97, 0.000, 0.000, 0.000, 14:11:37.891
194, -3674.92, -3699.66, -3623.18, -3113.40, 0.000, 0.000, 0.000, 14:11:37.891
195, -3784.13, -3673.80, -3682.05, -3174.72, 0.000, 0.000, 0.000, 14:11:37.892
196, -4019.47, -3744.86, -3802.24, -3280.66, 0.000, 0.000, 0.000, 14:11:37.892
197, -3890.82, -3749.71, -3742.16, -3199.23, 0.000, 0.000, 0.000, 14:11:37.892
198, -3694.28, -3716.52, -3628.51, -3128.39, 0.000, 0.000, 0.000, 14:11:37.892
199, -3792.92, -3687.90, -3680.66, -3189.98, 0.000, 0.000, 0.000, 14:11:37.921
200, -4022.93, -3761.45, -3804.08, -3255.07, 0.000, 0.000, 0.000, 14:11:37.921
0, -3894.86, -3777.91, -3743.01, -3199.90, 0.000, 0.000, 0.000, 14:11:37.921
1, -3686.29, -3714.11, -3626.85, -3109.21, 0.000, 0.000, 0.000, 14:11:37.923
2, -3762.06, -3666.36, -3678.55, -3185.91, 0.000, 0.000, 0.000, 14:11:37.923
3, -3979.30, -3768.65, -3786.47, -3253.07, 0.000, 0.000, 0.000, 14:11:37.936
4, -3855.16, -3748.05, -3735.97, -3189.53, 0.000, 0.000, 0.000, 14:11:37.936
5, -3652.02, -3724.49, -3621.35, -3096.95, 0.000, 0.000, 0.000, 14:11:37.936
6, -3716.32, -3704.25, -3655.79, -3157.72, 0.000, 0.000, 0.000, 14:11:37.936
7, -3917.98, -3773.79, -3784.89, -3259.79, 0.000, 0.000, 0.000, 14:11:37.951
8, -3807.10, -3790.05, -3718.60, -3197.55, 0.000, 0.000, 0.000, 14:11:37.951
9, -3596.98, -3762.69, -3605.34, -3123.07, 0.000, 0.000, 0.000, 14:11:37.966
10, -3674.54, -3743.38, -3675.55, -3171.24, 0.000, 0.000, 0.000, 14:11:37.966
11, -3915.10, -3796.78, -3790.70, -3256.83, 0.000, 0.000, 0.000, 14:11:37.966
12, -3817.09, -3802.51, -3738.73, -3201.29, 0.000, 0.000, 0.000, 14:11:37.966
13, -3671.98, -3748.53, -3625.29, -3118.84, 0.000, 0.000, 0.000, 14:11:37.981
14, -3744.30, -3703.14, -3668.93, -3158.30, 0.000, 0.000, 0.000, 14:11:37.981
15, -3975.20, -3761.06, -3790.41, -3259.47, 0.000, 0.000, 0.000, 14:11:37.995
16, -3860.03, -3764.41, -3745.27, -3236.43, 0.000, 0.000, 0.000, 14:11:37.996
17, -3690.00, -3716.07, -3634.02, -3136.12, 0.000, 0.000, 0.000, 14:11:37.996
18, -3794.48, -3679.58, -3683.04, -3163.53, 0.000, 0.000, 0.000, 14:11:37.996
19, -4015.93, -3735.03, -3801.31, -3252.92, 0.000, 0.000, 0.000, 14:11:38.011
20, -3955.30, -3742.03, -3752.21, -3211.35, 0.000, 0.000, 0.000, 14:11:38.011
21, -3713.60, -3699.74, -3635.89, -3120.65, 0.000, 0.000, 0.000, 14:11:38.026
22, -3817.71, -3665.69, -3689.36, -3172.11, 0.000, 0.000, 0.000, 14:11:38.026
23, -4054.87, -3723.81, -3822.69, -3274.12, 0.000, 0.000, 0.000, 14:11:38.026
24, -3923.47, -3727.50, -3750.77, -3218.45, 0.000, 0.000, 0.000, 14:11:38.026
25, -3733.87, -3685.00, -3638.62, -3133.03, 0.000, 0.000, 0.000, 14:11:38.041
26, -3838.65, -3670.44, -3693.87, -3194.90, 0.000, 0.000, 0.000, 14:11:38.041
27, -4065.46, -3719.60, -3810.31, -3269.27, 0.000, 0.000, 0.000, 14:11:38.055
28, -3948.51, -3725.09, -3751.56, -3217.31, 0.000, 0.000, 0.000, 14:11:38.056
29, -3738.79, -3687.53, -3639.80, -3129.94, 0.000, 0.000, 0.000, 14:11:38.056
30, -3820.71, -3660.12, -3689.79, -3181.57, 0.000, 0.000, 0.000, 14:11:38.056
31, -4049.86, -3721.53, -3815.80, -3272.13, 0.000, 0.000, 0.000, 14:11:38.070
32, -3955.36, -3732.60, -3750.33, -3216.83, 0.000, 0.000, 0.000, 14:11:38.070
33, -3729.87, -3680.68, -3629.64, -3102.97, 0.000, 0.000, 0.000, 14:11:38.086
34, -3799.53, -3668.57, -3683.41, -3181.09, 0.000, 0.000, 0.000, 14:11:38.086
35, -4043.82, -3724.12, -3797.51, -3258.95, 0.000, 0.000, 0.000, 14:11:38.087
36, -3944.72, -3727.96, -3749.22, -3206.01, 0.000, 0.000, 0.000, 14:11:38.087
37, -3710.18, -3686.99, -3637.70, -3128.06, 0.000, 0.000, 0.000, 14:11:38.131
38, -3805.93, -3660.34, -3672.58, -3184.83, 0.000, 0.000, 0.000, 14:11:38.131
39, -4061.64, -3739.63, -3812.23, -3287.70, 0.000, 0.000, 0.000, 14:11:38.132
40, -3936.90, -3745.54, -3753.00, -3211.57, 0.000, 0.000, 0.000, 14:11:38.132
41, -3738.59, -3689.37, -3630.17, -3124.42, 0.000, 0.000, 0.000, 14:11:38.132
42, -3822.20, -3666.50, -3689.99, -3188.13, 0.000, 0.000, 0.000, 14:11:38.132
43, -4017.75, -3731.43, -3812.48, -3272.58, 0.000, 0.000, 0.000, 14:11:38.133
44, -3903.26, -3732.73, -3742.57, -3208.90, 0.000, 0.000, 0.000, 14:11:38.133
45, -3690.74, -3689.13, -3632.54, -3123.59, 0.000, 0.000, 0.000, 14:11:38.134
46, -3789.76, -3666.20, -3680.77, -3179.28, 0.000, 0.000, 0.000, 14:11:38.134
47, -4008.84, -3734.97, -3815.41, -3272.97, 0.000, 0.000, 0.000, 14:11:38.146
48, -3918.49, -3741.40, -3745.91, -3212.82, 0.000, 0.000, 0.000, 14:11:38.146
49, -3716.76, -3701.70, -3633.80, -3121.71, 0.000, 0.000, 0.000, 14:11:38.161
50, -3809.94, -3667.39, -3673.40, -3176.44, 0.000, 0.000, 0.000, 14:11:38.162
51, -4044.49, -3733.44, -3801.29, -3270.32, 0.000, 0.000, 0.000, 14:11:38.176
52, -3900.55, -3746.73, -3749.00, -3203.95, 0.000, 0.000, 0.000, 14:11:38.176
53, -3662.05, -3690.40, -3628.28, -3111.88, 0.000, 0.000, 0.000, 14:11:38.176
54, -3771.80, -3660.44, -3672.82, -3158.50, 0.000, 0.000, 0.000, 14:11:38.176
55, -4037.93, -3734.81, -3801.74, -3270.28, 0.000, 0.000, 0.000, 14:11:38.192
56, -3919.74, -3758.00, -3742.01, -3235.66, 0.000, 0.000, 0.000, 14:11:38.192
57, -3672.91, -3688.37, -3615.14, -3110.55, 0.000, 0.000, 0.000, 14:11:38.206
58, -3791.55, -3658.31, -3661.29, -3162.57, 0.000, 0.000, 0.000, 14:11:38.206
59, -4012.48, -3727.50, -3790.72, -3253.08, 0.000, 0.000, 0.000, 14:11:38.207
60, -3886.21, -3726.81, -3730.08, -3191.04, 0.000, 0.000, 0.000, 14:11:38.207
61, -3686.52, -3676.61, -3610.97, -3081.66, 0.000, 0.000, 0.000, 14:11:38.251
62, -3771.93, -3655.46, -3668.14, -3150.42, 0.000, 0.000, 0.000, 14:11:38.251
63, -3979.95, -3712.99, -3793.78, -3243.04, 0.000, 0.000, 0.000, 14:11:38.252
64, -3874.76, -3719.16, -3714.23, -3172.08, 0.000, 0.000, 0.000, 14:11:38.252
65, -3663.44, -3677.89, -3603.28, -3083.41, 0.000, 0.000, 0.000, 14:11:38.252
66, -3774.47, -3652.09, -3653.55, -3148.98, 0.000, 0.000, 0.000, 14:11:38.252
67, -3979.88, -3708.60, -3775.61, -3228.80, 0.000, 0.000, 0.000, 14:11:38.253
68, -3881.51, -3704.58, -3708.12, -3152.74, 0.000, 0.000, 0.000, 14:11:38.253
69, -3692.82, -3667.51, -3594.11, -3072.91, 0.000, 0.000, 0.000, 14:11:38.254
70, -3793.23, -3647.79, -3657.08, -3154.60, 0.000, 0.000, 0.000, 14:11:38.254
71, -3960.17, -3700.08, -3757.35, -3235.47, 0.000, 0.000, 0.000, 14:11:38.266
72, -3856.06, -3706.20, -3698.07, -3173.23, 0.000, 0.000, 0.000, 14:11:38.266
73, -3663.13, -3666.47, -3594.48, -3092.46, 0.000, 0.000, 0.000, 14:11:38.287
74, -3755.36, -3654.56, -3649.55, -3141.38, 0.000, 0.000, 0.000, 14:11:38.287
75, -4000.33, -3711.61, -3775.23, -3243.84, 0.000, 0.000, 0.000, 14:11:38.312
76, -3865.49, -3699.71, -3697.02, -3171.35, 0.000, 0.000, 0.000, 14:11:38.312
77, -3650.03, -3661.21, -3593.57, -3080.61, 0.000, 0.000, 0.000, 14:11:38.312
78, -3747.94, -3637.60, -3639.48, -3154.38, 0.000, 0.000, 0.000, 14:11:38.312
79, -3988.61, -3699.36, -3760.52, -3247.89, 0.000, 0.000, 0.000, 14:11:38.326
80, -3891.56, -3712.37, -3703.83, -3199.90, 0.000, 0.000, 0.000, 14:11:38.327
81, -3680.62, -3667.22, -3584.31, -3096.37, 0.000, 0.000, 0.000, 14:11:38.341
82, -3771.38, -3642.04, -3640.14, -3157.52, 0.000, 0.000, 0.000, 14:11:38.341
83, -3998.79, -3705.36, -3761.42, -3249.20, 0.000, 0.000, 0.000, 14:11:38.341
84, -3871.50, -3718.48, -3711.18, -3188.97, 0.000, 0.000, 0.000, 14:11:38.342
85, -3676.42, -3677.20, -3596.36, -3096.37, 0.000, 0.000, 0.000, 14:11:38.342
86, -3786.97, -3641.10, -3642.48, -3150.80, 0.000, 0.000, 0.000, 14:11:38.342
87, -3988.31, -3709.75, -3770.89, -3267.18, 0.000, 0.000, 0.000, 14:11:38.371
88, -3862.62, -3708.91, -3710.56, -3189.41, 0.000, 0.000, 0.000, 14:11:38.371
89, -3680.68, -3677.86, -3595.51, -3104.68, 0.000, 0.000, 0.000, 14:11:38.371
90, -3778.23, -3648.81, -3658.55, -3176.80, 0.000, 0.000, 0.000, 14:11:38.371
91, -4002.52, -3705.25, -3758.99, -3252.01, 0.000, 0.000, 0.000, 14:11:38.372
92, -3865.49, -3717.16, -3707.86, -3195.67, 0.000, 0.000, 0.000, 14:11:38.372
93, -3662.93, -3665.87, -3591.24, -3104.47, 0.000, 0.000, 0.000, 14:11:38.373
94, -3789.23, -3638.12, -3639.79, -3187.49, 0.000, 0.000, 0.000, 14:11:38.373
95, -3980.17, -3698.01, -3768.67, -3245.86, 0.000, 0.000, 0.000, 14:11:38.386
96, -3854.23, -3712.48, -3721.46, -3195.55, 0.000, 0.000, 0.000, 14:11:38.386
97, -3675.03, -3672.91, -3595.42, -3104.73, 0.000, 0.000, 0.000, 14:11:38.400
98, -3775.43, -3650.27, -3648.47, -3167.26, 0.000, 0.000, 0.000, 14:11:38.400
99, -4005.00, -3710.07, -3774.29, -3258.87, 0.000, 0.000, 0.000, 14:11:38.415
100, -3895.06, -3732.57, -3718.16, -3208.43, 0.000, 0.000, 0.000, 14:11:38.415
101, -3689.74, -3673.44, -3599.10, -3097.59, 0.000, 0.000, 0.000, 14:11:38.446
102, -3790.52, -3645.56, -3654.27, -3177.12, 0.000, 0.000, 0.000, 14:11:38.446
103, -4005.03, -3718.77, -3771.41, -3262.99, 0.000, 0.000, 0.000, 14:11:38.447
104, -3882.79, -3728.62, -3726.27, -3206.61, 0.000, 0.000, 0.000, 14:11:38.447
105, -3700.73, -3689.72, -3609.62, -3106.58, 0.000, 0.000, 0.000, 14:11:38.447
106, -3755.77, -3652.32, -3661.89, -3161.71, 0.000, 0.000, 0.000, 14:11:38.447
107, -4001.78, -3717.16, -3781.21, -3247.95, 0.000, 0.000, 0.000, 14:11:38.448
108, -3894.29, -3729.71, -3718.83, -3190.32, 0.000, 0.000, 0.000, 14:11:38.448
109, -3700.00, -3689.20, -3609.04, -3101.37, 0.000, 0.000, 0.000, 14:11:38.477
110, -3792.02, -3664.45, -3667.23, -3167.00, 0.000, 0.000, 0.000, 14:11:38.477
111, -3995.94, -3716.41, -3773.60, -3242.50, 0.000, 0.000, 0.000, 14:11:38.478
112, -3892.57, -3736.75, -3722.07, -3211.16, 0.000, 0.000, 0.000, 14:11:38.478
113, -3694.74, -3690.75, -3613.79, -3097.05, 0.000, 0.000, 0.000, 14:11:38.479
114, -3771.19, -3662.47, -3667.09, -3175.84, 0.000, 0.000, 0.000, 14:11:38.479
115, -4001.59, -3716.01, -3781.09, -3268.08, 0.000, 0.000, 0.000, 14:11:38.492
116, -3908.57, -3734.39, -3715.88, -3195.85, 0.000, 0.000, 0.000, 14:11:38.492
117, -3706.22, -3706.15, -3622.69, -3106.88, 0.000, 0.000, 0.000, 14:11:38.506
118, -3776.98, -3660.00, -3672.83, -3166.28, 0.000, 0.000, 0.000, 14:11:38.506
119, -4006.73, -3714.66, -3777.99, -3258.08, 0.000, 0.000, 0.000, 14:11:38.506
120, -3883.15, -3742.47, -3726.17, -3191.04, 0.000, 0.000, 0.000, 14:11:38.506
121, -3687.99, -3707.28, -3636.71, -3113.93, 0.000, 0.000, 0.000, 14:11:38.521
122, -3785.26, -3668.30, -3671.12, -3173.98, 0.000, 0.000, 0.000, 14:11:38.521
123, -4007.63, -3717.51, -3777.21, -3256.99, 0.000, 0.000, 0.000, 14:11:38.566
124, -3915.96, -3738.12, -3729.48, -3212.96, 0.000, 0.000, 0.000, 14:11:38.566
125, -3680.98, -3694.29, -3620.43, -3156.02, 0.000, 0.000, 0.000, 14:11:38.566
126, -3811.27, -3661.09, -3676.54, -3231.89, 0.000, 0.000, 0.000, 14:11:38.567
127, -4005.57, -3727.52, -3788.38, -3324.31, 0.000, 0.000, 0.000, 14:11:38.567
128, -3888.84, -3732.41, -3730.33, -3249.64, 0.000, 0.000, 0.000, 14:11:38.567
129, -3720.76, -3707.26, -3629.98, -3157.85, 0.000, 0.000, 0.000, 14:11:38.568
130, -3799.25, -3669.52, -3671.69, -3203.78, 0.000, 0.000, 0.000, 14:11:38.568
131, -4005.18, -3725.28, -3785.35, -3269.08, 0.000, 0.000, 0.000, 14:11:38.569
132, -3886.49, -3736.07, -3734.88, -3176.29, 0.000, 0.000, 0.000, 14:11:38.569
133, -3673.36, -3700.00, -3625.19, -3081.83, 0.000, 0.000, 0.000, 14:11:38.595
134, -3797.95, -3667.85, -3691.57, -3150.32, 0.000, 0.000, 0.000, 14:11:38.596
135, -4023.00, -3727.05, -3792.05, -3231.78, 0.000, 0.000, 0.000, 14:11:38.596
136, -3898.61, -3739.11, -3735.86, -3183.57, 0.000, 0.000, 0.000, 14:11:38.596
137, -3683.00, -3709.37, -3623.56, -3084.27, 0.000, 0.000, 0.000, 14:11:38.597
138, -3810.89, -3690.85, -3691.68, -3169.84, 0.000, 0.000, 0.000, 14:11:38.597
139, -4043.22, -3730.45, -3788.23, -3249.70, 0.000, 0.000, 0.000, 14:11:38.612
140, -3882.10, -3741.56, -3734.35, -3185.98, 0.000, 0.000, 0.000, 14:11:38.612
141, -3682.87, -3698.25, -3627.20, -3077.18, 0.000, 0.000, 0.000, 14:11:38.626
142, -3801.88, -3662.95, -3679.26, -3157.06, 0.000, 0.000, 0.000, 14:11:38.626
143, -3999.67, -3722.84, -3787.15, -3247.48, 0.000, 0.000, 0.000, 14:11:38.627
144, -3906.00, -3747.07, -3739.15, -3195.39, 0.000, 0.000, 0.000, 14:11:38.627
145, -3687.03, -3707.22, -3628.28, -3108.28, 0.000, 0.000, 0.000, 14:11:38.641
146, -3805.53, -3674.25, -3676.01, -3154.20, 0.000, 0.000, 0.000, 14:11:38.641
147, -4012.51, -3727.89, -3789.12, -3249.43, 0.000, 0.000, 0.000, 14:11:38.656
148, -3909.65, -3754.34, -3749.69, -3191.51, 0.000, 0.000, 0.000, 14:11:38.656
149, -3681.39, -3711.65, -3638.64, -3107.28, 0.000, 0.000, 0.000, 14:11:38.657
150, -3799.69, -3656.12, -3675.48, -3163.64, 0.000, 0.000, 0.000, 14:11:38.657
151, -4012.48, -3722.55, -3779.18, -3257.60, 0.000, 0.000, 0.000, 14:11:38.671
152, -3883.90, -3738.34, -3720.85, -3186.20, 0.000, 0.000, 0.000, 14:11:38.671
153, -3689.20, -3701.87, -3616.58, -3097.62, 0.000, 0.000, 0.000, 14:11:38.685
154, -3782.31, -3667.51, -3666.29, -3171.62, 0.000, 0.000, 0.000, 14:11:38.686
155, -4027.00, -3721.78, -3783.07, -3249.40, 0.000, 0.000, 0.000, 14:11:38.686
156, -3895.95, -3734.18, -3727.29, -3192.82, 0.000, 0.000, 0.000, 14:11:38.686
157, -3680.96, -3707.45, -3616.89, -3111.02, 0.000, 0.000, 0.000, 14:11:38.716
158, -3792.21, -3666.00, -3669.34, -3167.52, 0.000, 0.000, 0.000, 14:11:38.716
159, -4026.82, -3721.72, -3776.11, -3256.59, 0.000, 0.000, 0.000, 14:11:38.717
160, -3891.44, -3736.53, -3721.03, -3202.79, 0.000, 0.000, 0.000, 14:11:38.717
161, -3736.63, -3708.84, -3630.09, -3106.78, 0.000, 0.000, 0.000, 14:11:38.717
162, -3810.60, -3671.70, -3681.12, -3172.50, 0.000, 0.000, 0.000, 14:11:38.717
163, -4009.38, -3717.53, -3780.72, -3265.55, 0.000, 0.000, 0.000, 14:11:38.746
164, -3880.15, -3745.21, -3729.77, -3208.01, 0.000, 0.000, 0.000, 14:11:38.746
165, -3687.06, -3714.27, -3626.03, -3107.35, 0.000, 0.000, 0.000, 14:11:38.746
166, -3810.95, -3666.53, -3678.15, -3183.57, 0.000, 0.000, 0.000, 14:11:38.746
167, -4016.73, -3715.03, -3770.37, -3266.25, 0.000, 0.000, 0.000, 14:11:38.747
168, -3910.14, -3745.07, -3727.68, -3201.25, 0.000, 0.000, 0.000, 14:11:38.747
169, -3703.00, -3711.76, -3631.47, -3115.60, 0.000, 0.000, 0.000, 14:11:38.762
170, -3814.37, -3668.15, -3682.24, -3197.74, 0.000, 0.000, 0.000, 14:11:38.762
171, -4019.75, -3725.67, -3782.91, -3260.54, 0.000, 0.000, 0.000, 14:11:38.791
172, -3901.57, -3735.10, -3723.76, -3190.14, 0.000, 0.000, 0.000, 14:11:38.792
173, -3686.09, -3705.18, -3621.12, -3112.05, 0.000, 0.000, 0.000, 14:11:38.792
174, -3799.28, -3672.23, -3668.59, -3186.19, 0.000, 0.000, 0.000, 14:11:38.792
175, -3988.41, -3720.68, -3779.98, -3285.26, 0.000, 0.000, 0.000, 14:11:38.793
176, -3899.31, -3740.94, -3727.65, -3202.62, 0.000, 0.000, 0.000, 14:11:38.793
177, -3689.88, -3714.59, -3623.54, -3117.68, 0.000, 0.000, 0.000, 14:11:38.794
178, -3802.47, -3670.02, -3673.44, -3186.25, 0.000, 0.000, 0.000, 14:11:38.794
179, -4021.36, -3723.87, -3781.31, -3291.04, 0.000, 0.000, 0.000, 14:11:38.806
180, -3900.54, -3741.06, -3723.76, -3205.32, 0.000, 0.000, 0.000, 14:11:38.806
181, -3687.50, -3713.12, -3631.38, -3106.18, 0.000, 0.000, 0.000, 14:11:38.820
182, -3801.78, -3672.52, -3668.55, -3194.51, 0.000, 0.000, 0.000, 14:11:38.820
183, -4005.25, -3741.95, -3772.96, -3272.27, 0.000, 0.000, 0.000, 14:11:38.836
184, -3863.08, -3770.45, -3701.10, -3189.24, 0.000, 0.000, 0.000, 14:11:38.836
185, -3668.75, -3745.78, -3611.12, -3104.18, 0.000, 0.000, 0.000, 14:11:38.836
186, -3770.64, -3683.99, -3669.10, -3205.46, 0.000, 0.000, 0.000, 14:11:38.836
187, -4015.79, -3789.06, -3783.94, -3272.79, 0.000, 0.000, 0.000, 14:11:38.865
188, -3866.72, -3762.32, -3735.26, -3186.53, 0.000, 0.000, 0.000, 14:11:38.865
189, -3636.34, -3740.11, -3621.91, -3092.67, 0.000, 0.000, 0.000, 14:11:38.866
190, -3729.64, -3674.26, -3662.13, -3161.15, 0.000, 0.000, 0.000, 14:11:38.866
191, -3926.44, -3762.60, -3775.24, -3227.63, 0.000, 0.000, 0.000, 14:11:38.867
192, -3725.95, -3796.55, -3727.47, -3136.74, 0.000, 0.000, 0.000, 14:11:38.867
193, -3520.43, -3807.26, -3641.77, -3053.43, 0.000, 0.000, 0.000, 14:11:38.881
194, -3634.54, -3779.56, -3715.36, -3129.37, 0.000, 0.000, 0.000, 14:11:38.881
195, -3833.13, -3819.57, -3804.90, -3181.34, 0.000, 0.000, 0.000, 14:11:38.896
196, -3724.36, -3838.20, -3755.02, -3110.28, 0.000, 0.000, 0.000, 14:11:38.896
197, -3513.62, -3813.88, -3666.28, -3017.84, 0.000, 0.000, 0.000, 14:11:38.896
198, -3658.15, -3747.72, -3709.99, -3084.44, 0.000, 0.000, 0.000, 14:11:38.896
199, -3881.03, -3783.31, -3829.80, -3163.56, 0.000, 0.000, 0.000, 14:11:38.911
200, -3798.38, -3800.14, -3784.36, -3089.74, 0.000, 0.000, 0.000, 14:11:38.911
0, -3629.80, -3773.36, -3714.96, -3020.98, 0.000, 0.000, 0.000, 14:11:38.911
1, -3744.18, -3694.56, -3743.73, -3096.96, 0.000, 0.000, 0.000, 14:11:38.926
2, -3990.70, -3752.71, -3856.21, -3189.55, 0.000, 0.000, 0.000, 14:11:38.926
3, -3907.48, -3769.62, -3814.95, -3119.56, 0.000, 0.000, 0.000, 14:11:38.942
4, -3710.86, -3739.94, -3727.01, -3048.75, 0.000, 0.000, 0.000, 14:11:38.942
5, -3833.03, -3685.06, -3765.19, -3130.92, 0.000, 0.000, 0.000, 14:11:38.942
6, -4011.01, -3718.51, -3855.10, -3189.35, 0.000, 0.000, 0.000, 14:11:38.942
7, -3904.72, -3753.10, -3816.26, -3128.61, 0.000, 0.000, 0.000, 14:11:38.956
8, -3730.51, -3725.71, -3725.11, -3038.51, 0.000, 0.000, 0.000, 14:11:38.956
9, -3845.29, -3667.81, -3750.32, -3114.71, 0.000, 0.000, 0.000, 14:11:39.001
10, -4023.75, -3710.33, -3835.72, -3184.14, 0.000, 0.000, 0.000, 14:11:39.001
11, -3946.38, -3744.80, -3812.59, -3143.58, 0.000, 0.000, 0.000, 14:11:39.001
12, -3749.20, -3735.11, -3726.58, -3071.56, 0.000, 0.000, 0.000, 14:11:39.001
13, -3862.90, -3654.62, -3733.42, -3122.57, 0.000, 0.000, 0.000, 14:11:39.002
14, -4040.97, -3705.72, -3827.27, -3225.27, 0.000, 0.000, 0.000, 14:11:39.002
15, -3933.97, -3745.39, -3797.37, -3176.26, 0.000, 0.000, 0.000, 14:11:39.003
16, -3743.12, -3728.01, -3703.69, -3082.20, 0.000, 0.000, 0.000, 14:11:39.003
17, -3858.07, -3666.08, -3723.58, -3154.73, 0.000, 0.000, 0.000, 14:11:39.003
18, -4051.02, -3711.91, -3821.38, -3252.09, 0.000, 0.000, 0.000, 14:11:39.003
19, -3940.49, -3743.44, -3772.84, -3184.96, 0.000, 0.000, 0.000, 14:11:39.030
20, -3756.58, -3721.62, -3680.32, -3119.22, 0.000, 0.000, 0.000, 14:11:39.030
21, -3835.64, -3656.65, -3702.21, -3166.28, 0.000, 0.000, 0.000, 14:11:39.031
22, -4040.90, -3711.79, -3787.19, -3244.27, 0.000, 0.000, 0.000, 14:11:39.031
23, -3942.42, -3748.15, -3763.36, -3209.71, 0.000, 0.000, 0.000, 14:11:39.031
24, -3753.07, -3723.09, -3680.51, -3111.55, 0.000, 0.000, 0.000, 14:11:39.032
25, -3850.28, -3666.73, -3702.33, -3167.47, 0.000, 0.000, 0.000, 14:11:39.046
26, -4040.25, -3703.27, -3780.21, -3258.30, 0.000, 0.000, 0.000, 14:11:39.046
27, -3906.94, -3737.05, -3754.14, -3205.27, 0.000, 0.000, 0.000, 14:11:39.061
28, -3718.72, -3736.80, -3676.76, -3118.79, 0.000, 0.000, 0.000, 14:11:39.061
29, -3833.99, -3671.10, -3701.00, -3198.57, 0.000, 0.000, 0.000, 14:11:39.062
30, -4022.75, -3717.80, -3782.85, -3280.53, 0.000, 0.000, 0.000, 14:11:39.062
31, -3907.02, -3742.10, -3747.51, -3220.01, 0.000, 0.000, 0.000, 14:11:39.076
32, -3714.86, -3728.89, -3676.76, -3145.39, 0.000, 0.000, 0.000, 14:11:39.076
33, -3845.98, -3666.86, -3691.50, -3229.75, 0.000, 0.000, 0.000, 14:11:39.091
34, -4010.23, -3703.63, -3770.42, -3305.15, 0.000, 0.000, 0.000, 14:11:39.091
35, -3905.70, -3743.83, -3736.95, -3307.29, 0.000, 0.000, 0.000, 14:11:39.091
36, -3727.50, -3724.50, -3666.33, -3204.51, 0.000, 0.000, 0.000, 14:11:39.091
37, -3827.87, -3660.31, -3677.48, -3188.94, 0.000, 0.000, 0.000, 14:11:39.121
38, -4014.80, -3707.72, -3769.51, -3232.61, 0.000, 0.000, 0.000, 14:11:39.122
39, -3901.99, -3749.05, -3741.32, -3171.58, 0.000, 0.000, 0.000, 14:11:39.122
40, -3687.21, -3720.80, -3666.18, -3082.07, 0.000, 0.000, 0.000, 14:11:39.122
41, -3811.94, -3659.16, -3673.94, -3155.76, 0.000, 0.000, 0.000, 14:11:39.122
42, -4020.95, -3718.65, -3778.26, -3234.98, 0.000, 0.000, 0.000, 14:11:39.122
43, -3896.80, -3743.39, -3736.66, -3166.12, 0.000, 0.000, 0.000, 14:11:39.135
44, -3697.13, -3731.66, -3655.27, -3097.81, 0.000, 0.000, 0.000, 14:11:39.136
45, -3828.33, -3669.15, -3683.48, -3167.96, 0.000, 0.000, 0.000, 14:11:39.151
46, -4020.60, -3719.78, -3776.38, -3235.27, 0.000, 0.000, 0.000, 14:11:39.151
47, -3897.19, -3745.84, -3734.81, -3170.69, 0.000, 0.000, 0.000, 14:11:39.151
48, -3721.72, -3733.97, -3661.56, -3096.92, 0.000, 0.000, 0.000, 14:11:39.151
49, -3814.67, -3671.40, -3682.67, -3179.59, 0.000, 0.000, 0.000, 14:11:39.166
50, -4006.68, -3721.34, -3786.56, -3249.84, 0.000, 0.000, 0.000, 14:11:39.166
51, -3899.23, -3756.89, -3752.07, -3181.93, 0.000, 0.000, 0.000, 14:11:39.180
52, -3703.94, -3730.43, -3662.02, -3104.28, 0.000, 0.000, 0.000, 14:11:39.181
53, -3818.72, -3675.94, -3690.60, -3178.55, 0.000, 0.000, 0.000, 14:11:39.181
54, -4013.81, -3716.42, -3771.72, -3249.68, 0.000, 0.000, 0.000, 14:11:39.181
55, -3903.14, -3744.94, -3750.08, -3193.30, 0.000, 0.000, 0.000, 14:11:39.197
56, -3709.47, -3726.38, -3665.94, -3097.92, 0.000, 0.000, 0.000, 14:11:39.197
57, -3817.96, -3664.77, -3690.44, -3181.49, 0.000, 0.000, 0.000, 14:11:39.227
58, -4016.30, -3718.66, -3773.84, -3236.84, 0.000, 0.000, 0.000, 14:11:39.227
59, -3899.19, -3749.72, -3746.57, -3176.44, 0.000, 0.000, 0.000, 14:11:39.228
60, -3730.99, -3738.68, -3672.31, -3127.58, 0.000, 0.000, 0.000, 14:11:39.228
61, -3813.85, -3669.39, -3689.67, -3179.39, 0.000, 0.000, 0.000, 14:11:39.228
62, -3982.75, -3700.20, -3760.72, -3232.38, 0.000, 0.000, 0.000, 14:11:39.228
63, -3869.53, -3743.62, -3743.58, -3183.50, 0.000, 0.000, 0.000, 14:11:39.241
64, -3701.22, -3732.06, -3672.16, -3103.88, 0.000, 0.000, 0.000, 14:11:39.241
65, -3788.90, -3669.03, -3685.19, -3166.61, 0.000, 0.000, 0.000, 14:11:39.241
66, -4009.05, -3715.61, -3784.80, -3262.29, 0.000, 0.000, 0.000, 14:11:39.242
67, -3890.09, -3764.94, -3755.47, -3197.48, 0.000, 0.000, 0.000, 14:11:39.255
68, -3703.68, -3732.64, -3667.94, -3100.91, 0.000, 0.000, 0.000, 14:11:39.256
69, -3813.11, -3667.62, -3683.12, -3173.41, 0.000, 0.000, 0.000, 14:11:39.271
70, -4015.47, -3711.85, -3775.25, -3241.99, 0.000, 0.000, 0.000, 14:11:39.271
71, -3886.10, -3748.78, -3743.83, -3195.88, 0.000, 0.000, 0.000, 14:11:39.272
72, -3697.90, -3743.38, -3677.02, -3118.68, 0.000, 0.000, 0.000, 14:11:39.272
73, -3826.17, -3677.21, -3694.98, -3191.16, 0.000, 0.000, 0.000, 14:11:39.286
74, -4007.27, -3729.37, -3794.15, -3259.69, 0.000, 0.000, 0.000, 14:11:39.286
75, -3883.22, -3745.15, -3748.01, -3190.77, 0.000, 0.000, 0.000, 14:11:39.301
76, -3723.04, -3744.60, -3661.90, -3111.73, 0.000, 0.000, 0.000, 14:11:39.301
77, -3816.65, -3676.11, -3690.71, -3180.34, 0.000, 0.000, 0.000, 14:11:39.301
78, -3994.25, -3725.47, -3783.11, -3245.56, 0.000, 0.000, 0.000, 14:11:39.302
79, -3883.84, -3746.45, -3742.01, -3186.99, 0.000, 0.000, 0.000, 14:11:39.316
80, -3707.74, -3743.28, -3668.92, -3127.42, 0.000, 0.000, 0.000, 14:11:39.316
81, -3825.04, -3678.25, -3704.28, -3185.67, 0.000, 0.000, 0.000, 14:11:39.330
82, -4013.37, -3727.28, -3778.38, -3253.44, 0.000, 0.000, 0.000, 14:11:39.331
83, -3871.61, -3746.95, -3754.15, -3178.54, 0.000, 0.000, 0.000, 14:11:39.346
84, -3712.28, -3733.40, -3661.71, -3111.10, 0.000, 0.000, 0.000, 14:11:39.347
85, -3817.44, -3666.07, -3677.86, -3170.52, 0.000, 0.000, 0.000, 14:11:39.347
86, -3976.43, -3712.97, -3773.45, -3236.26, 0.000, 0.000, 0.000, 14:11:39.347
87, -3882.56, -3752.77, -3739.76, -3184.77, 0.000, 0.000, 0.000, 14:11:39.361
88, -3729.20, -3749.10, -3653.65, -3121.23, 0.000, 0.000, 0.000, 14:11:39.361
89, -3818.58, -3668.47, -3684.86, -3199.19, 0.000, 0.000, 0.000, 14:11:39.362
90, -4013.64, -3722.90, -3794.82, -3259.03, 0.000, 0.000, 0.000, 14:11:39.362
91, -3892.01, -3747.89, -3740.70, -3192.67, 0.000, 0.000, 0.000, 14:11:39.376
92, -3696.76, -3733.09, -3663.54, -3124.88, 0.000, 0.000, 0.000, 14:11:39.377
93, -3810.84, -3676.11, -3709.79, -3170.15, 0.000, 0.000, 0.000, 14:11:39.392
94, -3988.96, -3711.78, -3771.96, -3248.66, 0.000, 0.000, 0.000, 14:11:39.392
95, -3888.63, -3762.66, -3746.94, -3193.37, 0.000, 0.000, 0.000, 14:11:39.392
96, -3702.16, -3721.25, -3647.45, -3103.28, 0.000, 0.000, 0.000, 14:11:39.392
97, -3838.09, -3667.90, -3690.62, -3178.49, 0.000, 0.000, 0.000, 14:11:39.421
98, -3991.28, -3712.00, -3775.47, -3243.55, 0.000, 0.000, 0.000, 14:11:39.421
99, -3890.29, -3757.07, -3748.62, -3193.99, 0.000, 0.000, 0.000, 14:11:39.421
100, -3714.28, -3738.70, -3663.10, -3120.46, 0.000, 0.000, 0.000, 14:11:39.421
101, -3827.31, -3673.62, -3703.65, -3180.08, 0.000, 0.000, 0.000, 14:11:39.422
102, -4013.22, -3721.95, -3772.89, -3254.47, 0.000, 0.000, 0.000, 14:11:39.422
103, -3879.55, -3758.54, -3739.94, -3200.77, 0.000, 0.000, 0.000, 14:11:39.435
104, -3691.37, -3724.93, -3651.41, -3108.49, 0.000, 0.000, 0.000, 14:11:39.436
105, -3816.32, -3673.30, -3685.33, -3179.04, 0.000, 0.000, 0.000, 14:11:39.450
106, -4009.63, -3720.59, -3787.02, -3246.24, 0.000, 0.000, 0.000, 14:11:39.450
107, -3918.94, -3757.73, -3744.99, -3194.27, 0.000, 0.000, 0.000, 14:11:39.451
108, -3708.34, -3730.22, -3661.94, -3101.21, 0.000, 0.000, 0.000, 14:11:39.451
109, -3816.54, -3673.29, -3695.71, -3174.49, 0.000, 0.000, 0.000, 14:11:39.466
110, -3994.75, -3726.22, -3788.25, -3235.54, 0.000, 0.000, 0.000, 14:11:39.466
111, -3882.53, -3747.87, -3743.95, -3190.03, 0.000, 0.000, 0.000, 14:11:39.481
112, -3693.97, -3732.35, -3657.46, -3120.72, 0.000, 0.000, 0.000, 14:11:39.481
113, -3835.42, -3675.74, -3684.11, -3199.44, 0.000, 0.000, 0.000, 14:11:39.481
114, -4006.86, -3710.94, -3768.53, -3257.68, 0.000, 0.000, 0.000, 14:11:39.482
115, -3857.06, -3754.49, -3740.72, -3185.21, 0.000, 0.000, 0.000, 14:11:39.496
116, -3703.65, -3733.79, -3671.56, -3094.38, 0.000, 0.000, 0.000, 14:11:39.496
