%OpenBCI Raw EEG Data
%
%Sample Rate = 200.0 Hz
%First Column = SampleIndex
%Last Column = Timestamp 
%Other Columns = EEG data in microvolts followed by Accel Data (in G) interleaved with Aux Data
0, -4117.60, -3781.35, -3838.24, -3280.06, 0.000, 0.000, 0.000, 14:09:37.868
1, -3897.36, -3759.79, -3714.68, -3181.65, 0.000, 0.000, 0.000, 14:09:37.876
2, -3665.86, -3700.37, -3576.64, -3075.67, 0.000, 0.000, 0.000, 14:09:37.876
3, -3894.48, -3665.74, -3705.64, -3188.62, 0.000, 0.000, 0.000, 14:09:37.892
4, -4076.54, -3753.54, -3814.48, -3254.86, 0.000, 0.000, 0.000, 14:09:37.892
5, -3865.34, -3744.20, -3704.61, -3163.44, 0.000, 0.000, 0.000, 14:09:37.892
6, -3647.98, -3671.02, -3546.09, -3050.63, 0.000, 0.000, 0.000, 14:09:37.892
7, -3876.02, -3646.68, -3691.49, -3174.51, 0.000, 0.000, 0.000, 14:09:37.906
8, -4036.29, -3732.64, -3782.75, -3233.67, 0.000, 0.000, 0.000, 14:09:37.906
9, -3869.01, -3726.61, -3677.98, -3143.50, 0.000, 0.000, 0.000, 14:09:37.921
10, -3633.28, -3669.96, -3543.17, -3032.32, 0.000, 0.000, 0.000, 14:09:37.921
11, -3871.29, -3641.58, -3681.35, -3172.29, 0.000, 0.000, 0.000, 14:09:37.922
12, -4038.97, -3725.32, -3772.75, -3218.46, 0.000, 0.000, 0.000, 14:09:37.922
13, -3853.76, -3720.31, -3673.27, -3151.46, 0.000, 0.000, 0.000, 14:09:37.935
14, -3613.93, -3647.39, -3521.84, -3034.11, 0.000, 0.000, 0.000, 14:09:37.935
15, -3878.55, -3641.59, -3675.75, -3155.52, 0.000, 0.000, 0.000, 14:09:37.950
16, -4018.93, -3730.03, -3771.99, -3219.49, 0.000, 0.000, 0.000, 14:09:37.950
17, -3833.26, -3716.18, -3662.68, -3119.02, 0.000, 0.000, 0.000, 14:09:37.950
18, -3601.18, -3639.03, -3508.44, -3018.33, 0.000, 0.000, 0.000, 14:09:37.951
19, -3868.31, -3638.63, -3667.04, -3159.73, 0.000, 0.000, 0.000, 14:09:37.966
20, -4005.82, -3722.60, -3763.85, -3228.23, 0.000, 0.000, 0.000, 14:09:37.966
21, -3821.82, -3718.59, -3656.61, -3129.84, 0.000, 0.000, 0.000, 14:09:37.980
22, -3606.62, -3660.86, -3523.91, -3035.06, 0.000, 0.000, 0.000, 14:09:37.980
23, -3857.46, -3627.55, -3658.09, -3153.57, 0.000, 0.000, 0.000, 14:09:37.981
24, -4041.11, -3716.14, -3771.48, -3211.68, 0.000, 0.000, 0.000, 14:09:37.981
25, -3820.81, -3698.85, -3649.49, -3108.61, 0.000, 0.000, 0.000, 14:09:38.010
26, -3588.49, -3643.44, -3512.69, -3025.75, 0.000, 0.000, 0.000, 14:09:38.010
27, -3855.29, -3617.16, -3659.84, -3151.60, 0.000, 0.000, 0.000, 14:09:38.011
28, -4014.18, -3699.73, -3744.81, -3194.89, 0.000, 0.000, 0.000, 14:09:38.011
29, -3826.34, -3714.34, -3656.62, -3127.73, 0.000, 0.000, 0.000, 14:09:38.011
30, -3584.36, -3635.00, -3513.85, -3016.15, 0.000, 0.000, 0.000, 14:09:38.011
31, -3845.48, -3630.12, -3654.84, -3152.70, 0.000, 0.000, 0.000, 14:09:38.026
32, -4012.84, -3722.44, -3748.18, -3197.01, 0.000, 0.000, 0.000, 14:09:38.026
33, -3829.76, -3713.85, -3645.91, -3118.83, 0.000, 0.000, 0.000, 14:09:38.041
34, -3598.94, -3640.73, -3521.03, -3027.48, 0.000, 0.000, 0.000, 14:09:38.041
35, -3854.36, -3623.47, -3669.62, -3145.95, 0.000, 0.000, 0.000, 14:09:38.041
36, -4028.63, -3706.21, -3756.29, -3197.05, 0.000, 0.000, 0.000, 14:09:38.041
37, -3802.57, -3708.91, -3657.07, -3124.78, 0.000, 0.000, 0.000, 14:09:38.057
38, -3610.14, -3652.10, -3516.08, -3032.81, 0.000, 0.000, 0.000, 14:09:38.057
39, -3851.33, -3622.55, -3650.98, -3148.74, 0.000, 0.000, 0.000, 14:09:38.071
40, -3989.50, -3706.69, -3740.57, -3188.48, 0.000, 0.000, 0.000, 14:09:38.071
41, -3818.93, -3714.51, -3650.72, -3093.43, 0.000, 0.000, 0.000, 14:09:38.086
42, -3586.44, -3637.35, -3523.18, -3006.37, 0.000, 0.000, 0.000, 14:09:38.086
43, -3860.04, -3624.12, -3655.76, -3147.10, 0.000, 0.000, 0.000, 14:09:38.086
44, -4029.19, -3710.93, -3740.28, -3202.99, 0.000, 0.000, 0.000, 14:09:38.086
45, -3799.70, -3704.83, -3639.70, -3129.29, 0.000, 0.000, 0.000, 14:09:38.130
46, -3588.22, -3638.46, -3515.38, -3030.03, 0.000, 0.000, 0.000, 14:09:38.130
47, -3871.62, -3632.50, -3664.89, -3140.71, 0.000, 0.000, 0.000, 14:09:38.131
48, -3998.49, -3712.33, -3750.59, -3208.61, 0.000, 0.000, 0.000, 14:09:38.131
49, -3810.89, -3709.74, -3641.56, -3112.57, 0.000, 0.000, 0.000, 14:09:38.131
50, -3622.90, -3653.15, -3530.14, -3025.51, 0.000, 0.000, 0.000, 14:09:38.131
51, -3862.67, -3627.54, -3674.80, -3146.98, 0.000, 0.000, 0.000, 14:09:38.132
52, -3998.83, -3702.18, -3752.63, -3201.99, 0.000, 0.000, 0.000, 14:09:38.132
53, -3800.07, -3703.06, -3646.88, -3124.20, 0.000, 0.000, 0.000, 14:09:38.133
54, -3598.60, -3630.64, -3519.36, -3013.29, 0.000, 0.000, 0.000, 14:09:38.133
55, -3861.31, -3634.93, -3670.89, -3152.37, 0.000, 0.000, 0.000, 14:09:38.145
56, -4008.73, -3712.31, -3744.64, -3202.79, 0.000, 0.000, 0.000, 14:09:38.145
57, -3823.33, -3692.76, -3640.37, -3108.05, 0.000, 0.000, 0.000, 14:09:38.161
58, -3581.06, -3624.47, -3498.59, -3023.44, 0.000, 0.000, 0.000, 14:09:38.161
59, -3860.26, -3616.18, -3638.46, -3182.17, 0.000, 0.000, 0.000, 14:09:38.161
60, -3969.05, -3684.97, -3695.47, -3218.77, 0.000, 0.000, 0.000, 14:09:38.161
61, -3803.31, -3681.65, -3585.01, -3157.56, 0.000, 0.000, 0.000, 14:09:38.176
62, -3584.66, -3628.83, -3487.30, -3076.52, 0.000, 0.000, 0.000, 14:09:38.176
63, -3845.16, -3609.03, -3623.01, -3172.81, 0.000, 0.000, 0.000, 14:09:38.206
64, -4000.95, -3700.06, -3705.03, -3244.59, 0.000, 0.000, 0.000, 14:09:38.206
65, -3817.18, -3694.82, -3627.12, -3155.29, 0.000, 0.000, 0.000, 14:09:38.207
66, -3627.09, -3641.71, -3502.26, -3058.78, 0.000, 0.000, 0.000, 14:09:38.207
67, -3884.39, -3616.66, -3638.71, -3174.08, 0.000, 0.000, 0.000, 14:09:38.208
68, -4021.77, -3718.96, -3732.17, -3226.20, 0.000, 0.000, 0.000, 14:09:38.208
69, -3798.15, -3707.38, -3632.81, -3139.59, 0.000, 0.000, 0.000, 14:09:38.208
70, -3570.57, -3623.96, -3502.63, -3047.30, 0.000, 0.000, 0.000, 14:09:38.208
71, -3848.16, -3639.23, -3653.23, -3183.07, 0.000, 0.000, 0.000, 14:09:38.221
72, -4009.99, -3703.61, -3723.56, -3224.05, 0.000, 0.000, 0.000, 14:09:38.221
73, -3822.27, -3707.91, -3644.07, -3128.80, 0.000, 0.000, 0.000, 14:09:38.235
74, -3615.91, -3642.65, -3514.99, -3059.20, 0.000, 0.000, 0.000, 14:09:38.235
75, -3877.73, -3625.45, -3653.48, -3163.64, 0.000, 0.000, 0.000, 14:09:38.250
76, -4009.20, -3710.75, -3738.52, -3215.23, 0.000, 0.000, 0.000, 14:09:38.250
77, -3801.32, -3699.40, -3628.82, -3115.19, 0.000, 0.000, 0.000, 14:09:38.251
78, -3607.99, -3635.50, -3525.83, -3040.31, 0.000, 0.000, 0.000, 14:09:38.251
79, -3856.59, -3627.29, -3661.52, -3145.36, 0.000, 0.000, 0.000, 14:09:38.265
80, -3997.16, -3712.55, -3735.89, -3200.16, 0.000, 0.000, 0.000, 14:09:38.265
81, -3823.45, -3712.48, -3639.02, -3125.70, 0.000, 0.000, 0.000, 14:09:38.280
82, -3611.56, -3636.43, -3519.74, -3049.61, 0.000, 0.000, 0.000, 14:09:38.280
83, -3869.21, -3618.66, -3650.59, -3151.25, 0.000, 0.000, 0.000, 14:09:38.281
84, -3993.53, -3704.44, -3726.62, -3186.34, 0.000, 0.000, 0.000, 14:09:38.281
85, -3784.62, -3692.06, -3628.13, -3108.57, 0.000, 0.000, 0.000, 14:09:38.295
86, -3601.62, -3628.08, -3515.12, -3026.67, 0.000, 0.000, 0.000, 14:09:38.295
87, -3844.81, -3612.89, -3654.69, -3138.59, 0.000, 0.000, 0.000, 14:09:38.326
88, -3984.11, -3703.78, -3742.34, -3190.69, 0.000, 0.000, 0.000, 14:09:38.326
89, -3794.94, -3698.51, -3635.62, -3101.87, 0.000, 0.000, 0.000, 14:09:38.326
90, -3632.31, -3654.16, -3524.62, -3039.43, 0.000, 0.000, 0.000, 14:09:38.327
91, -3899.66, -3624.92, -3667.68, -3150.18, 0.000, 0.000, 0.000, 14:09:38.327
92, -3978.75, -3702.27, -3733.12, -3183.21, 0.000, 0.000, 0.000, 14:09:38.327
93, -3804.31, -3691.98, -3629.49, -3102.51, 0.000, 0.000, 0.000, 14:09:38.328
94, -3586.94, -3622.89, -3513.24, -3020.86, 0.000, 0.000, 0.000, 14:09:38.328
95, -3836.64, -3615.89, -3650.07, -3147.79, 0.000, 0.000, 0.000, 14:09:38.341
96, -3993.57, -3710.44, -3743.76, -3195.69, 0.000, 0.000, 0.000, 14:09:38.341
97, -3807.54, -3707.13, -3643.12, -3121.08, 0.000, 0.000, 0.000, 14:09:38.356
98, -3619.18, -3631.41, -3514.85, -3043.53, 0.000, 0.000, 0.000, 14:09:38.356
99, -3860.44, -3614.82, -3651.86, -3154.85, 0.000, 0.000, 0.000, 14:09:38.371
100, -3992.80, -3706.36, -3729.24, -3189.24, 0.000, 0.000, 0.000, 14:09:38.371
101, -3799.57, -3695.40, -3630.95, -3114.22, 0.000, 0.000, 0.000, 14:09:38.371
102, -3618.45, -3636.22, -3532.70, -3033.65, 0.000, 0.000, 0.000, 14:09:38.371
103, -3859.77, -3630.41, -3664.25, -3149.45, 0.000, 0.000, 0.000, 14:09:38.385
104, -3993.04, -3711.41, -3736.32, -3191.25, 0.000, 0.000, 0.000, 14:09:38.386
105, -3815.58, -3696.85, -3642.29, -3113.07, 0.000, 0.000, 0.000, 14:09:38.401
106, -3610.84, -3631.39, -3522.97, -3031.09, 0.000, 0.000, 0.000, 14:09:38.401
107, -3877.78, -3616.49, -3657.62, -3157.45, 0.000, 0.000, 0.000, 14:09:38.401
108, -3974.30, -3699.39, -3726.77, -3195.78, 0.000, 0.000, 0.000, 14:09:38.401
109, -3790.55, -3692.29, -3636.01, -3106.63, 0.000, 0.000, 0.000, 14:09:38.415
110, -3601.86, -3623.32, -3512.70, -3019.44, 0.000, 0.000, 0.000, 14:09:38.415
111, -3870.51, -3631.86, -3665.19, -3159.28, 0.000, 0.000, 0.000, 14:09:38.431
112, -3955.44, -3697.92, -3732.27, -3193.94, 0.000, 0.000, 0.000, 14:09:38.431
113, -3788.98, -3695.90, -3637.96, -3103.08, 0.000, 0.000, 0.000, 14:09:38.431
114, -3623.84, -3631.51, -3536.60, -3043.40, 0.000, 0.000, 0.000, 14:09:38.432
115, -3895.97, -3629.89, -3674.94, -3139.30, 0.000, 0.000, 0.000, 14:09:38.446
116, -3969.97, -3689.75, -3719.02, -3177.00, 0.000, 0.000, 0.000, 14:09:38.446
117, -3766.34, -3692.73, -3615.11, -3111.04, 0.000, 0.000, 0.000, 14:09:38.460
118, -3619.01, -3632.87, -3530.20, -3036.25, 0.000, 0.000, 0.000, 14:09:38.460
119, -3883.35, -3612.37, -3656.45, -3148.82, 0.000, 0.000, 0.000, 14:09:38.461
120, -3969.05, -3692.37, -3718.26, -3178.85, 0.000, 0.000, 0.000, 14:09:38.461
121, -3789.66, -3696.29, -3624.90, -3095.06, 0.000, 0.000, 0.000, 14:09:38.475
122, -3595.20, -3616.19, -3521.85, -3032.44, 0.000, 0.000, 0.000, 14:09:38.476
123, -3880.90, -3634.69, -3676.25, -3160.17, 0.000, 0.000, 0.000, 14:09:38.491
124, -3958.66, -3697.96, -3719.59, -3171.54, 0.000, 0.000, 0.000, 14:09:38.491
125, -3783.03, -3699.45, -3637.25, -3114.81, 0.000, 0.000, 0.000, 14:09:38.491
126, -3624.57, -3634.94, -3537.42, -3047.12, 0.000, 0.000, 0.000, 14:09:38.492
127, -3900.86, -3618.88, -3667.75, -3135.84, 0.000, 0.000, 0.000, 14:09:38.506
128, -3969.68, -3689.47, -3716.09, -3163.10, 0.000, 0.000, 0.000, 14:09:38.506
129, -3790.47, -3699.55, -3629.64, -3113.67, 0.000, 0.000, 0.000, 14:09:38.522
130, -3645.38, -3639.84, -3535.01, -3045.73, 0.000, 0.000, 0.000, 14:09:38.522
131, -3868.15, -3618.55, -3669.51, -3151.65, 0.000, 0.000, 0.000, 14:09:38.535
132, -3946.18, -3687.92, -3705.12, -3168.19, 0.000, 0.000, 0.000, 14:09:38.535
133, -3799.57, -3703.67, -3632.21, -3130.16, 0.000, 0.000, 0.000, 14:09:38.542
134, -3632.12, -3639.86, -3542.79, -3039.54, 0.000, 0.000, 0.000, 14:09:38.542
135, -3869.85, -3606.02, -3657.01, -3125.97, 0.000, 0.000, 0.000, 14:09:38.550
136, -3985.69, -3697.98, -3718.08, -3176.29, 0.000, 0.000, 0.000, 14:09:38.550
137, -3787.44, -3690.16, -3624.59, -3101.93, 0.000, 0.000, 0.000, 14:09:38.550
138, -3648.72, -3649.16, -3550.14, -3053.35, 0.000, 0.000, 0.000, 14:09:38.551
139, -3883.92, -3618.64, -3671.89, -3141.90, 0.000, 0.000, 0.000, 14:09:38.566
140, -3955.02, -3694.84, -3713.75, -3145.30, 0.000, 0.000, 0.000, 14:09:38.566
141, -3787.69, -3687.32, -3635.59, -3090.57, 0.000, 0.000, 0.000, 14:09:38.580
142, -3617.18, -3631.79, -3538.71, -3039.68, 0.000, 0.000, 0.000, 14:09:38.580
143, -3895.76, -3615.91, -3673.77, -3142.58, 0.000, 0.000, 0.000, 14:09:38.581
144, -3960.64, -3695.71, -3725.10, -3161.07, 0.000, 0.000, 0.000, 14:09:38.581
145, -3778.93, -3695.40, -3616.84, -3085.65, 0.000, 0.000, 0.000, 14:09:38.595
146, -3630.70, -3631.44, -3530.19, -3025.34, 0.000, 0.000, 0.000, 14:09:38.595
147, -3890.64, -3617.84, -3669.67, -3150.84, 0.000, 0.000, 0.000, 14:09:38.610
148, -3974.25, -3694.49, -3724.55, -3162.48, 0.000, 0.000, 0.000, 14:09:38.610
149, -3771.84, -3699.47, -3625.90, -3083.26, 0.000, 0.000, 0.000, 14:09:38.611
150, -3660.07, -3648.26, -3555.16, -3039.09, 0.000, 0.000, 0.000, 14:09:38.611
151, -3886.92, -3624.71, -3667.63, -3129.03, 0.000, 0.000, 0.000, 14:09:38.626
152, -3943.89, -3685.07, -3711.82, -3163.42, 0.000, 0.000, 0.000, 14:09:38.626
153, -3773.36, -3677.04, -3607.17, -3081.96, 0.000, 0.000, 0.000, 14:09:38.640
154, -3618.10, -3629.31, -3540.02, -3041.94, 0.000, 0.000, 0.000, 14:09:38.640
155, -3866.53, -3617.88, -3669.47, -3161.49, 0.000, 0.000, 0.000, 14:09:38.641
156, -3949.12, -3688.14, -3712.47, -3180.53, 0.000, 0.000, 0.000, 14:09:38.641
157, -3765.66, -3687.33, -3620.07, -3091.03, 0.000, 0.000, 0.000, 14:09:38.671
158, -3645.84, -3642.03, -3542.94, -3033.49, 0.000, 0.000, 0.000, 14:09:38.671
159, -3876.08, -3600.26, -3656.93, -3128.10, 0.000, 0.000, 0.000, 14:09:38.672
160, -3924.75, -3680.55, -3695.50, -3138.07, 0.000, 0.000, 0.000, 14:09:38.672
161, -3770.89, -3688.24, -3626.20, -3105.33, 0.000, 0.000, 0.000, 14:09:38.672
162, -3655.98, -3640.81, -3546.09, -3061.77, 0.000, 0.000, 0.000, 14:09:38.672
163, -3890.08, -3630.51, -3674.90, -3152.77, 0.000, 0.000, 0.000, 14:09:38.685
164, -3962.36, -3699.71, -3720.44, -3188.29, 0.000, 0.000, 0.000, 14:09:38.685
165, -3758.17, -3697.68, -3622.63, -3098.68, 0.000, 0.000, 0.000, 14:09:38.701
166, -3616.45, -3627.99, -3530.99, -3045.09, 0.000, 0.000, 0.000, 14:09:38.701
167, -3884.06, -3620.28, -3669.24, -3137.85, 0.000, 0.000, 0.000, 14:09:38.701
168, -3948.06, -3685.15, -3698.58, -3158.15, 0.000, 0.000, 0.000, 14:09:38.701
169, -3776.18, -3685.53, -3615.82, -3084.83, 0.000, 0.000, 0.000, 14:09:38.715
170, -3618.71, -3637.20, -3540.41, -3039.37, 0.000, 0.000, 0.000, 14:09:38.715
171, -3877.28, -3619.87, -3662.78, -3145.90, 0.000, 0.000, 0.000, 14:09:38.730
172, -3938.92, -3688.80, -3720.91, -3160.01, 0.000, 0.000, 0.000, 14:09:38.730
173, -3786.59, -3699.63, -3633.75, -3107.47, 0.000, 0.000, 0.000, 14:09:38.731
174, -3644.18, -3633.19, -3533.63, -3052.98, 0.000, 0.000, 0.000, 14:09:38.731
175, -3875.07, -3618.93, -3663.66, -3159.05, 0.000, 0.000, 0.000, 14:09:38.745
176, -3942.61, -3685.50, -3701.30, -3181.27, 0.000, 0.000, 0.000, 14:09:38.745
177, -3773.82, -3698.72, -3619.51, -3096.84, 0.000, 0.000, 0.000, 14:09:38.760
178, -3631.88, -3635.27, -3560.35, -3058.61, 0.000, 0.000, 0.000, 14:09:38.760
179, -3897.62, -3625.19, -3681.19, -3164.56, 0.000, 0.000, 0.000, 14:09:38.761
180, -3951.04, -3694.19, -3706.10, -3182.67, 0.000, 0.000, 0.000, 14:09:38.761
181, -3779.80, -3690.97, -3620.22, -3099.55, 0.000, 0.000, 0.000, 14:09:38.776
182, -3642.67, -3635.44, -3549.30, -3045.40, 0.000, 0.000, 0.000, 14:09:38.776
183, -3890.57, -3621.84, -3676.82, -3135.90, 0.000, 0.000, 0.000, 14:09:38.791
184, -3957.19, -3693.81, -3696.51, -3161.00, 0.000, 0.000, 0.000, 14:09:38.791
185, -3764.31, -3698.60, -3613.21, -3105.21, 0.000, 0.000, 0.000, 14:09:38.791
186, -3643.38, -3643.59, -3547.86, -3054.24, 0.000, 0.000, 0.000, 14:09:38.791
187, -3886.51, -3617.63, -3670.22, -3148.64, 0.000, 0.000, 0.000, 14:09:38.806
188, -3932.56, -3687.92, -3708.77, -3178.28, 0.000, 0.000, 0.000, 14:09:38.806
189, -3777.65, -3705.32, -3624.05, -3127.70, 0.000, 0.000, 0.000, 14:09:38.822
190, -3646.93, -3663.33, -3555.83, -3093.34, 0.000, 0.000, 0.000, 14:09:38.822
191, -3911.58, -3651.85, -3679.01, -3176.50, 0.000, 0.000, 0.000, 14:09:38.822
192, -3940.37, -3695.45, -3702.51, -3182.11, 0.000, 0.000, 0.000, 14:09:38.823
193, -3752.28, -3691.70, -3614.66, -3105.98, 0.000, 0.000, 0.000, 14:09:38.835
194, -3612.80, -3646.63, -3535.97, -3053.13, 0.000, 0.000, 0.000, 14:09:38.835
195, -3870.93, -3635.24, -3664.26, -3174.41, 0.000, 0.000, 0.000, 14:09:38.851
196, -3916.39, -3700.29, -3699.74, -3177.18, 0.000, 0.000, 0.000, 14:09:38.851
197, -3731.74, -3706.64, -3608.75, -3087.28, 0.000, 0.000, 0.000, 14:09:38.851
198, -3592.46, -3641.05, -3529.32, -3042.66, 0.000, 0.000, 0.000, 14:09:38.851
199, -3856.15, -3638.96, -3663.33, -3150.22, 0.000, 0.000, 0.000, 14:09:38.865
200, -3920.84, -3705.89, -3697.80, -3183.11, 0.000, 0.000, 0.000, 14:09:38.865
0, -3755.82, -3718.86, -3629.79, -3118.83, 0.000, 0.000, 0.000, 14:09:38.866
1, -3661.75, -3653.42, -3566.52, -3064.81, 0.000, 0.000, 0.000, 14:09:38.896
2, -3883.70, -3631.65, -3670.99, -3177.22, 0.000, 0.000, 0.000, 14:09:38.896
3, -3944.50, -3708.06, -3706.48, -3180.05, 0.000, 0.000, 0.000, 14:09:38.896
4, -3778.52, -3708.16, -3619.81, -3087.88, 0.000, 0.000, 0.000, 14:09:38.896
5, -3640.41, -3653.17, -3542.28, -3052.09, 0.000, 0.000, 0.000, 14:09:38.897
6, -3912.04, -3629.34, -3657.41, -3158.32, 0.000, 0.000, 0.000, 14:09:38.897
7, -3924.99, -3695.01, -3702.27, -3170.33, 0.000, 0.000, 0.000, 14:09:38.911
8, -3731.49, -3694.95, -3602.21, -3106.27, 0.000, 0.000, 0.000, 14:09:38.911
9, -3622.70, -3635.59, -3542.36, -3045.58, 0.000, 0.000, 0.000, 14:09:38.926
10, -3880.13, -3632.12, -3676.42, -3173.51, 0.000, 0.000, 0.000, 14:09:38.926
11, -3921.30, -3697.01, -3701.24, -3172.62, 0.000, 0.000, 0.000, 14:09:38.926
12, -3759.57, -3697.29, -3607.53, -3096.70, 0.000, 0.000, 0.000, 14:09:38.926
13, -3652.06, -3638.90, -3535.97, -3072.34, 0.000, 0.000, 0.000, 14:09:38.941
14, -3920.61, -3628.64, -3666.27, -3170.40, 0.000, 0.000, 0.000, 14:09:38.941
15, -3935.13, -3685.59, -3687.60, -3180.21, 0.000, 0.000, 0.000, 14:09:38.955
16, -3728.23, -3687.23, -3614.36, -3107.96, 0.000, 0.000, 0.000, 14:09:38.955
17, -3623.88, -3632.16, -3542.61, -3075.11, 0.000, 0.000, 0.000, 14:09:38.956
18, -3875.96, -3629.30, -3672.80, -3185.21, 0.000, 0.000, 0.000, 14:09:38.956
19, -3946.48, -3695.67, -3702.38, -3201.08, 0.000, 0.000, 0.000, 14:09:38.985
20, -3771.05, -3691.32, -3608.06, -3123.46, 0.000, 0.000, 0.000, 14:09:38.985
21, -3658.33, -3635.09, -3539.87, -3071.47, 0.000, 0.000, 0.000, 14:09:38.986
22, -3899.70, -3623.67, -3664.47, -3181.11, 0.000, 0.000, 0.000, 14:09:38.986
23, -3918.42, -3673.93, -3698.01, -3177.83, 0.000, 0.000, 0.000, 14:09:38.987
24, -3745.48, -3690.63, -3607.79, -3100.91, 0.000, 0.000, 0.000, 14:09:38.987
25, -3614.54, -3622.51, -3532.87, -3071.73, 0.000, 0.000, 0.000, 14:09:39.001
26, -3877.86, -3613.14, -3661.10, -3168.52, 0.000, 0.000, 0.000, 14:09:39.001
27, -3925.85, -3673.40, -3685.83, -3158.53, 0.000, 0.000, 0.000, 14:09:39.015
28, -3777.71, -3685.35, -3610.63, -3084.36, 0.000, 0.000, 0.000, 14:09:39.015
29, -3629.19, -3628.33, -3535.62, -3056.50, 0.000, 0.000, 0.000, 14:09:39.015
30, -3884.94, -3614.21, -3660.40, -3168.37, 0.000, 0.000, 0.000, 14:09:39.016
31, -3945.03, -3685.15, -3678.92, -3171.52, 0.000, 0.000, 0.000, 14:09:39.046
32, -3728.03, -3679.79, -3593.94, -3096.03, 0.000, 0.000, 0.000, 14:09:39.046
33, -3621.43, -3636.51, -3540.24, -3048.24, 0.000, 0.000, 0.000, 14:09:39.046
34, -3887.99, -3604.38, -3661.93, -3161.69, 0.000, 0.000, 0.000, 14:09:39.046
35, -3935.60, -3682.02, -3682.90, -3174.45, 0.000, 0.000, 0.000, 14:09:39.047
36, -3748.85, -3690.47, -3596.50, -3097.97, 0.000, 0.000, 0.000, 14:09:39.047
37, -3633.49, -3632.25, -3538.63, -3071.51, 0.000, 0.000, 0.000, 14:09:39.060
38, -3895.41, -3617.12, -3653.63, -3179.34, 0.000, 0.000, 0.000, 14:09:39.060
39, -3928.36, -3678.01, -3683.61, -3189.68, 0.000, 0.000, 0.000, 14:09:39.090
40, -3756.21, -3693.14, -3603.78, -3108.03, 0.000, 0.000, 0.000, 14:09:39.090
41, -3644.33, -3630.92, -3545.07, -3056.58, 0.000, 0.000, 0.000, 14:09:39.091
42, -3919.85, -3617.37, -3664.29, -3151.48, 0.000, 0.000, 0.000, 14:09:39.091
43, -3931.26, -3680.84, -3688.49, -3179.10, 0.000, 0.000, 0.000, 14:09:39.093
44, -3732.64, -3693.30, -3604.85, -3114.04, 0.000, 0.000, 0.000, 14:09:39.093
45, -3642.51, -3653.22, -3543.87, -3071.88, 0.000, 0.000, 0.000, 14:09:39.093
46, -3887.62, -3635.91, -3660.40, -3146.18, 0.000, 0.000, 0.000, 14:09:39.094
47, -3925.70, -3676.81, -3692.95, -3155.56, 0.000, 0.000, 0.000, 14:09:39.121
48, -3719.26, -3673.85, -3598.74, -3054.21, 0.000, 0.000, 0.000, 14:09:39.121
49, -3660.75, -3622.94, -3545.91, -3026.45, 0.000, 0.000, 0.000, 14:09:39.121
50, -3910.61, -3603.38, -3675.82, -3119.31, 0.000, 0.000, 0.000, 14:09:39.122
51, -3941.62, -3691.52, -3710.64, -3152.48, 0.000, 0.000, 0.000, 14:09:39.135
52, -3760.26, -3696.16, -3615.61, -3082.33, 0.000, 0.000, 0.000, 14:09:39.135
53, -3628.02, -3637.05, -3543.91, -3036.51, 0.000, 0.000, 0.000, 14:09:39.143
54, -3909.50, -3606.65, -3659.89, -3165.93, 0.000, 0.000, 0.000, 14:09:39.143
55, -3915.82, -3672.53, -3682.22, -3174.27, 0.000, 0.000, 0.000, 14:09:39.151
56, -3740.25, -3679.16, -3604.76, -3081.09, 0.000, 0.000, 0.000, 14:09:39.151
57, -3660.56, -3627.43, -3548.37, -3043.21, 0.000, 0.000, 0.000, 14:09:39.180
58, -3900.61, -3608.92, -3665.20, -3158.84, 0.000, 0.000, 0.000, 14:09:39.181
59, -3948.01, -3684.75, -3688.20, -3159.92, 0.000, 0.000, 0.000, 14:09:39.181
60, -3698.74, -3695.54, -3598.56, -3072.19, 0.000, 0.000, 0.000, 14:09:39.181
61, -3636.18, -3632.38, -3553.21, -3044.04, 0.000, 0.000, 0.000, 14:09:39.182
62, -3900.76, -3603.80, -3661.92, -3161.21, 0.000, 0.000, 0.000, 14:09:39.182
63, -3928.56, -3675.15, -3676.41, -3150.12, 0.000, 0.000, 0.000, 14:09:39.182
64, -3735.46, -3686.79, -3594.51, -3086.53, 0.000, 0.000, 0.000, 14:09:39.182
65, -3642.89, -3641.89, -3535.87, -3053.35, 0.000, 0.000, 0.000, 14:09:39.196
66, -3899.74, -3638.64, -3647.86, -3173.30, 0.000, 0.000, 0.000, 14:09:39.196
67, -3914.84, -3713.95, -3673.49, -3175.09, 0.000, 0.000, 0.000, 14:09:39.211
68, -3730.67, -3701.61, -3601.76, -3095.98, 0.000, 0.000, 0.000, 14:09:39.211
69, -3642.10, -3672.32, -3532.31, -3075.28, 0.000, 0.000, 0.000, 14:09:39.226
70, -3891.32, -3596.26, -3648.78, -3187.45, 0.000, 0.000, 0.000, 14:09:39.226
71, -3898.38, -3667.51, -3663.37, -3187.44, 0.000, 0.000, 0.000, 14:09:39.227
72, -3728.86, -3796.51, -3593.42, -3130.28, 0.000, 0.000, 0.000, 14:09:39.227
73, -3628.29, -3726.46, -3521.94, -3042.60, 0.000, 0.000, 0.000, 14:09:39.241
74, -3827.76, -3592.87, -3649.90, -3147.35, 0.000, 0.000, 0.000, 14:09:39.241
75, -3807.66, -3709.00, -3663.39, -3122.80, 0.000, 0.000, 0.000, 14:09:39.256
76, -3614.76, -3747.81, -3590.65, -3027.34, 0.000, 0.000, 0.000, 14:09:39.256
77, -3497.13, -3701.57, -3546.69, -3003.00, 0.000, 0.000, 0.000, 14:09:39.256
78, -3763.86, -3699.29, -3664.65, -3112.77, 0.000, 0.000, 0.000, 14:09:39.256
79, -3798.17, -3773.14, -3706.17, -3094.08, 0.000, 0.000, 0.000, 14:09:39.271
80, -3589.06, -3779.68, -3619.56, -2992.46, 0.000, 0.000, 0.000, 14:09:39.271
81, -3483.76, -3707.65, -3568.48, -2965.84, 0.000, 0.000, 0.000, 14:09:39.286
82, -3763.69, -3674.20, -3689.83, -3095.62, 0.000, 0.000, 0.000, 14:09:39.286
83, -3814.22, -3730.59, -3738.28, -3109.50, 0.000, 0.000, 0.000, 14:09:39.287
84, -3661.23, -3733.50, -3654.83, -3003.47, 0.000, 0.000, 0.000, 14:09:39.287
85, -3584.78, -3645.83, -3593.32, -2962.13, 0.000, 0.000, 0.000, 14:09:39.301
86, -3890.67, -3631.45, -3725.80, -3093.79, 0.000, 0.000, 0.000, 14:09:39.301
87, -3935.49, -3684.26, -3748.60, -3082.41, 0.000, 0.000, 0.000, 14:09:39.330
88, -3727.11, -3693.09, -3670.12, -2987.77, 0.000, 0.000, 0.000, 14:09:39.330
89, -3633.31, -3647.14, -3621.07, -2989.77, 0.000, 0.000, 0.000, 14:09:39.330
90, -3928.65, -3596.19, -3718.64, -3094.27, 0.000, 0.000, 0.000, 14:09:39.331
91, -3946.77, -3664.07, -3753.87, -3080.83, 0.000, 0.000, 0.000, 14:09:39.331
92, -3773.98, -3683.25, -3680.17, -3030.53, 0.000, 0.000, 0.000, 14:09:39.331
93, -3677.34, -3607.57, -3613.53, -2985.13, 0.000, 0.000, 0.000, 14:09:39.332
94, -3964.82, -3598.22, -3736.29, -3120.26, 0.000, 0.000, 0.000, 14:09:39.332
95, -3956.72, -3660.27, -3743.18, -3094.04, 0.000, 0.000, 0.000, 14:09:39.345
96, -3793.72, -3687.82, -3680.03, -3031.18, 0.000, 0.000, 0.000, 14:09:39.345
97, -3710.48, -3627.67, -3621.03, -3014.82, 0.000, 0.000, 0.000, 14:09:39.360
98, -3986.57, -3604.28, -3717.71, -3146.64, 0.000, 0.000, 0.000, 14:09:39.361
99, -3965.52, -3672.69, -3732.09, -3135.99, 0.000, 0.000, 0.000, 14:09:39.376
100, -3770.18, -3680.44, -3659.68, -3062.45, 0.000, 0.000, 0.000, 14:09:39.376
101, -3740.39, -3637.51, -3617.20, -3059.47, 0.000, 0.000, 0.000, 14:09:39.376
102, -3991.46, -3620.23, -3709.66, -3167.49, 0.000, 0.000, 0.000, 14:09:39.376
103, -3951.70, -3657.41, -3701.96, -3147.87, 0.000, 0.000, 0.000, 14:09:39.391
104, -3779.42, -3672.51, -3632.39, -3057.05, 0.000, 0.000, 0.000, 14:09:39.391
105, -3702.45, -3640.88, -3589.86, -3062.04, 0.000, 0.000, 0.000, 14:09:39.406
106, -3980.53, -3625.62, -3696.65, -3188.84, 0.000, 0.000, 0.000, 14:09:39.406
107, -3952.06, -3671.37, -3703.86, -3145.22, 0.000, 0.000, 0.000, 14:09:39.406
108, -3780.13, -3682.23, -3618.22, -3064.34, 0.000, 0.000, 0.000, 14:09:39.406
109, -3682.04, -3605.25, -3553.48, -3016.97, 0.000, 0.000, 0.000, 14:09:39.451
110, -3931.87, -3581.56, -3668.98, -3167.11, 0.000, 0.000, 0.000, 14:09:39.451
111, -3925.48, -3658.51, -3681.11, -3148.52, 0.000, 0.000, 0.000, 14:09:39.451
112, -3737.26, -3681.00, -3615.36, -3054.53, 0.000, 0.000, 0.000, 14:09:39.451
113, -3671.66, -3627.46, -3565.76, -3040.93, 0.000, 0.000, 0.000, 14:09:39.452
114, -3962.18, -3610.65, -3675.44, -3164.52, 0.000, 0.000, 0.000, 14:09:39.453
115, -3948.28, -3676.50, -3687.54, -3165.46, 0.000, 0.000, 0.000, 14:09:39.453
116, -3766.14, -3701.30, -3627.13, -3085.43, 0.000, 0.000, 0.000, 14:09:39.453
117, -3677.35, -3627.59, -3573.75, -3067.60, 0.000, 0.000, 0.000, 14:09:39.453
118, -3929.88, -3604.50, -3674.16, -3182.46, 0.000, 0.000, 0.000, 14:09:39.453
119, -3939.86, -3687.87, -3694.01, -3174.94, 0.000, 0.000, 0.000, 14:09:39.465
120, -3726.30, -3700.45, -3619.00, -3086.04, 0.000, 0.000, 0.000, 14:09:39.465
121, -3682.80, -3641.76, -3576.94, -3060.04, 0.000, 0.000, 0.000, 14:09:39.481
122, -3936.20, -3617.63, -3670.42, -3195.68, 0.000, 0.000, 0.000, 14:09:39.481
123, -3932.66, -3686.82, -3700.96, -3163.20, 0.000, 0.000, 0.000, 14:09:39.496
124, -3739.05, -3695.33, -3618.62, -3074.67, 0.000, 0.000, 0.000, 14:09:39.496
125, -3684.67, -3633.55, -3581.51, -3064.11, 0.000, 0.000, 0.000, 14:09:39.496
126, -3941.49, -3618.63, -3669.70, -3194.39, 0.000, 0.000, 0.000, 14:09:39.496
127, -3934.00, -3692.78, -3695.88, -3181.51, 0.000, 0.000, 0.000, 14:09:39.511
128, -3743.53, -3709.01, -3623.94, -3068.81, 0.000, 0.000, 0.000, 14:09:39.511
129, -3664.54, -3620.51, -3565.65, -3033.36, 0.000, 0.000, 0.000, 14:09:39.526
130, -3931.91, -3617.24, -3673.75, -3167.59, 0.000, 0.000, 0.000, 14:09:39.526
131, -3926.84, -3688.63, -3691.72, -3161.46, 0.000, 0.000, 0.000, 14:09:39.540
132, -3715.70, -3696.44, -3615.00, -3054.41, 0.000, 0.000, 0.000, 14:09:39.540
133, -3660.40, -3634.41, -3576.23, -3048.59, 0.000, 0.000, 0.000, 14:09:39.541
134, -3943.80, -3612.43, -3673.20, -3157.11, 0.000, 0.000, 0.000, 14:09:39.541
135, -3933.87, -3688.43, -3690.85, -3146.17, 0.000, 0.000, 0.000, 14:09:39.556
136, -3708.96, -3692.49, -3614.05, -3062.67, 0.000, 0.000, 0.000, 14:09:39.556
137, -3651.67, -3632.00, -3577.48, -3053.22, 0.000, 0.000, 0.000, 14:09:39.556
138, -3927.09, -3620.28, -3683.14, -3175.81, 0.000, 0.000, 0.000, 14:09:39.556
139, -3910.23, -3682.09, -3693.58, -3156.46, 0.000, 0.000, 0.000, 14:09:39.571
140, -3709.74, -3690.91, -3609.37, -3058.40, 0.000, 0.000, 0.000, 14:09:39.571
141, -3650.06, -3626.88, -3563.26, -3042.51, 0.000, 0.000, 0.000, 14:09:39.586
142, -3964.71, -3629.31, -3691.92, -3179.59, 0.000, 0.000, 0.000, 14:09:39.586
143, -3934.71, -3682.76, -3700.72, -3158.79, 0.000, 0.000, 0.000, 14:09:39.587
144, -3712.55, -3688.11, -3628.34, -3061.45, 0.000, 0.000, 0.000, 14:09:39.587
145, -3659.19, -3627.00, -3573.35, -3040.15, 0.000, 0.000, 0.000, 14:09:39.601
146, -3909.58, -3625.89, -3677.69, -3160.69, 0.000, 0.000, 0.000, 14:09:39.601
147, -3922.94, -3692.21, -3698.86, -3139.68, 0.000, 0.000, 0.000, 14:09:39.615
148, -3724.62, -3708.52, -3632.00, -3054.69, 0.000, 0.000, 0.000, 14:09:39.615
149, -3659.53, -3632.14, -3576.24, -3035.02, 0.000, 0.000, 0.000, 14:09:39.616
150, -3932.71, -3614.77, -3684.63, -3169.19, 0.000, 0.000, 0.000, 14:09:39.616
151, -3919.57, -3683.81, -3689.63, -3145.11, 0.000, 0.000, 0.000, 14:09:39.637
152, -3710.84, -3694.19, -3617.48, -3059.63, 0.000, 0.000, 0.000, 14:09:39.637
153, -3678.76, -3634.06, -3576.22, -3060.17, 0.000, 0.000, 0.000, 14:09:39.646
154, -3934.04, -3610.04, -3668.63, -3157.43, 0.000, 0.000, 0.000, 14:09:39.646
155, -3914.10, -3678.94, -3691.66, -3146.12, 0.000, 0.000, 0.000, 14:09:39.646
156, -3705.31, -3698.85, -3615.07, -3069.27, 0.000, 0.000, 0.000, 14:09:39.646
157, -3667.07, -3629.85, -3577.98, -3058.02, 0.000, 0.000, 0.000, 14:09:39.661
158, -3931.70, -3628.66, -3684.82, -3169.21, 0.000, 0.000, 0.000, 14:09:39.661
159, -3908.41, -3700.04, -3696.98, -3144.40, 0.000, 0.000, 0.000, 14:09:39.676
160, -3711.35, -3693.64, -3609.03, -3070.48, 0.000, 0.000, 0.000, 14:09:39.676
161, -3681.32, -3633.35, -3571.36, -3073.22, 0.000, 0.000, 0.000, 14:09:39.676
162, -3933.46, -3617.45, -3685.37, -3168.50, 0.000, 0.000, 0.000, 14:09:39.676
163, -3923.39, -3691.75, -3696.86, -3141.54, 0.000, 0.000, 0.000, 14:09:39.690
164, -3696.88, -3705.34, -3611.73, -3061.30, 0.000, 0.000, 0.000, 14:09:39.690
165, -3668.52, -3629.27, -3564.62, -3056.27, 0.000, 0.000, 0.000, 14:09:39.706
166, -3926.02, -3618.98, -3673.93, -3162.66, 0.000, 0.000, 0.000, 14:09:39.706
167, -3886.08, -3678.62, -3687.06, -3125.77, 0.000, 0.000, 0.000, 14:09:39.706
168, -3724.82, -3689.73, -3610.08, -3056.04, 0.000, 0.000, 0.000, 14:09:39.706
169, -3675.32, -3629.82, -3575.45, -3049.76, 0.000, 0.000, 0.000, 14:09:39.735
170, -3945.73, -3628.20, -3684.32, -3172.86, 0.000, 0.000, 0.000, 14:09:39.735
171, -3908.45, -3689.33, -3688.54, -3152.57, 0.000, 0.000, 0.000, 14:09:39.736
172, -3706.84, -3696.86, -3616.57, -3053.59, 0.000, 0.000, 0.000, 14:09:39.736
173, -3651.66, -3623.49, -3555.60, -3040.00, 0.000, 0.000, 0.000, 14:09:39.737
174, -3925.19, -3629.30, -3671.07, -3167.41, 0.000, 0.000, 0.000, 14:09:39.737
175, -3903.60, -3683.02, -3691.73, -3161.11, 0.000, 0.000, 0.000, 14:09:39.750
176, -3741.97, -3700.47, -3618.11, -3056.66, 0.000, 0.000, 0.000, 14:09:39.750
177, -3663.89, -3633.81, -3569.54, -3049.37, 0.000, 0.000, 0.000, 14:09:39.765
178, -3937.83, -3625.76, -3692.55, -3174.66, 0.000, 0.000, 0.000, 14:09:39.765
179, -3891.31, -3682.87, -3695.10, -3155.64, 0.000, 0.000, 0.000, 14:09:39.796
180, -3708.45, -3691.31, -3607.25, -3053.58, 0.000, 0.000, 0.000, 14:09:39.796
181, -3677.42, -3622.80, -3561.98, -3045.73, 0.000, 0.000, 0.000, 14:09:39.796
182, -3956.83, -3622.75, -3680.77, -3164.29, 0.000, 0.000, 0.000, 14:09:39.796
183, -3921.28, -3691.82, -3690.19, -3142.70, 0.000, 0.000, 0.000, 14:09:39.797
184, -3696.91, -3698.59, -3608.68, -3062.33, 0.000, 0.000, 0.000, 14:09:39.797
185, -3643.57, -3622.09, -3568.06, -3041.19, 0.000, 0.000, 0.000, 14:09:39.798
186, -3933.71, -3626.87, -3687.09, -3154.06, 0.000, 0.000, 0.000, 14:09:39.798
187, -3911.69, -3690.50, -3702.44, -3136.72, 0.000, 0.000, 0.000, 14:09:39.810
188, -3705.04, -3693.26, -3605.26, -3055.88, 0.000, 0.000, 0.000, 14:09:39.810
189, -3677.23, -3628.07, -3569.60, -3069.69, 0.000, 0.000, 0.000, 14:09:39.826
190, -3939.43, -3621.85, -3678.32, -3158.19, 0.000, 0.000, 0.000, 14:09:39.826
191, -3918.66, -3695.82, -3691.87, -3143.51, 0.000, 0.000, 0.000, 14:09:39.827
192, -3706.55, -3695.32, -3600.88, -3045.25, 0.000, 0.000, 0.000, 14:09:39.827
193, -3639.96, -3627.31, -3567.62, -3041.55, 0.000, 0.000, 0.000, 14:09:39.840
194, -3913.21, -3618.64, -3684.32, -3168.67, 0.000, 0.000, 0.000, 14:09:39.841
195, -3911.07, -3685.05, -3691.55, -3160.73, 0.000, 0.000, 0.000, 14:09:39.856
196, -3696.27, -3688.73, -3609.45, -3077.28, 0.000, 0.000, 0.000, 14:09:39.856
197, -3651.99, -3631.03, -3563.65, -3051.95, 0.000, 0.000, 0.000, 14:09:39.856
198, -3911.69, -3621.04, -3669.30, -3171.11, 0.000, 0.000, 0.000, 14:09:39.856
199, -3936.56, -3701.06, -3691.87, -3156.16, 0.000, 0.000, 0.000, 14:09:39.871
200, -3740.37, -3697.51, -3612.78, -3064.51, 0.000, 0.000, 0.000, 14:09:39.871
0, -3671.56, -3624.12, -3577.59, -3054.93, 0.000, 0.000, 0.000, 14:09:39.871
1, -3945.53, -3630.45, -3683.32, -3177.07, 0.000, 0.000, 0.000, 14:09:39.885
2, -3915.38, -3695.82, -3691.32, -3153.90, 0.000, 0.000, 0.000, 14:09:39.886
3, -3708.82, -3704.27, -3602.11, -3069.34, 0.000, 0.000, 0.000, 14:09:39.900
4, -3674.99, -3631.63, -3580.11, -3070.98, 0.000, 0.000, 0.000, 14:09:39.900
5, -3949.98, -3625.92, -3679.03, -3178.40, 0.000, 0.000, 0.000, 14:09:39.901
6, -3919.18, -3685.38, -3681.33, -3138.67, 0.000, 0.000, 0.000, 14:09:39.901
7, -3712.33, -3688.50, -3603.63, -3055.07, 0.000, 0.000, 0.000, 14:09:39.915
8, -3637.83, -3619.15, -3560.05, -3044.09, 0.000, 0.000, 0.000, 14:09:39.915
9, -3922.99, -3629.19, -3685.57, -3172.78, 0.000, 0.000, 0.000, 14:09:39.930
10, -3896.85, -3684.49, -3679.89, -3150.50, 0.000, 0.000, 0.000, 14:09:39.930
11, -3725.79, -3690.26, -3603.75, -3067.89, 0.000, 0.000, 0.000, 14:09:39.930
12, -3674.28, -3632.22, -3585.69, -3062.33, 0.000, 0.000, 0.000, 14:09:39.931
13, -3943.96, -3632.93, -3700.93, -3188.31, 0.000, 0.000, 0.000, 14:09:39.946
14, -3898.62, -3688.88, -3687.74, -3157.86, 0.000, 0.000, 0.000, 14:09:39.946
15, -3697.74, -3678.47, -3588.74, -3059.69, 0.000, 0.000, 0.000, 14:09:39.960
16, -3666.36, -3613.36, -3567.99, -3058.31, 0.000, 0.000, 0.000, 14:09:39.960
17, -3929.03, -3620.39, -3675.47, -3177.44, 0.000, 0.000, 0.000, 14:09:39.961
18, -3877.32, -3684.93, -3674.39, -3138.76, 0.000, 0.000, 0.000, 14:09:39.961
19, -3708.07, -3690.02, -3607.22, -3054.42, 0.000, 0.000, 0.000, 14:09:39.991
20, -3692.46, -3617.10, -3562.09, -3051.49, 0.000, 0.000, 0.000, 14:09:39.991
21, -3960.99, -3630.94, -3690.11, -3171.97, 0.000, 0.000, 0.000, 14:09:39.991
22, -3907.12, -3688.88, -3691.98, -3141.17, 0.000, 0.000, 0.000, 14:09:39.991
23, -3705.68, -3686.28, -3601.81, -3065.23, 0.000, 0.000, 0.000, 14:09:39.992
24, -3664.47, -3605.42, -3557.60, -3049.12, 0.000, 0.000, 0.000, 14:09:39.993
25, -3932.84, -3622.83, -3683.79, -3183.44, 0.000, 0.000, 0.000, 14:09:40.012
26, -3883.19, -3686.18, -3677.14, -3154.48, 0.000, 0.000, 0.000, 14:09:40.012
27, -3687.25, -3694.82, -3593.84, -3071.77, 0.000, 0.000, 0.000, 14:09:40.021
28, -3694.93, -3634.24, -3571.51, -3071.58, 0.000, 0.000, 0.000, 14:09:40.021
29, -3975.29, -3635.40, -3682.49, -3183.01, 0.000, 0.000, 0.000, 14:09:40.022
30, -3902.92, -3677.74, -3680.36, -3139.92, 0.000, 0.000, 0.000, 14:09:40.022
31, -3710.24, -3682.72, -3592.54, -3062.18, 0.000, 0.000, 0.000, 14:09:40.035
32, -3685.19, -3618.57, -3577.07, -3068.94, 0.000, 0.000, 0.000, 14:09:40.036
33, -3946.85, -3626.70, -3697.61, -3180.91, 0.000, 0.000, 0.000, 14:09:40.051
34, -3884.71, -3673.27, -3678.45, -3140.86, 0.000, 0.000, 0.000, 14:09:40.051
35, -3696.69, -3693.05, -3594.21, -3053.16, 0.000, 0.000, 0.000, 14:09:40.051
36, -3687.86, -3622.70, -3568.48, -3070.63, 0.000, 0.000, 0.000, 14:09:40.051
37, -3952.03, -3625.51, -3684.54, -3169.70, 0.000, 0.000, 0.000, 14:09:40.065
38, -3883.31, -3681.12, -3677.97, -3147.03, 0.000, 0.000, 0.000, 14:09:40.065
39, -3698.73, -3685.52, -3596.82, -3068.74, 0.000, 0.000, 0.000, 14:09:40.081
40, -3684.48, -3622.07, -3572.41, -3072.31, 0.000, 0.000, 0.000, 14:09:40.081
41, -3964.53, -3632.92, -3696.07, -3187.67, 0.000, 0.000, 0.000, 14:09:40.081
42, -3914.84, -3688.34, -3682.19, -3158.13, 0.000, 0.000, 0.000, 14:09:40.081
43, -3692.42, -3683.72, -3585.76, -3067.59, 0.000, 0.000, 0.000, 14:09:40.095
44, -3681.05, -3607.97, -3562.17, -3073.63, 0.000, 0.000, 0.000, 14:09:40.096
45, -3951.54, -3627.36, -3693.57, -3183.18, 0.000, 0.000, 0.000, 14:09:40.110
46, -3895.33, -3681.00, -3675.41, -3136.20, 0.000, 0.000, 0.000, 14:09:40.110
47, -3680.64, -3682.64, -3594.87, -3061.33, 0.000, 0.000, 0.000, 14:09:40.111
48, -3684.90, -3616.45, -3572.25, -3068.88, 0.000, 0.000, 0.000, 14:09:40.111
49, -3944.66, -3630.19, -3684.10, -3174.76, 0.000, 0.000, 0.000, 14:09:40.156
50, -3895.03, -3686.31, -3675.83, -3149.57, 0.000, 0.000, 0.000, 14:09:40.156
51, -3689.56, -3678.37, -3595.04, -3057.91, 0.000, 0.000, 0.000, 14:09:40.156
52, -3698.13, -3605.61, -3572.98, -3056.78, 0.000, 0.000, 0.000, 14:09:40.156
53, -3935.26, -3630.11, -3679.56, -3187.00, 0.000, 0.000, 0.000, 14:09:40.157
54, -3900.30, -3689.74, -3683.91, -3143.47, 0.000, 0.000, 0.000, 14:09:40.157
55, -3685.07, -3687.11, -3600.32, -3064.95, 0.000, 0.000, 0.000, 14:09:40.158
56, -3673.97, -3611.13, -3570.60, -3067.32, 0.000, 0.000, 0.000, 14:09:40.158
57, -3959.26, -3632.20, -3684.51, -3160.32, 0.000, 0.000, 0.000, 14:09:40.158
58, -3905.55, -3687.50, -3689.44, -3139.10, 0.000, 0.000, 0.000, 14:09:40.158
59, -3688.34, -3682.16, -3582.39, -3036.45, 0.000, 0.000, 0.000, 14:09:40.172
60, -3696.87, -3615.68, -3578.61, -3089.59, 0.000, 0.000, 0.000, 14:09:40.172
61, -3926.06, -3623.13, -3683.92, -3153.34, 0.000, 0.000, 0.000, 14:09:40.200
62, -3862.02, -3681.86, -3666.44, -3143.17, 0.000, 0.000, 0.000, 14:09:40.200
63, -3698.63, -3683.93, -3593.92, -3061.97, 0.000, 0.000, 0.000, 14:09:40.200
64, -3690.29, -3623.39, -3585.66, -3069.39, 0.000, 0.000, 0.000, 14:09:40.200
65, -3941.08, -3629.74, -3689.69, -3189.11, 0.000, 0.000, 0.000, 14:09:40.201
66, -3894.31, -3680.40, -3686.80, -3159.06, 0.000, 0.000, 0.000, 14:09:40.201
67, -3707.77, -3686.64, -3586.54, -3055.72, 0.000, 0.000, 0.000, 14:09:40.215
68, -3685.06, -3623.94, -3566.47, -3068.08, 0.000, 0.000, 0.000, 14:09:40.215
69, -3966.62, -3648.28, -3702.67, -3200.65, 0.000, 0.000, 0.000, 14:09:40.230
70, -3896.06, -3688.56, -3684.04, -3161.53, 0.000, 0.000, 0.000, 14:09:40.230
71, -3688.57, -3698.68, -3589.65, -3057.76, 0.000, 0.000, 0.000, 14:09:40.231
72, -3686.31, -3610.56, -3576.38, -3064.39, 0.000, 0.000, 0.000, 14:09:40.231
73, -3957.72, -3636.79, -3703.28, -3185.02, 0.000, 0.000, 0.000, 14:09:40.245
74, -3899.39, -3686.43, -3682.56, -3134.33, 0.000, 0.000, 0.000, 14:09:40.245
75, -3695.97, -3680.21, -3579.95, -3060.96, 0.000, 0.000, 0.000, 14:09:40.260
76, -3676.24, -3613.47, -3557.30, -3066.46, 0.000, 0.000, 0.000, 14:09:40.260
77, -3945.78, -3641.53, -3689.47, -3191.32, 0.000, 0.000, 0.000, 14:09:40.261
78, -3876.20, -3700.45, -3670.27, -3150.27, 0.000, 0.000, 0.000, 14:09:40.261
79, -3693.69, -3692.45, -3587.47, -3051.11, 0.000, 0.000, 0.000, 14:09:40.275
80, -3685.05, -3626.19, -3568.73, -3071.02, 0.000, 0.000, 0.000, 14:09:40.275
81, -3945.25, -3639.66, -3699.74, -3184.37, 0.000, 0.000, 0.000, 14:09:40.291
82, -3893.18, -3688.24, -3677.16, -3154.95, 0.000, 0.000, 0.000, 14:09:40.291
83, -3698.90, -3676.90, -3573.79, -3050.76, 0.000, 0.000, 0.000, 14:09:40.292
84, -3701.08, -3611.41, -3565.50, -3068.17, 0.000, 0.000, 0.000, 14:09:40.292
85, -3974.87, -3638.53, -3701.83, -3188.45, 0.000, 0.000, 0.000, 14:09:40.312
86, -3870.32, -3686.95, -3681.96, -3147.74, 0.000, 0.000, 0.000, 14:09:40.312
87, -3652.66, -3686.56, -3584.76, -3044.54, 0.000, 0.000, 0.000, 14:09:40.321
88, -3667.92, -3614.67, -3572.44, -3071.78, 0.000, 0.000, 0.000, 14:09:40.321
89, -3940.50, -3635.49, -3688.02, -3204.30, 0.000, 0.000, 0.000, 14:09:40.322
90, -3875.77, -3703.60, -3680.73, -3183.92, 0.000, 0.000, 0.000, 14:09:40.322
91, -3671.41, -3680.07, -3584.00, -3090.71, 0.000, 0.000, 0.000, 14:09:40.350
92, -3685.92, -3607.93, -3569.88, -3105.42, 0.000, 0.000, 0.000, 14:09:40.351
93, -3955.62, -3640.27, -3695.02, -3226.66, 0.000, 0.000, 0.000, 14:09:40.351
94, -3904.64, -3696.15, -3675.39, -3172.53, 0.000, 0.000, 0.000, 14:09:40.351
95, -3691.65, -3697.28, -3593.15, -3084.27, 0.000, 0.000, 0.000, 14:09:40.352
96, -3693.47, -3600.60, -3574.71, -3083.55, 0.000, 0.000, 0.000, 14:09:40.352
97, -3956.18, -3636.14, -3707.36, -3212.76, 0.000, 0.000, 0.000, 14:09:40.365
98, -3883.37, -3690.35, -3667.53, -3171.29, 0.000, 0.000, 0.000, 14:09:40.365
99, -3680.21, -3691.26, -3592.27, -3071.85, 0.000, 0.000, 0.000, 14:09:40.381
100, -3700.41, -3613.02, -3565.98, -3079.31, 0.000, 0.000, 0.000, 14:09:40.381
101, -3952.51, -3643.33, -3688.27, -3203.83, 0.000, 0.000, 0.000, 14:09:40.381
102, -3886.00, -3689.09, -3676.79, -3164.50, 0.000, 0.000, 0.000, 14:09:40.381
103, -3660.87, -3695.03, -3588.72, -3074.37, 0.000, 0.000, 0.000, 14:09:40.396
104, -3692.12, -3635.87, -3559.29, -3067.37, 0.000, 0.000, 0.000, 14:09:40.396
105, -3958.47, -3659.06, -3706.38, -3183.23, 0.000, 0.000, 0.000, 14:09:40.425
106, -3860.56, -3701.12, -3671.28, -3139.39, 0.000, 0.000, 0.000, 14:09:40.425
107, -3659.95, -3700.38, -3577.62, -3068.71, 0.000, 0.000, 0.000, 14:09:40.426
108, -3666.58, -3605.53, -3566.41, -3063.88, 0.000, 0.000, 0.000, 14:09:40.426
109, -3929.65, -3647.81, -3698.84, -3185.41, 0.000, 0.000, 0.000, 14:09:40.426
110, -3826.92, -3695.20, -3677.70, -3122.63, 0.000, 0.000, 0.000, 14:09:40.427
111, -3613.27, -3720.87, -3565.96, -3050.81, 0.000, 0.000, 0.000, 14:09:40.427
112, -3616.64, -3639.45, -3571.35, -3050.60, 0.000, 0.000, 0.000, 14:09:40.427
113, -3859.26, -3675.29, -3674.53, -3158.93, 0.000, 0.000, 0.000, 14:09:40.440
114, -3779.73, -3752.78, -3676.51, -3116.68, 0.000, 0.000, 0.000, 14:09:40.440
115, -3546.45, -3757.22, -3579.92, -3049.37, 0.000, 0.000, 0.000, 14:09:40.456
116, -3585.53, -3665.41, -3558.67, -3057.54, 0.000, 0.000, 0.000, 14:09:40.456
117, -3829.25, -3689.71, -3684.76, -3179.07, 0.000, 0.000, 0.000, 14:09:40.472
118, -3800.52, -3744.83, -3670.31, -3132.35, 0.000, 0.000, 0.000, 14:09:40.472
119, -3620.86, -3721.49, -3572.16, -3056.81, 0.000, 0.000, 0.000, 14:09:40.473
120, -3660.00, -3648.69, -3576.44, -3084.63, 0.000, 0.000, 0.000, 14:09:40.473
121, -3922.90, -3656.08, -3689.19, -3166.34, 0.000, 0.000, 0.000, 14:09:40.500
122, -3860.02, -3702.97, -3670.87, -3150.10, 0.000, 0.000, 0.000, 14:09:40.500
123, -3681.71, -3687.69, -3582.58, -3054.74, 0.000, 0.000, 0.000, 14:09:40.501
124, -3705.90, -3608.22, -3578.67, -3078.01, 0.000, 0.000, 0.000, 14:09:40.501
125, -3971.01, -3631.98, -3702.72, -3184.96, 0.000, 0.000, 0.000, 14:09:40.501
126, -3878.39, -3682.66, -3679.62, -3155.36, 0.000, 0.000, 0.000, 14:09:40.501
127, -3674.94, -3667.14, -3591.41, -3070.40, 0.000, 0.000, 0.000, 14:09:40.516
128, -3763.06, -3594.13, -3582.34, -3091.49, 0.000, 0.000, 0.000, 14:09:40.516
129, -3982.32, -3616.96, -3699.61, -3204.52, 0.000, 0.000, 0.000, 14:09:40.531
130, -3932.45, -3668.14, -3687.15, -3148.23, 0.000, 0.000, 0.000, 14:09:40.531
131, -3700.34, -3653.37, -3573.09, -3070.20, 0.000, 0.000, 0.000, 14:09:40.560
132, -3753.05, -3584.10, -3576.29, -3073.80, 0.000, 0.000, 0.000, 14:09:40.560
133, -3998.65, -3614.97, -3694.20, -3168.12, 0.000, 0.000, 0.000, 14:09:40.561
134, -3918.89, -3668.83, -3681.86, -3122.81, 0.000, 0.000, 0.000, 14:09:40.561
135, -3716.10, -3673.90, -3597.20, -3068.12, 0.000, 0.000, 0.000, 14:09:40.562
136, -3731.63, -3593.67, -3582.08, -3087.61, 0.000, 0.000, 0.000, 14:09:40.562
137, -3986.93, -3626.61, -3710.91, -3190.85, 0.000, 0.000, 0.000, 14:09:40.562
138, -3912.13, -3673.20, -3672.45, -3155.73, 0.000, 0.000, 0.000, 14:09:40.562
139, -3708.28, -3666.54, -3584.37, -3062.59, 0.000, 0.000, 0.000, 14:09:40.576
140, -3737.12, -3594.44, -3594.24, -3092.26, 0.000, 0.000, 0.000, 14:09:40.576
141, -3972.50, -3606.10, -3691.25, -3177.90, 0.000, 0.000, 0.000, 14:09:40.590
142, -3891.12, -3662.88, -3664.39, -3132.68, 0.000, 0.000, 0.000, 14:09:40.590
143, -3695.00, -3663.78, -3578.99, -3042.38, 0.000, 0.000, 0.000, 14:09:40.591
144, -3716.68, -3584.59, -3570.15, -3088.53, 0.000, 0.000, 0.000, 14:09:40.591
145, -3987.48, -3635.62, -3694.80, -3192.26, 0.000, 0.000, 0.000, 14:09:40.605
146, -3855.25, -3662.91, -3679.68, -3130.58, 0.000, 0.000, 0.000, 14:09:40.605
147, -3679.75, -3665.00, -3577.18, -3043.58, 0.000, 0.000, 0.000, 14:09:40.622
148, -3729.55, -3594.63, -3571.08, -3079.21, 0.000, 0.000, 0.000, 14:09:40.622
149, -3985.50, -3649.18, -3710.42, -3218.62, 0.000, 0.000, 0.000, 14:09:40.622
150, -3910.19, -3691.36, -3676.92, -3161.81, 0.000, 0.000, 0.000, 14:09:40.622
151, -3694.30, -3675.98, -3582.11, -3057.53, 0.000, 0.000, 0.000, 14:09:40.635
152, -3731.72, -3578.71, -3561.38, -3081.04, 0.000, 0.000, 0.000, 14:09:40.635
153, -3950.12, -3612.71, -3685.75, -3150.82, 0.000, 0.000, 0.000, 14:09:40.650
154, -3893.35, -3694.94, -3680.95, -3163.25, 0.000, 0.000, 0.000, 14:09:40.650
155, -3644.55, -3665.49, -3548.20, -3038.08, 0.000, 0.000, 0.000, 14:09:40.658
156, -3741.00, -3617.76, -3612.38, -3107.09, 0.000, 0.000, 0.000, 14:09:40.658
157, -3986.97, -3627.08, -3696.73, -3192.99, 0.000, 0.000, 0.000, 14:09:40.665
158, -3897.17, -3687.38, -3670.23, -3139.48, 0.000, 0.000, 0.000, 14:09:40.666
159, -3673.78, -3667.32, -3562.70, -3058.83, 0.000, 0.000, 0.000, 14:09:40.681
160, -3695.13, -3579.21, -3580.03, -3053.12, 0.000, 0.000, 0.000, 14:09:40.681
161, -3922.49, -3616.50, -3666.38, -3178.34, 0.000, 0.000, 0.000, 14:09:40.681
162, -3880.75, -3686.74, -3664.19, -3158.74, 0.000, 0.000, 0.000, 14:09:40.681
163, -3673.36, -3656.35, -3560.43, -3038.63, 0.000, 0.000, 0.000, 14:09:40.710
164, -3725.84, -3608.46, -3597.80, -3080.74, 0.000, 0.000, 0.000, 14:09:40.711
165, -3987.17, -3642.65, -3682.88, -3195.32, 0.000, 0.000, 0.000, 14:09:40.711
166, -3856.77, -3666.18, -3674.67, -3140.17, 0.000, 0.000, 0.000, 14:09:40.711
167, -3670.84, -3670.14, -3563.97, -3036.43, 0.000, 0.000, 0.000, 14:09:40.712
168, -3735.47, -3595.81, -3565.69, -3087.88, 0.000, 0.000, 0.000, 14:09:40.712
169, -3967.25, -3631.83, -3680.92, -3182.35, 0.000, 0.000, 0.000, 14:09:40.725
170, -3862.62, -3680.31, -3667.44, -3135.92, 0.000, 0.000, 0.000, 14:09:40.725
171, -3672.43, -3683.09, -3579.32, -3065.80, 0.000, 0.000, 0.000, 14:09:40.740
172, -3716.67, -3598.32, -3570.85, -3092.29, 0.000, 0.000, 0.000, 14:09:40.740
173, -3969.79, -3635.74, -3711.99, -3184.80, 0.000, 0.000, 0.000, 14:09:40.756
174, -3854.91, -3680.44, -3671.71, -3136.36, 0.000, 0.000, 0.000, 14:09:40.756
175, -3676.59, -3669.75, -3571.11, -3029.34, 0.000, 0.000, 0.000, 14:09:40.756
176, -3743.85, -3609.36, -3601.53, -3098.25, 0.000, 0.000, 0.000, 14:09:40.756
177, -3962.00, -3629.64, -3671.03, -3187.90, 0.000, 0.000, 0.000, 14:09:40.771
178, -3880.42, -3696.09, -3689.98, -3141.28, 0.000, 0.000, 0.000, 14:09:40.771
179, -3646.30, -3665.39, -3564.83, -3047.07, 0.000, 0.000, 0.000, 14:09:40.772
180, -3725.53, -3603.52, -3591.18, -3093.62, 0.000, 0.000, 0.000, 14:09:40.772
181, -3948.65, -3635.53, -3694.54, -3180.78, 0.000, 0.000, 0.000, 14:09:40.786
182, -3877.05, -3696.79, -3677.15, -3141.36, 0.000, 0.000, 0.000, 14:09:40.786
183, -3675.17, -3674.67, -3562.97, -3038.63, 0.000, 0.000, 0.000, 14:09:40.800
184, -3728.66, -3594.85, -3577.54, -3094.10, 0.000, 0.000, 0.000, 14:09:40.800
185, -3964.27, -3642.19, -3696.91, -3184.87, 0.000, 0.000, 0.000, 14:09:40.801
186, -3872.23, -3679.46, -3659.20, -3133.20, 0.000, 0.000, 0.000, 14:09:40.801
187, -3674.51, -3676.57, -3576.87, -3041.72, 0.000, 0.000, 0.000, 14:09:40.816
188, -3722.56, -3587.74, -3575.18, -3078.96, 0.000, 0.000, 0.000, 14:09:40.816
189, -3941.94, -3643.63, -3704.35, -3206.48, 0.000, 0.000, 0.000, 14:09:40.831
190, -3858.54, -3691.86, -3658.88, -3130.82, 0.000, 0.000, 0.000, 14:09:40.831
191, -3647.54, -3671.76, -3567.24, -3035.79, 0.000, 0.000, 0.000, 14:09:40.831
192, -3701.35, -3599.89, -3572.57, -3086.01, 0.000, 0.000, 0.000, 14:09:40.831
193, -3981.59, -3670.68, -3709.15, -3226.97, 0.000, 0.000, 0.000, 14:09:40.846
194, -3875.55, -3684.07, -3665.30, -3117.89, 0.000, 0.000, 0.000, 14:09:40.846
195, -3676.61, -3686.36, -3577.65, -3048.34, 0.000, 0.000, 0.000, 14:09:40.860
196, -3734.90, -3606.33, -3594.45, -3089.15, 0.000, 0.000, 0.000, 14:09:40.861
197, -3962.07, -3635.68, -3701.96, -3182.32, 0.000, 0.000, 0.000, 14:09:40.861
198, -3859.87, -3696.30, -3662.94, -3119.13, 0.000, 0.000, 0.000, 14:09:40.862
199, -3649.63, -3676.31, -3586.34, -3016.81, 0.000, 0.000, 0.000, 14:09:40.875
200, -3742.20, -3613.53, -3599.41, -3112.15, 0.000, 0.000, 0.000, 14:09:40.875
0, -3965.49, -3646.46, -3709.49, -3172.74, 0.000, 0.000, 0.000, 14:09:40.876
1, -3851.93, -3691.67, -3676.25, -3170.57, 0.000, 0.000, 0.000, 14:09:40.890
2, -3665.04, -3663.83, -3579.47, -3025.92, 0.000, 0.000, 0.000, 14:09:40.890
3, -3726.48, -3603.38, -3593.26, -3087.01, 0.000, 0.000, 0.000, 14:09:40.906
4, -3977.26, -3663.53, -3713.53, -3165.67, 0.000, 0.000, 0.000, 14:09:40.906
5, -3862.45, -3698.77, -3682.02, -3122.70, 0.000, 0.000, 0.000, 14:09:40.906
6, -3669.29, -3694.67, -3589.23, -3058.80, 0.000, 0.000, 0.000, 14:09:40.906
7, -3716.73, -3602.38, -3588.59, -3083.68, 0.000, 0.000, 0.000, 14:09:40.920
8, -3975.53, -3651.58, -3711.96, -3198.55, 0.000, 0.000, 0.000, 14:09:40.921
9, -3864.30, -3696.13, -3688.53, -3144.03, 0.000, 0.000, 0.000, 14:09:40.936
10, -3663.11, -3673.74, -3573.81, -3048.27, 0.000, 0.000, 0.000, 14:09:40.936
11, -3715.99, -3616.46, -3602.22, -3097.59, 0.000, 0.000, 0.000, 14:09:40.942
12, -3961.89, -3646.55, -3705.69, -3177.14, 0.000, 0.000, 0.000, 14:09:40.942
13, -3875.08, -3707.09, -3686.07, -3141.52, 0.000, 0.000, 0.000, 14:09:40.950
14, -3657.75, -3675.91, -3575.82, -3048.21, 0.000, 0.000, 0.000, 14:09:40.950
15, -3716.68, -3599.28, -3594.23, -3089.40, 0.000, 0.000, 0.000, 14:09:40.965
16, -3930.57, -3637.42, -3694.67, -3174.69, 0.000, 0.000, 0.000, 14:09:40.965
17, -3851.02, -3704.01, -3668.52, -3135.48, 0.000, 0.000, 0.000, 14:09:40.966
18, -3649.11, -3667.99, -3570.87, -3036.59, 0.000, 0.000, 0.000, 14:09:40.966
19, -3742.27, -3610.27, -3597.94, -3088.57, 0.000, 0.000, 0.000, 14:09:40.980
20, -3975.98, -3649.60, -3696.56, -3185.30, 0.000, 0.000, 0.000, 14:09:40.980
21, -3838.98, -3695.18, -3679.79, -3135.77, 0.000, 0.000, 0.000, 14:09:40.995
22, -3647.65, -3675.35, -3577.49, -3032.98, 0.000, 0.000, 0.000, 14:09:40.995
23, -3738.01, -3599.81, -3596.27, -3077.65, 0.000, 0.000, 0.000, 14:09:40.995
24, -3959.46, -3649.37, -3705.11, -3205.12, 0.000, 0.000, 0.000, 14:09:40.996
25, -3846.77, -3697.84, -3673.89, -3132.43, 0.000, 0.000, 0.000, 14:09:41.011
26, -3658.88, -3676.56, -3582.96, -3042.09, 0.000, 0.000, 0.000, 14:09:41.011
27, -3750.59, -3603.88, -3592.74, -3083.25, 0.000, 0.000, 0.000, 14:09:41.026
28, -3941.26, -3643.36, -3696.65, -3190.56, 0.000, 0.000, 0.000, 14:09:41.026
29, -3865.22, -3704.72, -3669.87, -3146.63, 0.000, 0.000, 0.000, 14:09:41.026
30, -3654.35, -3672.93, -3571.37, -3036.06, 0.000, 0.000, 0.000, 14:09:41.026
31, -3730.19, -3604.28, -3597.10, -3083.94, 0.000, 0.000, 0.000, 14:09:41.040
32, -3960.96, -3644.18, -3707.85, -3164.85, 0.000, 0.000, 0.000, 14:09:41.040
33, -3851.40, -3691.71, -3662.83, -3148.18, 0.000, 0.000, 0.000, 14:09:41.056
34, -3664.80, -3685.43, -3576.58, -3062.37, 0.000, 0.000, 0.000, 14:09:41.056
35, -3737.65, -3593.94, -3588.83, -3058.00, 0.000, 0.000, 0.000, 14:09:41.056
36, -3956.17, -3649.78, -3699.67, -3164.15, 0.000, 0.000, 0.000, 14:09:41.056
37, -3854.19, -3700.20, -3675.69, -3135.96, 0.000, 0.000, 0.000, 14:09:41.071
38, -3654.73, -3680.67, -3579.54, -3037.00, 0.000, 0.000, 0.000, 14:09:41.071
39, -3760.13, -3598.67, -3595.81, -3082.86, 0.000, 0.000, 0.000, 14:09:41.100
40, -3970.99, -3649.71, -3711.35, -3175.90, 0.000, 0.000, 0.000, 14:09:41.100
41, -3831.30, -3692.57, -3676.89, -3131.97, 0.000, 0.000, 0.000, 14:09:41.101
42, -3652.62, -3673.71, -3573.85, -3039.34, 0.000, 0.000, 0.000, 14:09:41.101
43, -3736.18, -3595.79, -3595.79, -3083.86, 0.000, 0.000, 0.000, 14:09:41.102
44, -3969.27, -3647.07, -3697.01, -3183.20, 0.000, 0.000, 0.000, 14:09:41.102
45, -3860.81, -3680.66, -3657.38, -3125.16, 0.000, 0.000, 0.000, 14:09:41.102
46, -3642.93, -3670.28, -3587.40, -3054.78, 0.000, 0.000, 0.000, 14:09:41.102
47, -3735.89, -3592.05, -3599.17, -3094.46, 0.000, 0.000, 0.000, 14:09:41.116
48, -3939.06, -3643.14, -3700.97, -3174.75, 0.000, 0.000, 0.000, 14:09:41.116
49, -3868.70, -3691.77, -3681.66, -3128.91, 0.000, 0.000, 0.000, 14:09:41.131
50, -3659.31, -3664.04, -3573.97, -3040.71, 0.000, 0.000, 0.000, 14:09:41.131
51, -3738.22, -3587.88, -3585.47, -3104.91, 0.000, 0.000, 0.000, 14:09:41.145
52, -3954.28, -3647.15, -3695.78, -3183.12, 0.000, 0.000, 0.000, 14:09:41.145
53, -3842.68, -3686.43, -3657.38, -3119.09, 0.000, 0.000, 0.000, 14:09:41.146
54, -3656.54, -3682.13, -3575.89, -3048.61, 0.000, 0.000, 0.000, 14:09:41.146
55, -3748.93, -3602.39, -3590.11, -3089.46, 0.000, 0.000, 0.000, 14:09:41.175
56, -3952.00, -3646.85, -3693.80, -3186.51, 0.000, 0.000, 0.000, 14:09:41.175
57, -3835.91, -3690.33, -3659.59, -3121.77, 0.000, 0.000, 0.000, 14:09:41.175
58, -3637.52, -3668.63, -3565.61, -3033.35, 0.000, 0.000, 0.000, 14:09:41.175
59, -3728.60, -3596.28, -3593.78, -3082.16, 0.000, 0.000, 0.000, 14:09:41.176
60, -3954.77, -3647.96, -3705.16, -3176.84, 0.000, 0.000, 0.000, 14:09:41.176
61, -3846.02, -3676.96, -3659.82, -3122.95, 0.000, 0.000, 0.000, 14:09:41.191
62, -3649.99, -3685.06, -3573.51, -3041.92, 0.000, 0.000, 0.000, 14:09:41.191
63, -3746.86, -3592.07, -3585.04, -3091.78, 0.000, 0.000, 0.000, 14:09:41.206
64, -3976.26, -3647.40, -3700.85, -3192.33, 0.000, 0.000, 0.000, 14:09:41.206
65, -3857.09, -3684.96, -3665.92, -3121.34, 0.000, 0.000, 0.000, 14:09:41.206
66, -3631.88, -3673.21, -3582.67, -3030.78, 0.000, 0.000, 0.000, 14:09:41.206
67, -3745.18, -3596.98, -3594.51, -3115.92, 0.000, 0.000, 0.000, 14:09:41.222
68, -3937.44, -3640.47, -3701.87, -3187.74, 0.000, 0.000, 0.000, 14:09:41.222
69, -3837.19, -3686.51, -3674.34, -3122.43, 0.000, 0.000, 0.000, 14:09:41.236
70, -3664.04, -3681.42, -3569.84, -3037.68, 0.000, 0.000, 0.000, 14:09:41.236
71, -3755.31, -3599.80, -3597.95, -3085.16, 0.000, 0.000, 0.000, 14:09:41.236
72, -3967.23, -3653.70, -3700.44, -3187.40, 0.000, 0.000, 0.000, 14:09:41.237
73, -3852.11, -3692.27, -3668.59, -3133.48, 0.000, 0.000, 0.000, 14:09:41.250
74, -3666.31, -3672.00, -3580.12, -3051.84, 0.000, 0.000, 0.000, 14:09:41.250
75, -3759.76, -3585.08, -3585.32, -3101.50, 0.000, 0.000, 0.000, 14:09:41.266
76, -3936.99, -3640.99, -3695.97, -3178.51, 0.000, 0.000, 0.000, 14:09:41.266
77, -3830.35, -3683.64, -3664.35, -3132.61, 0.000, 0.000, 0.000, 14:09:41.266
78, -3637.14, -3669.80, -3570.46, -3034.21, 0.000, 0.000, 0.000, 14:09:41.266
79, -3745.36, -3599.93, -3597.97, -3102.77, 0.000, 0.000, 0.000, 14:09:41.281
80, -3947.03, -3637.60, -3687.50, -3158.96, 0.000, 0.000, 0.000, 14:09:41.281
81, -3844.43, -3691.96, -3661.01, -3130.10, 0.000, 0.000, 0.000, 14:09:41.295
82, -3678.70, -3690.02, -3588.51, -3056.95, 0.000, 0.000, 0.000, 14:09:41.296
83, -3783.50, -3601.04, -3600.58, -3105.86, 0.000, 0.000, 0.000, 14:09:41.296
84, -3946.54, -3649.32, -3704.78, -3176.14, 0.000, 0.000, 0.000, 14:09:41.296
85, -3834.81, -3696.02, -3671.02, -3113.67, 0.000, 0.000, 0.000, 14:09:41.311
86, -3646.58, -3670.56, -3570.63, -3037.75, 0.000, 0.000, 0.000, 14:09:41.311
87, -3752.28, -3609.41, -3611.71, -3093.95, 0.000, 0.000, 0.000, 14:09:41.325
88, -3965.98, -3658.91, -3696.59, -3179.83, 0.000, 0.000, 0.000, 14:09:41.325
89, -3838.60, -3695.34, -3667.64, -3136.03, 0.000, 0.000, 0.000, 14:09:41.326
90, -3642.41, -3674.08, -3570.95, -3043.44, 0.000, 0.000, 0.000, 14:09:41.326
91, -3754.33, -3595.09, -3596.39, -3111.85, 0.000, 0.000, 0.000, 14:09:41.340
92, -3945.38, -3640.80, -3697.82, -3176.84, 0.000, 0.000, 0.000, 14:09:41.340
93, -3843.03, -3685.84, -3663.61, -3117.57, 0.000, 0.000, 0.000, 14:09:41.356
94, -3648.74, -3666.38, -3556.04, -3033.81, 0.000, 0.000, 0.000, 14:09:41.356
95, -3755.83, -3600.54, -3605.78, -3116.79, 0.000, 0.000, 0.000, 14:09:41.356
96, -3969.22, -3653.35, -3718.97, -3176.20, 0.000, 0.000, 0.000, 14:09:41.357
97, -3836.90, -3682.80, -3660.98, -3111.10, 0.000, 0.000, 0.000, 14:09:41.371
98, -3629.31, -3667.03, -3580.58, -3032.52, 0.000, 0.000, 0.000, 14:09:41.371
99, -3771.21, -3606.91, -3605.30, -3120.53, 0.000, 0.000, 0.000, 14:09:41.385
100, -3939.16, -3654.46, -3689.54, -3180.57, 0.000, 0.000, 0.000, 14:09:41.385
101, -3820.71, -3686.57, -3653.29, -3121.23, 0.000, 0.000, 0.000, 14:09:41.386
102, -3641.85, -3671.46, -3569.89, -3047.37, 0.000, 0.000, 0.000, 14:09:41.387
103, -3760.10, -3593.69, -3596.53, -3094.22, 0.000, 0.000, 0.000, 14:09:41.400
104, -3951.34, -3661.43, -3701.13, -3173.19, 0.000, 0.000, 0.000, 14:09:41.400
105, -3850.42, -3697.85, -3660.02, -3114.81, 0.000, 0.000, 0.000, 14:09:41.415
106, -3663.73, -3674.89, -3582.01, -3054.50, 0.000, 0.000, 0.000, 14:09:41.415
107, -3765.42, -3599.77, -3614.48, -3120.21, 0.000, 0.000, 0.000, 14:09:41.416
108, -3955.38, -3648.72, -3696.70, -3168.03, 0.000, 0.000, 0.000, 14:09:41.417
109, -3837.19, -3689.79, -3652.68, -3110.96, 0.000, 0.000, 0.000, 14:09:41.431
110, -3650.68, -3683.70, -3569.51, -3034.73, 0.000, 0.000, 0.000, 14:09:41.431
111, -3777.04, -3599.29, -3598.50, -3102.70, 0.000, 0.000, 0.000, 14:09:41.445
112, -3962.28, -3649.94, -3705.17, -3191.93, 0.000, 0.000, 0.000, 14:09:41.446
113, -3835.34, -3691.89, -3660.34, -3115.04, 0.000, 0.000, 0.000, 14:09:41.446
114, -3657.49, -3683.89, -3573.28, -3056.77, 0.000, 0.000, 0.000, 14:09:41.446
115, -3775.00, -3596.68, -3605.56, -3111.53, 0.000, 0.000, 0.000, 14:09:41.476
116, -3956.52, -3654.91, -3707.79, -3158.86, 0.000, 0.000, 0.000, 14:09:41.476
117, -3818.96, -3679.73, -3670.27, -3110.93, 0.000, 0.000, 0.000, 14:09:41.476
118, -3655.72, -3674.72, -3579.50, -3050.89, 0.000, 0.000, 0.000, 14:09:41.476
119, -3780.32, -3593.82, -3592.82, -3104.49, 0.000, 0.000, 0.000, 14:09:41.477
120, -3941.48, -3646.59, -3695.95, -3172.61, 0.000, 0.000, 0.000, 14:09:41.477
121, -3824.39, -3691.18, -3665.83, -3104.87, 0.000, 0.000, 0.000, 14:09:41.491
122, -3625.35, -3659.62, -3560.66, -3035.55, 0.000, 0.000, 0.000, 14:09:41.491
123, -3763.57, -3591.07, -3598.36, -3103.72, 0.000, 0.000, 0.000, 14:09:41.505
124, -3976.59, -3649.62, -3709.31, -3173.99, 0.000, 0.000, 0.000, 14:09:41.505
125, -3841.28, -3686.45, -3655.16, -3106.45, 0.000, 0.000, 0.000, 14:09:41.505
126, -3648.87, -3664.10, -3572.47, -3029.47, 0.000, 0.000, 0.000, 14:09:41.506
127, -3782.63, -3602.89, -3619.30, -3121.45, 0.000, 0.000, 0.000, 14:09:41.521
128, -3960.59, -3648.86, -3706.38, -3175.19, 0.000, 0.000, 0.000, 14:09:41.521
129, -3821.39, -3686.17, -3658.22, -3127.00, 0.000, 0.000, 0.000, 14:09:41.537
130, -3649.77, -3688.47, -3575.05, -3028.19, 0.000, 0.000, 0.000, 14:09:41.537
131, -3779.67, -3616.22, -3606.82, -3114.03, 0.000, 0.000, 0.000, 14:09:41.538
132, -3967.99, -3668.19, -3693.56, -3161.34, 0.000, 0.000, 0.000, 14:09:41.538
133, -3824.72, -3711.14, -3657.03, -3108.76, 0.000, 0.000, 0.000, 14:09:41.551
134, -3617.73, -3675.90, -3563.85, -3026.10, 0.000, 0.000, 0.000, 14:09:41.551
135, -3747.17, -3620.46, -3596.97, -3094.65, 0.000, 0.000, 0.000, 14:09:41.565
136, -3940.39, -3661.72, -3700.57, -3178.72, 0.000, 0.000, 0.000, 14:09:41.565
137, -3771.35, -3714.18, -3652.87, -3109.81, 0.000, 0.000, 0.000, 14:09:41.566
138, -3576.60, -3696.75, -3553.42, -3012.23, 0.000, 0.000, 0.000, 14:09:41.566
139, -3720.58, -3602.12, -3603.83, -3108.81, 0.000, 0.000, 0.000, 14:09:41.580
140, -3873.99, -3688.87, -3690.32, -3160.55, 0.000, 0.000, 0.000, 14:09:41.580
141, -3728.59, -3733.32, -3635.03, -3095.72, 0.000, 0.000, 0.000, 14:09:41.596
142, -3499.71, -3738.53, -3551.99, -3006.55, 0.000, 0.000, 0.000, 14:09:41.596
143, -3642.87, -3676.47, -3595.49, -3093.64, 0.000, 0.000, 0.000, 14:09:41.596
144, -3824.68, -3729.36, -3687.42, -3157.02, 0.000, 0.000, 0.000, 14:09:41.596
145, -3707.87, -3751.44, -3652.70, -3099.87, 0.000, 0.000, 0.000, 14:09:41.611
146, -3545.48, -3735.02, -3568.49, -3035.33, 0.000, 0.000, 0.000, 14:09:41.611
147, -3702.19, -3653.37, -3618.16, -3114.57, 0.000, 0.000, 0.000, 14:09:41.625
148, -3909.44, -3685.71, -3691.46, -3169.37, 0.000, 0.000, 0.000, 14:09:41.625
149, -3792.46, -3718.27, -3651.04, -3107.59, 0.000, 0.000, 0.000, 14:09:41.625
150, -3611.91, -3696.31, -3560.21, -3026.14, 0.000, 0.000, 0.000, 14:09:41.626
151, -3766.21, -3613.08, -3612.58, -3116.16, 0.000, 0.000, 0.000, 14:09:41.641
152, -3962.80, -3651.25, -3702.20, -3185.15, 0.000, 0.000, 0.000, 14:09:41.641
153, -3867.30, -3674.79, -3660.52, -3114.63, 0.000, 0.000, 0.000, 14:09:41.656
154, -3683.95, -3671.82, -3586.21, -3063.88, 0.000, 0.000, 0.000, 14:09:41.656
155, -3818.14, -3590.79, -3622.90, -3125.12, 0.000, 0.000, 0.000, 14:09:41.657
156, -4010.41, -3649.91, -3717.40, -3200.93, 0.000, 0.000, 0.000, 14:09:41.657
157, -3867.87, -3664.02, -3658.37, -3108.39, 0.000, 0.000, 0.000, 14:09:41.671
158, -3690.95, -3662.91, -3580.57, -3049.37, 0.000, 0.000, 0.000, 14:09:41.671
159, -3835.06, -3577.72, -3619.97, -3131.83, 0.000, 0.000, 0.000, 14:09:41.685
160, -4002.86, -3633.56, -3716.76, -3192.41, 0.000, 0.000, 0.000, 14:09:41.685
161, -3845.63, -3644.74, -3641.13, -3097.22, 0.000, 0.000, 0.000, 14:09:41.693
162, -3673.79, -3649.06, -3572.82, -3048.97, 0.000, 0.000, 0.000, 14:09:41.693
163, -3836.27, -3584.25, -3617.55, -3124.35, 0.000, 0.000, 0.000, 14:09:41.701
164, -4009.22, -3645.28, -3720.42, -3192.47, 0.000, 0.000, 0.000, 14:09:41.701
165, -3880.98, -3671.13, -3667.78, -3124.89, 0.000, 0.000, 0.000, 14:09:41.715
166, -3665.65, -3650.96, -3579.14, -3044.30, 0.000, 0.000, 0.000, 14:09:41.715
167, -3812.79, -3584.91, -3621.48, -3113.26, 0.000, 0.000, 0.000, 14:09:41.716
168, -3980.77, -3639.98, -3689.58, -3162.40, 0.000, 0.000, 0.000, 14:09:41.716
169, -3846.37, -3686.99, -3652.78, -3117.54, 0.000, 0.000, 0.000, 14:09:41.730
170, -3658.08, -3652.03, -3566.60, -3043.64, 0.000, 0.000, 0.000, 14:09:41.730
171, -3803.71, -3574.90, -3606.20, -3124.88, 0.000, 0.000, 0.000, 14:09:41.745
172, -3978.50, -3644.87, -3718.09, -3188.26, 0.000, 0.000, 0.000, 14:09:41.745
173, -3829.41, -3663.88, -3637.98, -3106.04, 0.000, 0.000, 0.000, 14:09:41.745
174, -3685.88, -3676.56, -3573.73, -3046.93, 0.000, 0.000, 0.000, 14:09:41.745
175, -3822.38, -3594.89, -3611.79, -3115.67, 0.000, 0.000, 0.000, 14:09:41.761
176, -3987.34, -3654.61, -3701.00, -3174.01, 0.000, 0.000, 0.000, 14:09:41.761
177, -3842.63, -3686.32, -3657.96, -3121.88, 0.000, 0.000, 0.000, 14:09:41.775
178, -3653.14, -3674.32, -3580.61, -3055.47, 0.000, 0.000, 0.000, 14:09:41.775
179, -3807.55, -3636.07, -3605.07, -3122.68, 0.000, 0.000, 0.000, 14:09:41.776
180, -3946.72, -3654.65, -3679.06, -3144.09, 0.000, 0.000, 0.000, 14:09:41.776
181, -3816.55, -3703.10, -3653.47, -3126.57, 0.000, 0.000, 0.000, 14:09:41.790
182, -3640.12, -3677.18, -3567.87, -3043.36, 0.000, 0.000, 0.000, 14:09:41.791
183, -3791.30, -3620.66, -3617.89, -3102.80, 0.000, 0.000, 0.000, 14:09:41.805
184, -3909.26, -3641.83, -3694.81, -3162.56, 0.000, 0.000, 0.000, 14:09:41.805
185, -3767.26, -3746.68, -3643.64, -3084.26, 0.000, 0.000, 0.000, 14:09:41.806
186, -3543.05, -3679.23, -3552.73, -3012.22, 0.000, 0.000, 0.000, 14:09:41.806
187, -3674.46, -3628.97, -3602.74, -3099.53, 0.000, 0.000, 0.000, 14:09:41.822
188, -3802.83, -3719.03, -3680.13, -3163.72, 0.000, 0.000, 0.000, 14:09:41.822
189, -3631.12, -3759.61, -3629.46, -3070.60, 0.000, 0.000, 0.000, 14:09:41.835
190, -3457.69, -3739.78, -3538.00, -3014.09, 0.000, 0.000, 0.000, 14:09:41.835
191, -3655.58, -3672.91, -3609.79, -3098.60, 0.000, 0.000, 0.000, 14:09:41.836
192, -3812.12, -3730.82, -3694.49, -3172.86, 0.000, 0.000, 0.000, 14:09:41.836
193, -3694.10, -3741.18, -3636.74, -3109.35, 0.000, 0.000, 0.000, 14:09:41.851
194, -3561.11, -3719.40, -3559.53, -3029.96, 0.000, 0.000, 0.000, 14:09:41.851
195, -3759.84, -3645.84, -3634.68, -3121.35, 0.000, 0.000, 0.000, 14:09:41.881
196, -3920.51, -3683.91, -3699.03, -3169.33, 0.000, 0.000, 0.000, 14:09:41.881
197, -3814.53, -3705.49, -3650.58, -3114.91, 0.000, 0.000, 0.000, 14:09:41.881
198, -3667.09, -3662.55, -3574.55, -3034.09, 0.000, 0.000, 0.000, 14:09:41.881
199, -3830.33, -3580.59, -3606.45, -3136.43, 0.000, 0.000, 0.000, 14:09:41.882
200, -3977.13, -3627.09, -3693.95, -3163.98, 0.000, 0.000, 0.000, 14:09:41.882
0, -3869.73, -3678.09, -3662.50, -3122.55, 0.000, 0.000, 0.000, 14:09:41.883
1, -3699.26, -3640.38, -3569.17, -3075.79, 0.000, 0.000, 0.000, 14:09:41.896
2, -3870.07, -3569.37, -3619.59, -3132.30, 0.000, 0.000, 0.000, 14:09:41.896
3, -4026.26, -3635.30, -3700.42, -3176.41, 0.000, 0.000, 0.000, 14:09:41.910
4, -3864.73, -3665.55, -3651.03, -3116.64, 0.000, 0.000, 0.000, 14:09:41.911
5, -3681.85, -3638.23, -3569.59, -3048.76, 0.000, 0.000, 0.000, 14:09:41.911
6, -3863.45, -3569.66, -3628.27, -3141.94, 0.000, 0.000, 0.000, 14:09:41.911
7, -4003.36, -3643.00, -3713.77, -3183.35, 0.000, 0.000, 0.000, 14:09:41.940
8, -3886.09, -3684.51, -3657.43, -3118.57, 0.000, 0.000, 0.000, 14:09:41.940
9, -3696.14, -3674.18, -3567.83, -3043.77, 0.000, 0.000, 0.000, 14:09:41.942
10, -3865.98, -3582.40, -3631.13, -3135.01, 0.000, 0.000, 0.000, 14:09:41.942
11, -3984.36, -3662.28, -3696.05, -3179.08, 0.000, 0.000, 0.000, 14:09:41.942
12, -3833.71, -3655.34, -3658.02, -3118.26, 0.000, 0.000, 0.000, 14:09:41.942
13, -3621.27, -3624.52, -3560.36, -3040.05, 0.000, 0.000, 0.000, 14:09:41.956
14, -3781.86, -3629.99, -3599.03, -3105.74, 0.000, 0.000, 0.000, 14:09:41.956
15, -3894.78, -3652.06, -3698.21, -3155.12, 0.000, 0.000, 0.000, 14:09:41.972
16, -3748.70, -3721.75, -3647.21, -3095.67, 0.000, 0.000, 0.000, 14:09:41.972
17, -3547.43, -3713.75, -3539.27, -3007.65, 0.000, 0.000, 0.000, 14:09:41.972
18, -3684.90, -3649.15, -3602.36, -3080.69, 0.000, 0.000, 0.000, 14:09:41.972
19, -3822.71, -3713.78, -3683.51, -3136.97, 0.000, 0.000, 0.000, 14:09:41.986
20, -3691.91, -3752.18, -3654.56, -3089.81, 0.000, 0.000, 0.000, 14:09:41.986
21, -3519.45, -3706.07, -3546.93, -3041.40, 0.000, 0.000, 0.000, 14:09:42.016
22, -3735.62, -3634.20, -3620.75, -3118.67, 0.000, 0.000, 0.000, 14:09:42.016
23, -3926.61, -3694.73, -3706.32, -3169.38, 0.000, 0.000, 0.000, 14:09:42.016
24, -3804.60, -3713.13, -3662.82, -3103.51, 0.000, 0.000, 0.000, 14:09:42.016
25, -3642.49, -3669.05, -3572.10, -3040.92, 0.000, 0.000, 0.000, 14:09:42.017
26, -3833.22, -3593.69, -3626.50, -3131.29, 0.000, 0.000, 0.000, 14:09:42.017
27, -3998.04, -3643.23, -3698.61, -3156.49, 0.000, 0.000, 0.000, 14:09:42.018
28, -3859.01, -3656.35, -3636.71, -3110.30, 0.000, 0.000, 0.000, 14:09:42.018
29, -3714.92, -3648.42, -3572.92, -3040.36, 0.000, 0.000, 0.000, 14:09:42.031
30, -3869.55, -3575.50, -3623.68, -3127.19, 0.000, 0.000, 0.000, 14:09:42.031
31, -4018.30, -3636.42, -3716.92, -3214.40, 0.000, 0.000, 0.000, 14:09:42.046
32, -3884.97, -3666.12, -3660.45, -3125.43, 0.000, 0.000, 0.000, 14:09:42.046
33, -3686.11, -3636.30, -3572.07, -3056.33, 0.000, 0.000, 0.000, 14:09:42.060
34, -3891.20, -3563.11, -3631.74, -3126.99, 0.000, 0.000, 0.000, 14:09:42.060
35, -4027.70, -3637.89, -3713.05, -3179.96, 0.000, 0.000, 0.000, 14:09:42.060
36, -3854.13, -3651.75, -3648.93, -3102.47, 0.000, 0.000, 0.000, 14:09:42.061
37, -3686.97, -3621.04, -3557.68, -3038.14, 0.000, 0.000, 0.000, 14:09:42.076
38, -3882.42, -3576.10, -3635.00, -3143.59, 0.000, 0.000, 0.000, 14:09:42.076
39, -4013.25, -3631.19, -3705.77, -3184.07, 0.000, 0.000, 0.000, 14:09:42.106
40, -3860.12, -3662.19, -3650.59, -3112.70, 0.000, 0.000, 0.000, 14:09:42.107
41, -3674.78, -3623.33, -3558.49, -3044.73, 0.000, 0.000, 0.000, 14:09:42.107
42, -3858.36, -3573.81, -3630.90, -3135.06, 0.000, 0.000, 0.000, 14:09:42.107
43, -3972.54, -3637.97, -3698.68, -3166.95, 0.000, 0.000, 0.000, 14:09:42.107
44, -3852.87, -3673.84, -3654.40, -3112.21, 0.000, 0.000, 0.000, 14:09:42.107
45, -3669.34, -3638.70, -3562.75, -3044.00, 0.000, 0.000, 0.000, 14:09:42.108
46, -3848.06, -3566.67, -3619.69, -3132.72, 0.000, 0.000, 0.000, 14:09:42.109
47, -3986.50, -3644.59, -3708.38, -3175.00, 0.000, 0.000, 0.000, 14:09:42.121
48, -3846.72, -3677.66, -3660.49, -3112.23, 0.000, 0.000, 0.000, 14:09:42.121
49, -3671.59, -3650.63, -3565.44, -3044.92, 0.000, 0.000, 0.000, 14:09:42.136
50, -3869.57, -3585.59, -3632.45, -3133.64, 0.000, 0.000, 0.000, 14:09:42.136
51, -3980.76, -3648.21, -3707.23, -3171.19, 0.000, 0.000, 0.000, 14:09:42.152
52, -3832.62, -3678.24, -3642.41, -3110.44, 0.000, 0.000, 0.000, 14:09:42.152
53, -3668.66, -3657.54, -3564.34, -3035.79, 0.000, 0.000, 0.000, 14:09:42.158
54, -3843.62, -3592.46, -3634.86, -3133.15, 0.000, 0.000, 0.000, 14:09:42.158
55, -3999.54, -3652.94, -3713.57, -3199.88, 0.000, 0.000, 0.000, 14:09:42.165
56, -3831.42, -3682.51, -3659.71, -3103.09, 0.000, 0.000, 0.000, 14:09:42.165
57, -3615.04, -3635.35, -3561.75, -3013.59, 0.000, 0.000, 0.000, 14:09:42.180
58, -3843.61, -3591.68, -3629.66, -3127.61, 0.000, 0.000, 0.000, 14:09:42.181
59, -3963.15, -3656.13, -3697.60, -3183.83, 0.000, 0.000, 0.000, 14:09:42.181
60, -3824.23, -3688.60, -3654.87, -3113.97, 0.000, 0.000, 0.000, 14:09:42.181
61, -3645.96, -3646.08, -3560.60, -3045.45, 0.000, 0.000, 0.000, 14:09:42.195
62, -3836.44, -3584.60, -3626.51, -3114.33, 0.000, 0.000, 0.000, 14:09:42.195
63, -3952.90, -3644.49, -3693.03, -3152.19, 0.000, 0.000, 0.000, 14:09:42.210
64, -3791.94, -3682.20, -3636.49, -3083.63, 0.000, 0.000, 0.000, 14:09:42.210
65, -3644.21, -3652.29, -3568.30, -3033.66, 0.000, 0.000, 0.000, 14:09:42.211
66, -3859.32, -3593.78, -3635.94, -3143.88, 0.000, 0.000, 0.000, 14:09:42.211
67, -3972.43, -3665.75, -3710.05, -3196.46, 0.000, 0.000, 0.000, 14:09:42.225
68, -3814.71, -3682.60, -3642.98, -3118.93, 0.000, 0.000, 0.000, 14:09:42.225
69, -3657.52, -3651.97, -3563.60, -3035.50, 0.000, 0.000, 0.000, 14:09:42.240
70, -3851.21, -3598.98, -3644.58, -3130.75, 0.000, 0.000, 0.000, 14:09:42.240
71, -3945.20, -3652.29, -3690.36, -3152.78, 0.000, 0.000, 0.000, 14:09:42.241
72, -3805.39, -3689.11, -3638.75, -3096.14, 0.000, 0.000, 0.000, 14:09:42.241
73, -3645.54, -3653.11, -3557.87, -3036.44, 0.000, 0.000, 0.000, 14:09:42.256
74, -3829.87, -3602.85, -3627.40, -3132.62, 0.000, 0.000, 0.000, 14:09:42.256
75, -3959.28, -3660.32, -3702.79, -3179.98, 0.000, 0.000, 0.000, 14:09:42.271
76, -3810.40, -3688.56, -3644.07, -3114.39, 0.000, 0.000, 0.000, 14:09:42.271
77, -3636.45, -3648.72, -3552.92, -3050.12, 0.000, 0.000, 0.000, 14:09:42.271
78, -3853.55, -3600.48, -3631.36, -3134.96, 0.000, 0.000, 0.000, 14:09:42.271
79, -3943.70, -3648.20, -3675.74, -3151.11, 0.000, 0.000, 0.000, 14:09:42.286
80, -3802.46, -3693.66, -3647.00, -3078.51, 0.000, 0.000, 0.000, 14:09:42.286
81, -3619.41, -3649.51, -3555.09, -3015.11, 0.000, 0.000, 0.000, 14:09:42.301
82, -3830.30, -3602.89, -3636.64, -3140.10, 0.000, 0.000, 0.000, 14:09:42.302
83, -3957.44, -3660.22, -3714.92, -3186.64, 0.000, 0.000, 0.000, 14:09:42.302
84, -3814.41, -3691.01, -3641.45, -3113.36, 0.000, 0.000, 0.000, 14:09:42.302
85, -3626.06, -3648.83, -3546.78, -3033.16, 0.000, 0.000, 0.000, 14:09:42.315
86, -3839.23, -3590.39, -3633.52, -3137.23, 0.000, 0.000, 0.000, 14:09:42.315
87, -3963.75, -3672.60, -3721.22, -3175.44, 0.000, 0.000, 0.000, 14:09:42.331
88, -3832.62, -3697.64, -3647.18, -3115.34, 0.000, 0.000, 0.000, 14:09:42.331
89, -3630.83, -3651.30, -3545.58, -3040.55, 0.000, 0.000, 0.000, 14:09:42.331
90, -3848.54, -3593.29, -3637.05, -3142.20, 0.000, 0.000, 0.000, 14:09:42.331
91, -3966.54, -3671.42, -3701.37, -3165.17, 0.000, 0.000, 0.000, 14:09:42.346
92, -3785.27, -3687.13, -3631.08, -3074.13, 0.000, 0.000, 0.000, 14:09:42.346
93, -3617.42, -3644.21, -3543.37, -3034.79, 0.000, 0.000, 0.000, 14:09:42.360
94, -3848.53, -3599.63, -3638.54, -3133.98, 0.000, 0.000, 0.000, 14:09:42.360
95, -3952.71, -3656.63, -3705.49, -3170.18, 0.000, 0.000, 0.000, 14:09:42.360
96, -3800.01, -3696.32, -3644.82, -3114.70, 0.000, 0.000, 0.000, 14:09:42.361
97, -3638.21, -3661.58, -3557.99, -3040.27, 0.000, 0.000, 0.000, 14:09:42.375
98, -3849.80, -3607.28, -3640.55, -3147.92, 0.000, 0.000, 0.000, 14:09:42.375
99, -3955.14, -3662.18, -3696.22, -3159.05, 0.000, 0.000, 0.000, 14:09:42.390
100, -3782.07, -3698.27, -3644.15, -3091.82, 0.000, 0.000, 0.000, 14:09:42.392
101, -3648.70, -3654.20, -3561.91, -3031.96, 0.000, 0.000, 0.000, 14:09:42.392
102, -3843.83, -3594.40, -3633.97, -3144.34, 0.000, 0.000, 0.000, 14:09:42.392
103, -3954.04, -3661.91, -3700.85, -3178.41, 0.000, 0.000, 0.000, 14:09:42.421
104, -3773.54, -3693.41, -3645.57, -3111.67, 0.000, 0.000, 0.000, 14:09:42.421
105, -3617.45, -3656.80, -3553.33, -3034.38, 0.000, 0.000, 0.000, 14:09:42.421
106, -3842.64, -3600.12, -3634.57, -3146.12, 0.000, 0.000, 0.000, 14:09:42.421
107, -3927.13, -3662.11, -3699.56, -3154.23, 0.000, 0.000, 0.000, 14:09:42.422
108, -3796.53, -3687.60, -3635.44, -3088.28, 0.000, 0.000, 0.000, 14:09:42.422
109, -3618.04, -3652.66, -3559.10, -3035.23, 0.000, 0.000, 0.000, 14:09:42.435
110, -3831.24, -3593.80, -3622.21, -3123.37, 0.000, 0.000, 0.000, 14:09:42.435
111, -3969.85, -3677.89, -3707.69, -3167.50, 0.000, 0.000, 0.000, 14:09:42.450
112, -3791.56, -3697.03, -3645.07, -3102.20, 0.000, 0.000, 0.000, 14:09:42.450
113, -3651.86, -3657.03, -3567.37, -3040.82, 0.000, 0.000, 0.000, 14:09:42.451
114, -3857.97, -3598.10, -3637.35, -3149.61, 0.000, 0.000, 0.000, 14:09:42.451
115, -3967.65, -3667.83, -3695.11, -3175.01, 0.000, 0.000, 0.000, 14:09:42.473
116, -3788.58, -3685.95, -3625.41, -3091.84, 0.000, 0.000, 0.000, 14:09:42.473
117, -3621.07, -3646.94, -3554.00, -3017.87, 0.000, 0.000, 0.000, 14:09:42.480
118, -3837.77, -3599.14, -3620.41, -3131.66, 0.000, 0.000, 0.000, 14:09:42.480
119, -3954.24, -3687.34, -3716.61, -3192.61, 0.000, 0.000, 0.000, 14:09:42.480
120, -3782.72, -3695.78, -3641.25, -3099.62, 0.000, 0.000, 0.000, 14:09:42.480
121, -3666.91, -3654.39, -3564.36, -3038.23, 0.000, 0.000, 0.000, 14:09:42.510
122, -3850.84, -3602.20, -3647.55, -3146.67, 0.000, 0.000, 0.000, 14:09:42.510
123, -3941.12, -3680.95, -3705.14, -3173.29, 0.000, 0.000, 0.000, 14:09:42.510
124, -3789.57, -3698.88, -3637.65, -3093.93, 0.000, 0.000, 0.000, 14:09:42.511
125, -3624.09, -3651.56, -3547.50, -3038.69, 0.000, 0.000, 0.000, 14:09:42.511
126, -3857.56, -3601.90, -3646.78, -3127.26, 0.000, 0.000, 0.000, 14:09:42.511
127, -3967.30, -3659.13, -3693.09, -3176.88, 0.000, 0.000, 0.000, 14:09:42.526
128, -3785.45, -3688.79, -3631.20, -3089.44, 0.000, 0.000, 0.000, 14:09:42.526
129, -3631.56, -3650.97, -3553.24, -3024.46, 0.000, 0.000, 0.000, 14:09:42.555
130, -3858.77, -3612.88, -3647.90, -3153.46, 0.000, 0.000, 0.000, 14:09:42.555
131, -3955.56, -3679.45, -3703.85, -3181.75, 0.000, 0.000, 0.000, 14:09:42.556
132, -3788.20, -3703.18, -3641.42, -3100.97, 0.000, 0.000, 0.000, 14:09:42.556
133, -3616.90, -3645.54, -3543.52, -3030.43, 0.000, 0.000, 0.000, 14:09:42.556
134, -3841.01, -3590.68, -3617.52, -3127.26, 0.000, 0.000, 0.000, 14:09:42.556
135, -3963.67, -3662.17, -3703.78, -3189.07, 0.000, 0.000, 0.000, 14:09:42.557
136, -3808.44, -3702.65, -3644.38, -3100.51, 0.000, 0.000, 0.000, 14:09:42.558
137, -3662.16, -3674.09, -3572.10, -3043.09, 0.000, 0.000, 0.000, 14:09:42.572
138, -3864.34, -3606.79, -3650.32, -3142.85, 0.000, 0.000, 0.000, 14:09:42.572
139, -3950.58, -3669.68, -3707.49, -3158.63, 0.000, 0.000, 0.000, 14:09:42.585
140, -3785.04, -3692.93, -3639.68, -3090.09, 0.000, 0.000, 0.000, 14:09:42.585
141, -3653.69, -3644.08, -3556.22, -3031.63, 0.000, 0.000, 0.000, 14:09:42.601
142, -3830.77, -3583.52, -3618.98, -3131.63, 0.000, 0.000, 0.000, 14:09:42.601
143, -3940.93, -3671.75, -3697.24, -3171.20, 0.000, 0.000, 0.000, 14:09:42.601
144, -3807.84, -3700.87, -3651.88, -3110.73, 0.000, 0.000, 0.000, 14:09:42.601
145, -3632.15, -3647.68, -3569.52, -3050.26, 0.000, 0.000, 0.000, 14:09:42.615
146, -3853.82, -3592.19, -3638.07, -3136.64, 0.000, 0.000, 0.000, 14:09:42.615
147, -3967.23, -3671.18, -3689.14, -3174.40, 0.000, 0.000, 0.000, 14:09:42.630
148, -3802.47, -3707.26, -3633.77, -3082.09, 0.000, 0.000, 0.000, 14:09:42.630
149, -3639.96, -3655.11, -3552.50, -3027.16, 0.000, 0.000, 0.000, 14:09:42.631
150, -3895.33, -3602.28, -3651.92, -3140.18, 0.000, 0.000, 0.000, 14:09:42.631
151, -3948.93, -3669.80, -3703.23, -3172.90, 0.000, 0.000, 0.000, 14:09:42.660
152, -3775.45, -3686.84, -3629.90, -3082.51, 0.000, 0.000, 0.000, 14:09:42.660
153, -3633.60, -3650.03, -3562.17, -3025.36, 0.000, 0.000, 0.000, 14:09:42.661
154, -3819.74, -3592.97, -3631.68, -3137.33, 0.000, 0.000, 0.000, 14:09:42.661
155, -3923.63, -3679.84, -3699.48, -3171.29, 0.000, 0.000, 0.000, 14:09:42.661
156, -3786.73, -3694.26, -3639.83, -3105.40, 0.000, 0.000, 0.000, 14:09:42.661
157, -3641.39, -3648.55, -3564.53, -3055.47, 0.000, 0.000, 0.000, 14:09:42.675
158, -3887.03, -3596.19, -3637.39, -3171.22, 0.000, 0.000, 0.000, 14:09:42.675
159, -3948.42, -3676.77, -3698.36, -3171.26, 0.000, 0.000, 0.000, 14:09:42.692
160, -3781.23, -3702.12, -3637.01, -3091.45, 0.000, 0.000, 0.000, 14:09:42.692
161, -3602.72, -3647.49, -3550.67, -3012.21, 0.000, 0.000, 0.000, 14:09:42.692
162, -3868.03, -3610.74, -3649.15, -3143.66, 0.000, 0.000, 0.000, 14:09:42.693
163, -3946.17, -3678.87, -3709.10, -3186.49, 0.000, 0.000, 0.000, 14:09:42.720
164, -3788.92, -3697.15, -3644.42, -3114.61, 0.000, 0.000, 0.000, 14:09:42.720
165, -3631.04, -3643.71, -3559.10, -3059.45, 0.000, 0.000, 0.000, 14:09:42.721
166, -3893.07, -3603.30, -3647.95, -3138.38, 0.000, 0.000, 0.000, 14:09:42.721
167, -3937.39, -3671.86, -3696.06, -3153.79, 0.000, 0.000, 0.000, 14:09:42.722
168, -3782.65, -3692.45, -3619.21, -3082.04, 0.000, 0.000, 0.000, 14:09:42.722
169, -3620.24, -3647.34, -3538.90, -3034.05, 0.000, 0.000, 0.000, 14:09:42.736
170, -3868.61, -3613.00, -3661.90, -3152.64, 0.000, 0.000, 0.000, 14:09:42.736
171, -3946.65, -3670.12, -3706.71, -3166.25, 0.000, 0.000, 0.000, 14:09:42.765
172, -3761.71, -3687.49, -3620.89, -3085.07, 0.000, 0.000, 0.000, 14:09:42.765
173, -3615.19, -3647.38, -3558.33, -3030.28, 0.000, 0.000, 0.000, 14:09:42.765
174, -3867.32, -3601.05, -3652.33, -3142.07, 0.000, 0.000, 0.000, 14:09:42.766
175, -3936.78, -3667.32, -3693.84, -3148.53, 0.000, 0.000, 0.000, 14:09:42.766
176, -3780.34, -3690.37, -3622.58, -3079.82, 0.000, 0.000, 0.000, 14:09:42.766
177, -3622.88, -3655.01, -3551.64, -3051.69, 0.000, 0.000, 0.000, 14:09:42.774
178, -3869.37, -3603.42, -3662.56, -3164.31, 0.000, 0.000, 0.000, 14:09:42.775
179, -3923.04, -3675.18, -3701.32, -3154.52, 0.000, 0.000, 0.000, 14:09:42.780
180, -3774.05, -3697.27, -3629.69, -3080.05, 0.000, 0.000, 0.000, 14:09:42.780
181, -3647.56, -3639.09, -3551.69, -3032.44, 0.000, 0.000, 0.000, 14:09:42.795
182, -3874.10, -3603.90, -3661.14, -3147.57, 0.000, 0.000, 0.000, 14:09:42.795
183, -3953.90, -3672.04, -3705.30, -3160.55, 0.000, 0.000, 0.000, 14:09:42.810
184, -3779.33, -3699.42, -3644.44, -3090.43, 0.000, 0.000, 0.000, 14:09:42.810
185, -3645.43, -3655.30, -3565.85, -3045.95, 0.000, 0.000, 0.000, 14:09:42.811
186, -3849.55, -3596.89, -3637.45, -3156.94, 0.000, 0.000, 0.000, 14:09:42.811
187, -3921.57, -3673.00, -3685.49, -3150.31, 0.000, 0.000, 0.000, 14:09:42.826
188, -3771.02, -3708.88, -3642.88, -3093.59, 0.000, 0.000, 0.000, 14:09:42.826
189, -3631.84, -3641.89, -3541.09, -3037.60, 0.000, 0.000, 0.000, 14:09:42.841
190, -3885.63, -3611.16, -3657.14, -3150.96, 0.000, 0.000, 0.000, 14:09:42.842
191, -3965.82, -3675.32, -3704.32, -3174.26, 0.000, 0.000, 0.000, 14:09:42.842
192, -3786.05, -3693.82, -3637.51, -3083.58, 0.000, 0.000, 0.000, 14:09:42.842
193, -3639.40, -3653.17, -3559.07, -3045.18, 0.000, 0.000, 0.000, 14:09:42.856
194, -3901.94, -3600.26, -3654.46, -3151.96, 0.000, 0.000, 0.000, 14:09:42.856
195, -3933.09, -3666.35, -3694.11, -3165.21, 0.000, 0.000, 0.000, 14:09:42.871
196, -3780.50, -3697.44, -3621.56, -3091.81, 0.000, 0.000, 0.000, 14:09:42.871
197, -3617.52, -3637.52, -3535.77, -3016.00, 0.000, 0.000, 0.000, 14:09:42.871
198, -3872.64, -3619.93, -3660.03, -3161.54, 0.000, 0.000, 0.000, 14:09:42.871
199, -3946.54, -3680.86, -3697.47, -3165.74, 0.000, 0.000, 0.000, 14:09:42.886
200, -3793.15, -3701.82, -3635.27, -3098.95, 0.000, 0.000, 0.000, 14:09:42.886
0, -3636.76, -3648.38, -3557.97, -3038.46, 0.000, 0.000, 0.000, 14:09:42.886
1, -3856.11, -3596.33, -3645.39, -3141.53, 0.000, 0.000, 0.000, 14:09:42.901
2, -3917.87, -3665.19, -3688.67, -3153.24, 0.000, 0.000, 0.000, 14:09:42.901
3, -3756.10, -3678.75, -3623.30, -3081.36, 0.000, 0.000, 0.000, 14:09:42.915
4, -3635.05, -3640.59, -3547.11, -3027.17, 0.000, 0.000, 0.000, 14:09:42.915
5, -3857.76, -3606.94, -3641.38, -3152.72, 0.000, 0.000, 0.000, 14:09:42.915
6, -3921.11, -3676.41, -3682.94, -3154.01, 0.000, 0.000, 0.000, 14:09:42.916
7, -3778.48, -3708.88, -3632.89, -3077.95, 0.000, 0.000, 0.000, 14:09:42.931
8, -3647.58, -3653.43, -3566.53, -3044.09, 0.000, 0.000, 0.000, 14:09:42.931
9, -3885.73, -3602.55, -3661.82, -3166.38, 0.000, 0.000, 0.000, 14:09:42.946
10, -3944.37, -3674.72, -3695.73, -3171.03, 0.000, 0.000, 0.000, 14:09:42.946
11, -3779.10, -3694.80, -3637.34, -3087.14, 0.000, 0.000, 0.000, 14:09:42.946
12, -3640.36, -3635.38, -3550.14, -3016.72, 0.000, 0.000, 0.000, 14:09:42.946
13, -3860.94, -3601.39, -3643.52, -3141.22, 0.000, 0.000, 0.000, 14:09:42.960
14, -3957.70, -3674.07, -3701.43, -3165.14, 0.000, 0.000, 0.000, 14:09:42.960
15, -3764.22, -3699.88, -3625.74, -3083.49, 0.000, 0.000, 0.000, 14:09:42.976
16, -3651.05, -3652.40, -3557.94, -3035.43, 0.000, 0.000, 0.000, 14:09:42.976
17, -3889.62, -3611.44, -3660.29, -3142.78, 0.000, 0.000, 0.000, 14:09:42.976
18, -3951.66, -3673.99, -3698.42, -3167.72, 0.000, 0.000, 0.000, 14:09:42.976
19, -3770.43, -3695.09, -3625.16, -3098.51, 0.000, 0.000, 0.000, 14:09:42.991
20, -3641.23, -3650.59, -3564.02, -3048.81, 0.000, 0.000, 0.000, 14:09:42.992
21, -3887.89, -3601.49, -3658.69, -3145.60, 0.000, 0.000, 0.000, 14:09:43.005
22, -3941.00, -3674.76, -3688.31, -3144.51, 0.000, 0.000, 0.000, 14:09:43.005
23, -3753.36, -3690.56, -3617.73, -3056.49, 0.000, 0.000, 0.000, 14:09:43.005
24, -3624.00, -3650.10, -3547.83, -3004.83, 0.000, 0.000, 0.000, 14:09:43.005
25, -3879.44, -3609.33, -3642.53, -3110.00, 0.000, 0.000, 0.000, 14:09:43.021
26, -3931.23, -3678.69, -3699.94, -3138.74, 0.000, 0.000, 0.000, 14:09:43.022
27, -3763.74, -3702.87, -3632.50, -3069.28, 0.000, 0.000, 0.000, 14:09:43.036
28, -3642.06, -3645.77, -3550.55, -3019.63, 0.000, 0.000, 0.000, 14:09:43.036
29, -3885.62, -3604.81, -3656.51, -3131.88, 0.000, 0.000, 0.000, 14:09:43.037
30, -3932.10, -3662.33, -3691.49, -3131.00, 0.000, 0.000, 0.000, 14:09:43.037
31, -3738.92, -3693.80, -3623.63, -3074.48, 0.000, 0.000, 0.000, 14:09:43.051
32, -3635.60, -3642.96, -3549.99, -3011.67, 0.000, 0.000, 0.000, 14:09:43.051
33, -3897.50, -3619.32, -3664.47, -3142.45, 0.000, 0.000, 0.000, 14:09:43.065
34, -3924.39, -3691.08, -3699.80, -3146.96, 0.000, 0.000, 0.000, 14:09:43.065
35, -3767.70, -3704.22, -3629.37, -3080.32, 0.000, 0.000, 0.000, 14:09:43.066
36, -3632.45, -3648.29, -3554.53, -3039.64, 0.000, 0.000, 0.000, 14:09:43.066
37, -3870.35, -3606.34, -3653.73, -3148.31, 0.000, 0.000, 0.000, 14:09:43.081
38, -3944.33, -3681.96, -3699.16, -3163.15, 0.000, 0.000, 0.000, 14:09:43.081
39, -3740.82, -3693.91, -3629.11, -3076.57, 0.000, 0.000, 0.000, 14:09:43.095
40, -3615.35, -3637.40, -3551.84, -3032.12, 0.000, 0.000, 0.000, 14:09:43.095
41, -3894.68, -3614.81, -3655.62, -3172.73, 0.000, 0.000, 0.000, 14:09:43.096
42, -3947.90, -3676.36, -3700.84, -3169.45, 0.000, 0.000, 0.000, 14:09:43.096
43, -3761.51, -3692.66, -3632.76, -3080.16, 0.000, 0.000, 0.000, 14:09:43.125
44, -3643.11, -3641.67, -3554.32, -3027.30, 0.000, 0.000, 0.000, 14:09:43.125
45, -3894.59, -3610.12, -3658.20, -3141.94, 0.000, 0.000, 0.000, 14:09:43.126
46, -3932.39, -3682.30, -3693.19, -3164.66, 0.000, 0.000, 0.000, 14:09:43.126
47, -3763.41, -3694.52, -3627.31, -3070.98, 0.000, 0.000, 0.000, 14:09:43.127
48, -3634.36, -3635.80, -3554.10, -3033.63, 0.000, 0.000, 0.000, 14:09:43.127
49, -3875.56, -3616.39, -3663.41, -3168.33, 0.000, 0.000, 0.000, 14:09:43.141
50, -3937.90, -3683.33, -3701.48, -3170.78, 0.000, 0.000, 0.000, 14:09:43.141
51, -3768.98, -3702.81, -3635.84, -3102.78, 0.000, 0.000, 0.000, 14:09:43.155
52, -3638.82, -3636.21, -3555.65, -3051.53, 0.000, 0.000, 0.000, 14:09:43.156
53, -3900.45, -3613.71, -3655.50, -3173.12, 0.000, 0.000, 0.000, 14:09:43.156
54, -3910.36, -3677.67, -3686.71, -3133.54, 0.000, 0.000, 0.000, 14:09:43.156
55, -3745.72, -3693.96, -3609.19, -3072.14, 0.000, 0.000, 0.000, 14:09:43.171
56, -3659.23, -3655.32, -3567.05, -3027.25, 0.000, 0.000, 0.000, 14:09:43.171
57, -3911.26, -3617.27, -3665.06, -3147.33, 0.000, 0.000, 0.000, 14:09:43.186
58, -3933.66, -3680.31, -3695.49, -3160.32, 0.000, 0.000, 0.000, 14:09:43.186
59, -3759.86, -3694.82, -3622.28, -3085.11, 0.000, 0.000, 0.000, 14:09:43.187
60, -3634.64, -3630.90, -3554.60, -3036.01, 0.000, 0.000, 0.000, 14:09:43.189
61, -3872.77, -3601.37, -3656.31, -3151.69, 0.000, 0.000, 0.000, 14:09:43.215
62, -3916.61, -3676.48, -3679.07, -3164.62, 0.000, 0.000, 0.000, 14:09:43.215
63, -3736.64, -3704.80, -3621.36, -3084.09, 0.000, 0.000, 0.000, 14:09:43.215
64, -3622.51, -3641.72, -3564.21, -3027.88, 0.000, 0.000, 0.000, 14:09:43.216
65, -3886.12, -3609.11, -3655.30, -3153.37, 0.000, 0.000, 0.000, 14:09:43.216
66, -3917.66, -3665.62, -3680.58, -3150.76, 0.000, 0.000, 0.000, 14:09:43.216
67, -3750.03, -3696.27, -3611.12, -3085.94, 0.000, 0.000, 0.000, 14:09:43.231
68, -3649.76, -3644.99, -3555.78, -3045.43, 0.000, 0.000, 0.000, 14:09:43.231
69, -3912.08, -3619.58, -3666.72, -3172.33, 0.000, 0.000, 0.000, 14:09:43.245
70, -3937.98, -3679.33, -3701.08, -3158.17, 0.000, 0.000, 0.000, 14:09:43.245
71, -3759.54, -3698.21, -3613.01, -3066.19, 0.000, 0.000, 0.000, 14:09:43.260
72, -3647.79, -3637.16, -3547.14, -3041.33, 0.000, 0.000, 0.000, 14:09:43.260
73, -3889.95, -3609.61, -3646.02, -3143.82, 0.000, 0.000, 0.000, 14:09:43.261
74, -3963.06, -3695.26, -3710.93, -3172.30, 0.000, 0.000, 0.000, 14:09:43.261
75, -3776.62, -3702.02, -3627.51, -3086.70, 0.000, 0.000, 0.000, 14:09:43.275
76, -3662.32, -3637.37, -3566.68, -3049.48, 0.000, 0.000, 0.000, 14:09:43.275
77, -3893.25, -3611.04, -3659.72, -3160.71, 0.000, 0.000, 0.000, 14:09:43.276
78, -3944.85, -3680.25, -3698.52, -3170.01, 0.000, 0.000, 0.000, 14:09:43.276
79, -3740.57, -3694.05, -3628.14, -3084.23, 0.000, 0.000, 0.000, 14:09:43.291
80, -3641.90, -3636.46, -3549.75, -3041.32, 0.000, 0.000, 0.000, 14:09:43.291
81, -3876.13, -3591.96, -3636.91, -3122.04, 0.000, 0.000, 0.000, 14:09:43.320
82, -3933.47, -3672.31, -3687.23, -3142.95, 0.000, 0.000, 0.000, 14:09:43.321
83, -3727.12, -3699.65, -3627.03, -3074.81, 0.000, 0.000, 0.000, 14:09:43.321
84, -3627.52, -3642.22, -3558.25, -3054.11, 0.000, 0.000, 0.000, 14:09:43.321
85, -3891.40, -3600.50, -3660.56, -3153.19, 0.000, 0.000, 0.000, 14:09:43.321
86, -3934.61, -3671.35, -3692.77, -3165.23, 0.000, 0.000, 0.000, 14:09:43.321
87, -3733.05, -3681.32, -3612.29, -3095.32, 0.000, 0.000, 0.000, 14:09:43.322
88, -3631.38, -3645.94, -3557.48, -3049.15, 0.000, 0.000, 0.000, 14:09:43.322
89, -3892.73, -3624.27, -3659.20, -3154.78, 0.000, 0.000, 0.000, 14:09:43.336
90, -3922.65, -3683.79, -3676.11, -3154.37, 0.000, 0.000, 0.000, 14:09:43.336
91, -3731.36, -3702.81, -3611.07, -3077.23, 0.000, 0.000, 0.000, 14:09:43.351
92, -3639.91, -3655.83, -3551.83, -3048.98, 0.000, 0.000, 0.000, 14:09:43.351
93, -3911.14, -3620.55, -3672.10, -3172.31, 0.000, 0.000, 0.000, 14:09:43.365
94, -3914.77, -3712.19, -3691.28, -3169.18, 0.000, 0.000, 0.000, 14:09:43.365
95, -3723.03, -3717.18, -3613.62, -3066.81, 0.000, 0.000, 0.000, 14:09:43.366
96, -3635.96, -3655.46, -3560.51, -3052.91, 0.000, 0.000, 0.000, 14:09:43.366
97, -3865.34, -3601.12, -3654.46, -3165.65, 0.000, 0.000, 0.000, 14:09:43.381
98, -3874.15, -3708.10, -3682.56, -3145.94, 0.000, 0.000, 0.000, 14:09:43.381
99, -3699.43, -3712.95, -3610.57, -3053.62, 0.000, 0.000, 0.000, 14:09:43.395
100, -3582.55, -3654.59, -3534.02, -3022.68, 0.000, 0.000, 0.000, 14:09:43.396
101, -3823.64, -3641.60, -3643.74, -3151.10, 0.000, 0.000, 0.000, 14:09:43.396
102, -3835.82, -3734.70, -3671.38, -3149.79, 0.000, 0.000, 0.000, 14:09:43.396
103, -3627.57, -3756.50, -3606.22, -3068.66, 0.000, 0.000, 0.000, 14:09:43.410
104, -3534.79, -3695.33, -3551.07, -3030.74, 0.000, 0.000, 0.000, 14:09:43.410
105, -3810.99, -3658.60, -3651.88, -3143.95, 0.000, 0.000, 0.000, 14:09:43.425
106, -3838.01, -3725.88, -3693.41, -3157.58, 0.000, 0.000, 0.000, 14:09:43.425
107, -3691.66, -3740.98, -3629.40, -3075.76, 0.000, 0.000, 0.000, 14:09:43.426
108, -3597.50, -3650.79, -3542.71, -3041.89, 0.000, 0.000, 0.000, 14:09:43.426
109, -3860.26, -3611.45, -3644.06, -3161.86, 0.000, 0.000, 0.000, 14:09:43.441
110, -3894.74, -3702.88, -3697.57, -3169.21, 0.000, 0.000, 0.000, 14:09:43.441
111, -3746.92, -3702.34, -3623.69, -3078.24, 0.000, 0.000, 0.000, 14:09:43.455
112, -3642.67, -3637.81, -3564.15, -3066.95, 0.000, 0.000, 0.000, 14:09:43.455
113, -3914.84, -3594.16, -3664.07, -3186.07, 0.000, 0.000, 0.000, 14:09:43.462
114, -3934.94, -3667.84, -3695.21, -3187.12, 0.000, 0.000, 0.000, 14:09:43.462
115, -3768.53, -3695.84, -3628.74, -3097.05, 0.000, 0.000, 0.000, 14:09:43.486
116, -3685.25, -3622.27, -3566.86, -3052.55, 0.000, 0.000, 0.000, 14:09:43.486
117, -3947.06, -3591.41, -3665.15, -3169.91, 0.000, 0.000, 0.000, 14:09:43.486
118, -3941.37, -3659.21, -3703.10, -3164.19, 0.000, 0.000, 0.000, 14:09:43.486
119, -3769.87, -3681.87, -3614.65, -3104.02, 0.000, 0.000, 0.000, 14:09:43.487
120, -3680.48, -3606.88, -3556.22, -3060.73, 0.000, 0.000, 0.000, 14:09:43.487
121, -3932.12, -3594.71, -3669.36, -3187.80, 0.000, 0.000, 0.000, 14:09:43.501
122, -3937.14, -3665.90, -3706.56, -3181.35, 0.000, 0.000, 0.000, 14:09:43.501
123, -3784.09, -3678.31, -3618.01, -3077.44, 0.000, 0.000, 0.000, 14:09:43.530
124, -3651.20, -3615.50, -3549.03, -3047.33, 0.000, 0.000, 0.000, 14:09:43.530
125, -3940.73, -3608.41, -3680.69, -3182.66, 0.000, 0.000, 0.000, 14:09:43.530
126, -3947.17, -3670.75, -3698.23, -3178.27, 0.000, 0.000, 0.000, 14:09:43.531
127, -3780.64, -3680.19, -3621.85, -3075.76, 0.000, 0.000, 0.000, 14:09:43.531
128, -3665.75, -3614.53, -3552.16, -3048.18, 0.000, 0.000, 0.000, 14:09:43.531
129, -3940.64, -3604.99, -3666.46, -3175.60, 0.000, 0.000, 0.000, 14:09:43.532
130, -3950.27, -3680.57, -3708.61, -3162.59, 0.000, 0.000, 0.000, 14:09:43.532
131, -3747.80, -3677.85, -3609.11, -3067.43, 0.000, 0.000, 0.000, 14:09:43.546
132, -3692.09, -3628.92, -3564.05, -3042.49, 0.000, 0.000, 0.000, 14:09:43.546
133, -3938.53, -3602.74, -3664.54, -3151.03, 0.000, 0.000, 0.000, 14:09:43.560
134, -3947.29, -3686.17, -3703.57, -3158.21, 0.000, 0.000, 0.000, 14:09:43.560
135, -3753.68, -3697.76, -3625.88, -3087.38, 0.000, 0.000, 0.000, 14:09:43.576
136, -3662.89, -3625.00, -3553.88, -3052.60, 0.000, 0.000, 0.000, 14:09:43.576
137, -3927.55, -3602.06, -3664.82, -3165.17, 0.000, 0.000, 0.000, 14:09:43.576
138, -3939.16, -3671.21, -3685.03, -3151.60, 0.000, 0.000, 0.000, 14:09:43.576
139, -3734.91, -3687.97, -3604.87, -3079.57, 0.000, 0.000, 0.000, 14:09:43.591
140, -3666.43, -3640.03, -3562.21, -3048.80, 0.000, 0.000, 0.000, 14:09:43.591
141, -3921.99, -3624.71, -3680.68, -3176.79, 0.000, 0.000, 0.000, 14:09:43.621
142, -3932.72, -3685.24, -3706.16, -3165.31, 0.000, 0.000, 0.000, 14:09:43.621
143, -3737.47, -3688.70, -3611.02, -3096.08, 0.000, 0.000, 0.000, 14:09:43.621
144, -3640.61, -3609.07, -3554.56, -3038.05, 0.000, 0.000, 0.000, 14:09:43.621
145, -3934.32, -3614.00, -3673.48, -3161.72, 0.000, 0.000, 0.000, 14:09:43.621
146, -3939.36, -3677.51, -3684.70, -3156.49, 0.000, 0.000, 0.000, 14:09:43.621
147, -3739.67, -3685.76, -3600.09, -3064.49, 0.000, 0.000, 0.000, 14:09:43.622
148, -3654.34, -3633.45, -3557.23, -3048.80, 0.000, 0.000, 0.000, 14:09:43.622
149, -3930.14, -3609.98, -3666.56, -3173.12, 0.000, 0.000, 0.000, 14:09:43.636
150, -3913.70, -3677.56, -3696.27, -3145.75, 0.000, 0.000, 0.000, 14:09:43.636
151, -3729.50, -3697.35, -3615.64, -3090.58, 0.000, 0.000, 0.000, 14:09:43.651
152, -3669.71, -3629.99, -3561.65, -3051.81, 0.000, 0.000, 0.000, 14:09:43.651
153, -3946.83, -3609.37, -3670.53, -3158.05, 0.000, 0.000, 0.000, 14:09:43.680
154, -3919.31, -3676.89, -3687.85, -3161.17, 0.000, 0.000, 0.000, 14:09:43.680
155, -3724.52, -3687.15, -3602.19, -3069.77, 0.000, 0.000, 0.000, 14:09:43.681
156, -3632.53, -3630.11, -3555.51, -3057.79, 0.000, 0.000, 0.000, 14:09:43.681
157, -3910.42, -3613.72, -3662.76, -3162.18, 0.000, 0.000, 0.000, 14:09:43.681
158, -3923.73, -3686.22, -3690.87, -3145.65, 0.000, 0.000, 0.000, 14:09:43.681
159, -3741.62, -3685.04, -3606.62, -3083.16, 0.000, 0.000, 0.000, 14:09:43.682
160, -3672.18, -3634.33, -3569.93, -3073.79, 0.000, 0.000, 0.000, 14:09:43.682
161, -3920.43, -3609.70, -3677.08, -3176.13, 0.000, 0.000, 0.000, 14:09:43.695
162, -3926.55, -3682.00, -3699.47, -3154.37, 0.000, 0.000, 0.000, 14:09:43.695
163, -3754.90, -3697.53, -3625.08, -3077.58, 0.000, 0.000, 0.000, 14:09:43.710
164, -3642.40, -3616.04, -3546.75, -3016.00, 0.000, 0.000, 0.000, 14:09:43.710
165, -3915.25, -3607.11, -3661.00, -3142.28, 0.000, 0.000, 0.000, 14:09:43.725
166, -3926.10, -3688.77, -3706.57, -3163.79, 0.000, 0.000, 0.000, 14:09:43.726
167, -3733.54, -3694.13, -3604.11, -3093.84, 0.000, 0.000, 0.000, 14:09:43.726
168, -3643.22, -3620.86, -3551.03, -3062.23, 0.000, 0.000, 0.000, 14:09:43.726
169, -3890.59, -3609.47, -3672.76, -3180.39, 0.000, 0.000, 0.000, 14:09:43.741
170, -3915.04, -3687.39, -3695.67, -3158.06, 0.000, 0.000, 0.000, 14:09:43.741
171, -3729.71, -3694.88, -3610.61, -3072.66, 0.000, 0.000, 0.000, 14:09:43.755
172, -3665.21, -3623.79, -3559.16, -3055.38, 0.000, 0.000, 0.000, 14:09:43.755
173, -3897.47, -3619.43, -3676.14, -3156.43, 0.000, 0.000, 0.000, 14:09:43.756
174, -3899.86, -3676.97, -3681.17, -3140.79, 0.000, 0.000, 0.000, 14:09:43.756
175, -3732.06, -3692.48, -3609.22, -3058.54, 0.000, 0.000, 0.000, 14:09:43.771
176, -3682.54, -3632.72, -3571.91, -3062.15, 0.000, 0.000, 0.000, 14:09:43.771
177, -3939.10, -3626.60, -3687.64, -3176.04, 0.000, 0.000, 0.000, 14:09:43.786
178, -3930.23, -3688.12, -3681.75, -3140.16, 0.000, 0.000, 0.000, 14:09:43.786
179, -3720.68, -3681.50, -3588.06, -3058.30, 0.000, 0.000, 0.000, 14:09:43.787
180, -3656.09, -3624.64, -3555.63, -3046.85, 0.000, 0.000, 0.000, 14:09:43.787
181, -3917.92, -3621.32, -3675.47, -3167.51, 0.000, 0.000, 0.000, 14:09:43.800
182, -3903.31, -3678.54, -3689.09, -3147.73, 0.000, 0.000, 0.000, 14:09:43.800
183, -3716.88, -3693.95, -3614.10, -3044.46, 0.000, 0.000, 0.000, 14:09:43.815
184, -3680.56, -3637.75, -3566.70, -3056.60, 0.000, 0.000, 0.000, 14:09:43.815
185, -3924.60, -3626.40, -3685.71, -3191.47, 0.000, 0.000, 0.000, 14:09:43.816
186, -3950.24, -3690.76, -3705.66, -3146.76, 0.000, 0.000, 0.000, 14:09:43.816
187, -3732.85, -3695.39, -3600.95, -3067.49, 0.000, 0.000, 0.000, 14:09:43.831
188, -3643.87, -3616.56, -3544.55, -3061.47, 0.000, 0.000, 0.000, 14:09:43.831
189, -3930.08, -3622.35, -3675.28, -3180.11, 0.000, 0.000, 0.000, 14:09:43.845
190, -3897.62, -3667.62, -3687.41, -3142.61, 0.000, 0.000, 0.000, 14:09:43.845
191, -3715.16, -3699.37, -3609.58, -3075.19, 0.000, 0.000, 0.000, 14:09:43.846
192, -3643.47, -3629.30, -3578.57, -3067.85, 0.000, 0.000, 0.000, 14:09:43.846
193, -3935.57, -3619.10, -3673.93, -3167.86, 0.000, 0.000, 0.000, 14:09:43.861
194, -3912.97, -3681.76, -3683.90, -3154.26, 0.000, 0.000, 0.000, 14:09:43.861
195, -3707.14, -3692.61, -3602.12, -3059.74, 0.000, 0.000, 0.000, 14:09:43.875
196, -3658.65, -3623.26, -3556.24, -3056.83, 0.000, 0.000, 0.000, 14:09:43.875
197, -3916.42, -3613.17, -3679.78, -3172.54, 0.000, 0.000, 0.000, 14:09:43.876
198, -3892.57, -3695.98, -3688.72, -3152.84, 0.000, 0.000, 0.000, 14:09:43.876
199, -3717.06, -3695.00, -3607.08, -3068.54, 0.000, 0.000, 0.000, 14:09:43.891
200, -3677.63, -3618.86, -3546.23, -3080.42, 0.000, 0.000, 0.000, 14:09:43.891
0, -3930.21, -3631.04, -3687.92, -3192.34, 0.000, 0.000, 0.000, 14:09:43.891
1, -3916.70, -3684.18, -3698.00, -3139.18, 0.000, 0.000, 0.000, 14:09:43.905
2, -3712.22, -3698.90, -3608.63, -3078.58, 0.000, 0.000, 0.000, 14:09:43.905
3, -3667.50, -3631.10, -3557.24, -3065.75, 0.000, 0.000, 0.000, 14:09:43.921
4, -3906.40, -3603.52, -3653.71, -3162.40, 0.000, 0.000, 0.000, 14:09:43.921
5, -3915.63, -3693.16, -3692.93, -3161.36, 0.000, 0.000, 0.000, 14:09:43.921
6, -3739.38, -3692.69, -3601.98, -3072.48, 0.000, 0.000, 0.000, 14:09:43.921
7, -3662.53, -3624.17, -3576.26, -3046.70, 0.000, 0.000, 0.000, 14:09:43.935
8, -3907.66, -3615.63, -3677.70, -3150.08, 0.000, 0.000, 0.000, 14:09:43.935
9, -3922.05, -3688.86, -3683.47, -3155.87, 0.000, 0.000, 0.000, 14:09:43.950
10, -3706.23, -3689.07, -3591.54, -3076.37, 0.000, 0.000, 0.000, 14:09:43.950
11, -3660.24, -3627.53, -3567.90, -3062.08, 0.000, 0.000, 0.000, 14:09:43.951
12, -3918.27, -3610.03, -3671.35, -3175.20, 0.000, 0.000, 0.000, 14:09:43.951
13, -3913.58, -3691.08, -3688.94, -3151.51, 0.000, 0.000, 0.000, 14:09:43.965
14, -3705.89, -3687.81, -3590.92, -3056.08, 0.000, 0.000, 0.000, 14:09:43.965
15, -3669.04, -3628.37, -3559.89, -3047.46, 0.000, 0.000, 0.000, 14:09:43.981
16, -3931.90, -3636.15, -3690.85, -3169.51, 0.000, 0.000, 0.000, 14:09:43.981
17, -3919.04, -3701.35, -3694.51, -3159.37, 0.000, 0.000, 0.000, 14:09:43.981
18, -3676.23, -3679.36, -3589.74, -3071.93, 0.000, 0.000, 0.000, 14:09:43.981
19, -3659.72, -3614.61, -3550.62, -3057.24, 0.000, 0.000, 0.000, 14:09:43.996
20, -3944.38, -3615.21, -3679.28, -3185.39, 0.000, 0.000, 0.000, 14:09:43.996
21, -3901.41, -3677.60, -3677.97, -3150.49, 0.000, 0.000, 0.000, 14:09:44.010
22, -3701.07, -3680.55, -3591.14, -3047.06, 0.000, 0.000, 0.000, 14:09:44.010
23, -3666.69, -3615.76, -3562.86, -3048.60, 0.000, 0.000, 0.000, 14:09:44.041
24, -3914.17, -3615.25, -3682.01, -3162.61, 0.000, 0.000, 0.000, 14:09:44.041
25, -3885.38, -3677.41, -3681.07, -3146.33, 0.000, 0.000, 0.000, 14:09:44.041
26, -3725.60, -3689.58, -3614.21, -3068.92, 0.000, 0.000, 0.000, 14:09:44.041
27, -3651.94, -3616.24, -3554.50, -3039.04, 0.000, 0.000, 0.000, 14:09:44.042
28, -3913.25, -3623.10, -3685.52, -3163.68, 0.000, 0.000, 0.000, 14:09:44.042
29, -3892.05, -3681.45, -3675.01, -3137.45, 0.000, 0.000, 0.000, 14:09:44.042
30, -3693.89, -3686.93, -3583.92, -3059.77, 0.000, 0.000, 0.000, 14:09:44.043
31, -3656.69, -3625.10, -3559.35, -3069.21, 0.000, 0.000, 0.000, 14:09:44.055
32, -3932.19, -3618.27, -3669.81, -3172.69, 0.000, 0.000, 0.000, 14:09:44.055
33, -3905.86, -3698.56, -3704.16, -3157.98, 0.000, 0.000, 0.000, 14:09:44.072
34, -3719.56, -3695.66, -3602.39, -3059.91, 0.000, 0.000, 0.000, 14:09:44.073
35, -3686.07, -3619.48, -3567.40, -3053.63, 0.000, 0.000, 0.000, 14:09:44.073
36, -3938.68, -3633.64, -3690.06, -3178.77, 0.000, 0.000, 0.000, 14:09:44.074
37, -3899.09, -3685.49, -3684.01, -3149.56, 0.000, 0.000, 0.000, 14:09:44.086
38, -3702.12, -3682.74, -3592.78, -3079.81, 0.000, 0.000, 0.000, 14:09:44.086
39, -3682.89, -3638.40, -3573.96, -3074.85, 0.000, 0.000, 0.000, 14:09:44.100
40, -3918.51, -3619.90, -3672.31, -3176.56, 0.000, 0.000, 0.000, 14:09:44.100
41, -3936.79, -3696.00, -3696.52, -3154.50, 0.000, 0.000, 0.000, 14:09:44.115
42, -3691.90, -3693.55, -3610.25, -3068.40, 0.000, 0.000, 0.000, 14:09:44.115
43, -3674.61, -3648.48, -3592.04, -3052.88, 0.000, 0.000, 0.000, 14:09:44.116
44, -3922.07, -3634.07, -3677.46, -3177.55, 0.000, 0.000, 0.000, 14:09:44.116
45, -3878.87, -3653.95, -3652.23, -3150.68, 0.000, 0.000, 0.000, 14:09:44.130
46, -3716.25, -3686.85, -3581.20, -3096.39, 0.000, 0.000, 0.000, 14:09:44.130
47, -3672.91, -3606.20, -3529.88, -3100.45, 0.000, 0.000, 0.000, 14:09:44.131
48, -3893.73, -3590.46, -3630.66, -3210.77, 0.000, 0.000, 0.000, 14:09:44.131
49, -3877.95, -3652.23, -3627.39, -3185.82, 0.000, 0.000, 0.000, 14:09:44.146
50, -3686.18, -3655.36, -3537.99, -3134.80, 0.000, 0.000, 0.000, 14:09:44.146
51, -3663.56, -3583.07, -3501.64, -3121.58, 0.000, 0.000, 0.000, 14:09:44.160
52, -3935.97, -3598.02, -3625.51, -3237.66, 0.000, 0.000, 0.000, 14:09:44.160
53, -3878.50, -3674.69, -3635.97, -3216.74, 0.000, 0.000, 0.000, 14:09:44.161
54, -3693.20, -3679.98, -3540.25, -3118.99, 0.000, 0.000, 0.000, 14:09:44.161
55, -3657.26, -3613.15, -3517.42, -3112.21, 0.000, 0.000, 0.000, 14:09:44.176
56, -3933.65, -3616.11, -3657.75, -3227.55, 0.000, 0.000, 0.000, 14:09:44.176
57, -3887.72, -3674.39, -3649.63, -3176.37, 0.000, 0.000, 0.000, 14:09:44.192
58, -3688.16, -3685.51, -3563.74, -3095.56, 0.000, 0.000, 0.000, 14:09:44.192
59, -3668.77, -3616.56, -3534.64, -3106.65, 0.000, 0.000, 0.000, 14:09:44.192
60, -3922.61, -3620.09, -3657.82, -3207.76, 0.000, 0.000, 0.000, 14:09:44.192
61, -3899.55, -3682.57, -3661.74, -3167.39, 0.000, 0.000, 0.000, 14:09:44.206
62, -3702.30, -3694.08, -3578.63, -3105.87, 0.000, 0.000, 0.000, 14:09:44.206
63, -3689.63, -3616.82, -3541.92, -3098.70, 0.000, 0.000, 0.000, 14:09:44.221
64, -3935.71, -3627.91, -3673.59, -3201.25, 0.000, 0.000, 0.000, 14:09:44.222
65, -3897.10, -3684.59, -3665.76, -3172.30, 0.000, 0.000, 0.000, 14:09:44.236
66, -3696.24, -3679.74, -3577.57, -3081.74, 0.000, 0.000, 0.000, 14:09:44.236
67, -3681.90, -3624.56, -3568.72, -3088.39, 0.000, 0.000, 0.000, 14:09:44.237
68, -3931.83, -3623.25, -3671.93, -3183.59, 0.000, 0.000, 0.000, 14:09:44.237
69, -3881.32, -3684.43, -3659.29, -3137.95, 0.000, 0.000, 0.000, 14:09:44.251
70, -3706.23, -3695.39, -3594.00, -3084.36, 0.000, 0.000, 0.000, 14:09:44.251
71, -3679.75, -3627.56, -3559.60, -3082.85, 0.000, 0.000, 0.000, 14:09:44.251
72, -3939.97, -3629.74, -3677.01, -3194.11, 0.000, 0.000, 0.000, 14:09:44.251
73, -3906.76, -3696.25, -3677.41, -3162.44, 0.000, 0.000, 0.000, 14:09:44.266
74, -3718.39, -3682.77, -3589.51, -3063.97, 0.000, 0.000, 0.000, 14:09:44.266
75, -3698.34, -3622.77, -3565.25, -3081.71, 0.000, 0.000, 0.000, 14:09:44.280
76, -3948.98, -3630.28, -3674.34, -3184.40, 0.000, 0.000, 0.000, 14:09:44.280
77, -3904.70, -3688.17, -3688.80, -3158.78, 0.000, 0.000, 0.000, 14:09:44.281
78, -3712.25, -3691.38, -3596.12, -3073.74, 0.000, 0.000, 0.000, 14:09:44.281
79, -3680.18, -3616.78, -3553.62, -3079.46, 0.000, 0.000, 0.000, 14:09:44.295
80, -3923.29, -3625.38, -3666.95, -3172.90, 0.000, 0.000, 0.000, 14:09:44.295
81, -3889.09, -3678.81, -3672.35, -3144.30, 0.000, 0.000, 0.000, 14:09:44.311
82, -3696.10, -3681.99, -3590.87, -3045.31, 0.000, 0.000, 0.000, 14:09:44.311
83, -3706.10, -3612.68, -3572.18, -3063.07, 0.000, 0.000, 0.000, 14:09:44.312
84, -3949.04, -3634.38, -3685.65, -3185.50, 0.000, 0.000, 0.000, 14:09:44.312
85, -3880.45, -3676.69, -3666.60, -3139.54, 0.000, 0.000, 0.000, 14:09:44.332
86, -3694.41, -3694.55, -3607.72, -3070.69, 0.000, 0.000, 0.000, 14:09:44.332
87, -3665.00, -3631.10, -3571.09, -3068.78, 0.000, 0.000, 0.000, 14:09:44.342
88, -3949.85, -3615.69, -3676.19, -3176.92, 0.000, 0.000, 0.000, 14:09:44.342
89, -3878.24, -3670.03, -3670.59, -3140.56, 0.000, 0.000, 0.000, 14:09:44.342
90, -3682.80, -3697.32, -3594.93, -3070.62, 0.000, 0.000, 0.000, 14:09:44.342
91, -3685.36, -3638.66, -3570.19, -3073.63, 0.000, 0.000, 0.000, 14:09:44.356
92, -3953.90, -3628.88, -3683.08, -3187.46, 0.000, 0.000, 0.000, 14:09:44.356
93, -3886.17, -3677.73, -3669.46, -3139.05, 0.000, 0.000, 0.000, 14:09:44.371
94, -3707.78, -3698.16, -3595.30, -3068.92, 0.000, 0.000, 0.000, 14:09:44.371
95, -3686.03, -3617.25, -3560.79, -3069.51, 0.000, 0.000, 0.000, 14:09:44.372
96, -3942.30, -3620.08, -3678.44, -3171.46, 0.000, 0.000, 0.000, 14:09:44.372
97, -3891.95, -3682.31, -3683.98, -3145.24, 0.000, 0.000, 0.000, 14:09:44.386
98, -3695.91, -3683.18, -3592.93, -3064.70, 0.000, 0.000, 0.000, 14:09:44.386
99, -3697.16, -3607.94, -3562.31, -3050.30, 0.000, 0.000, 0.000, 14:09:44.401
100, -3930.49, -3630.38, -3689.01, -3172.86, 0.000, 0.000, 0.000, 14:09:44.401
101, -3884.85, -3693.54, -3686.30, -3147.25, 0.000, 0.000, 0.000, 14:09:44.401
102, -3698.17, -3685.55, -3583.50, -3068.40, 0.000, 0.000, 0.000, 14:09:44.401
103, -3715.28, -3632.83, -3573.73, -3079.22, 0.000, 0.000, 0.000, 14:09:44.415
104, -3940.67, -3626.31, -3686.52, -3175.71, 0.000, 0.000, 0.000, 14:09:44.416
105, -3891.66, -3689.18, -3674.23, -3160.36, 0.000, 0.000, 0.000, 14:09:44.431
106, -3698.06, -3698.25, -3597.86, -3076.61, 0.000, 0.000, 0.000, 14:09:44.431
107, -3677.03, -3613.58, -3560.40, -3059.27, 0.000, 0.000, 0.000, 14:09:44.431
108, -3936.97, -3625.02, -3692.92, -3196.56, 0.000, 0.000, 0.000, 14:09:44.431
109, -3889.84, -3685.64, -3686.49, -3164.58, 0.000, 0.000, 0.000, 14:09:44.445
110, -3685.69, -3690.36, -3605.58, -3061.72, 0.000, 0.000, 0.000, 14:09:44.445
111, -3685.47, -3608.23, -3573.29, -3080.58, 0.000, 0.000, 0.000, 14:09:44.460
112, -3952.46, -3617.88, -3681.31, -3170.18, 0.000, 0.000, 0.000, 14:09:44.460
113, -3915.25, -3697.25, -3677.02, -3164.19, 0.000, 0.000, 0.000, 14:09:44.461
114, -3688.76, -3679.34, -3582.48, -3062.46, 0.000, 0.000, 0.000, 14:09:44.461
115, -3664.83, -3611.93, -3561.89, -3063.05, 0.000, 0.000, 0.000, 14:09:44.475
116, -3939.90, -3627.18, -3694.62, -3186.09, 0.000, 0.000, 0.000, 14:09:44.475
117, -3886.37, -3682.39, -3678.47, -3142.19, 0.000, 0.000, 0.000, 14:09:44.506
118, -3668.69, -3687.73, -3591.97, -3070.61, 0.000, 0.000, 0.000, 14:09:44.506
119, -3671.78, -3614.35, -3575.80, -3081.05, 0.000, 0.000, 0.000, 14:09:44.506
120, -3926.78, -3617.27, -3693.13, -3168.60, 0.000, 0.000, 0.000, 14:09:44.506
121, -3884.64, -3685.28, -3675.47, -3139.31, 0.000, 0.000, 0.000, 14:09:44.508
122, -3702.81, -3685.17, -3589.28, -3062.91, 0.000, 0.000, 0.000, 14:09:44.508
123, -3695.88, -3612.81, -3573.75, -3087.04, 0.000, 0.000, 0.000, 14:09:44.508
124, -3939.83, -3626.49, -3686.11, -3189.96, 0.000, 0.000, 0.000, 14:09:44.508
125, -3891.29, -3697.21, -3681.64, -3148.37, 0.000, 0.000, 0.000, 14:09:44.521
126, -3689.71, -3689.62, -3593.33, -3071.53, 0.000, 0.000, 0.000, 14:09:44.521
127, -3680.62, -3603.59, -3573.83, -3075.62, 0.000, 0.000, 0.000, 14:09:44.536
128, -3933.58, -3623.50, -3677.75, -3175.35, 0.000, 0.000, 0.000, 14:09:44.537
129, -3898.29, -3691.58, -3685.16, -3145.52, 0.000, 0.000, 0.000, 14:09:44.551
130, -3681.94, -3683.29, -3593.78, -3064.01, 0.000, 0.000, 0.000, 14:09:44.551
131, -3675.72, -3619.05, -3579.83, -3104.92, 0.000, 0.000, 0.000, 14:09:44.551
132, -3946.01, -3630.20, -3690.63, -3180.36, 0.000, 0.000, 0.000, 14:09:44.551
133, -3890.83, -3691.95, -3682.43, -3140.36, 0.000, 0.000, 0.000, 14:09:44.580
134, -3684.09, -3693.69, -3597.91, -3065.31, 0.000, 0.000, 0.000, 14:09:44.581
135, -3685.58, -3608.65, -3564.19, -3059.81, 0.000, 0.000, 0.000, 14:09:44.581
136, -3949.71, -3636.17, -3693.10, -3168.79, 0.000, 0.000, 0.000, 14:09:44.581
137, -3887.48, -3693.67, -3678.33, -3135.89, 0.000, 0.000, 0.000, 14:09:44.596
138, -3692.40, -3684.92, -3592.06, -3050.58, 0.000, 0.000, 0.000, 14:09:44.596
139, -3680.12, -3618.27, -3584.40, -3073.50, 0.000, 0.000, 0.000, 14:09:44.596
140, -3949.30, -3629.86, -3690.14, -3186.08, 0.000, 0.000, 0.000, 14:09:44.596
141, -3892.10, -3700.68, -3674.98, -3146.53, 0.000, 0.000, 0.000, 14:09:44.610
142, -3703.59, -3682.64, -3585.09, -3055.51, 0.000, 0.000, 0.000, 14:09:44.610
143, -3695.66, -3617.69, -3575.79, -3066.39, 0.000, 0.000, 0.000, 14:09:44.611
144, -3958.09, -3645.59, -3702.44, -3169.57, 0.000, 0.000, 0.000, 14:09:44.611
145, -3894.30, -3686.79, -3682.67, -3132.37, 0.000, 0.000, 0.000, 14:09:44.625
146, -3681.83, -3687.60, -3581.36, -3064.94, 0.000, 0.000, 0.000, 14:09:44.625
147, -3694.28, -3605.54, -3562.80, -3067.68, 0.000, 0.000, 0.000, 14:09:44.655
148, -3962.38, -3634.30, -3689.78, -3192.27, 0.000, 0.000, 0.000, 14:09:44.655
149, -3906.14, -3694.15, -3693.47, -3155.80, 0.000, 0.000, 0.000, 14:09:44.670
150, -3680.78, -3684.17, -3585.01, -3045.94, 0.000, 0.000, 0.000, 14:09:44.671
151, -3709.51, -3610.27, -3573.09, -3062.73, 0.000, 0.000, 0.000, 14:09:44.686
152, -3950.13, -3633.60, -3684.34, -3186.10, 0.000, 0.000, 0.000, 14:09:44.686
153, -3890.09, -3697.14, -3681.38, -3133.52, 0.000, 0.000, 0.000, 14:09:44.687
154, -3693.02, -3679.11, -3591.74, -3050.58, 0.000, 0.000, 0.000, 14:09:44.687
155, -3687.21, -3610.44, -3581.52, -3091.85, 0.000, 0.000, 0.000, 14:09:44.687
156, -3942.34, -3631.01, -3698.83, -3189.73, 0.000, 0.000, 0.000, 14:09:44.687
157, -3879.54, -3698.18, -3683.58, -3133.53, 0.000, 0.000, 0.000, 14:09:44.688
158, -3671.13, -3684.68, -3588.73, -3046.89, 0.000, 0.000, 0.000, 14:09:44.689
159, -3709.93, -3615.08, -3581.87, -3068.34, 0.000, 0.000, 0.000, 14:09:44.689
160, -3943.11, -3629.31, -3680.26, -3166.02, 0.000, 0.000, 0.000, 14:09:44.689
161, -3879.84, -3693.29, -3679.58, -3140.28, 0.000, 0.000, 0.000, 14:09:44.700
162, -3660.49, -3688.07, -3588.59, -3049.77, 0.000, 0.000, 0.000, 14:09:44.701
163, -3682.58, -3608.66, -3570.02, -3082.95, 0.000, 0.000, 0.000, 14:09:44.716
164, -3959.76, -3628.86, -3686.93, -3180.87, 0.000, 0.000, 0.000, 14:09:44.716
165, -3882.15, -3686.00, -3683.64, -3132.38, 0.000, 0.000, 0.000, 14:09:44.731
166, -3666.73, -3692.76, -3597.91, -3046.57, 0.000, 0.000, 0.000, 14:09:44.731
167, -3696.74, -3618.01, -3571.22, -3067.64, 0.000, 0.000, 0.000, 14:09:44.731
168, -3955.20, -3644.42, -3698.46, -3185.81, 0.000, 0.000, 0.000, 14:09:44.731
169, -3882.53, -3697.64, -3674.96, -3141.47, 0.000, 0.000, 0.000, 14:09:44.746
170, -3659.15, -3688.50, -3575.06, -3044.55, 0.000, 0.000, 0.000, 14:09:44.746
171, -3675.96, -3625.45, -3560.43, -3071.19, 0.000, 0.000, 0.000, 14:09:44.761
172, -3943.90, -3660.32, -3692.88, -3180.06, 0.000, 0.000, 0.000, 14:09:44.761
173, -3866.40, -3717.40, -3679.86, -3138.68, 0.000, 0.000, 0.000, 14:09:44.761
174, -3649.46, -3688.65, -3568.39, -3048.24, 0.000, 0.000, 0.000, 14:09:44.761
175, -3646.48, -3623.45, -3570.64, -3073.37, 0.000, 0.000, 0.000, 14:09:44.776
176, -3904.82, -3660.36, -3687.54, -3168.28, 0.000, 0.000, 0.000, 14:09:44.776
177, -3837.02, -3731.97, -3677.84, -3149.78, 0.000, 0.000, 0.000, 14:09:44.791
178, -3650.82, -3737.28, -3600.80, -3073.79, 0.000, 0.000, 0.000, 14:09:44.791
179, -3655.40, -3632.93, -3568.24, -3048.65, 0.000, 0.000, 0.000, 14:09:44.792
180, -3911.48, -3681.24, -3706.89, -3172.55, 0.000, 0.000, 0.000, 14:09:44.792
181, -3818.86, -3724.22, -3694.72, -3121.56, 0.000, 0.000, 0.000, 14:09:44.812
182, -3631.72, -3715.14, -3608.02, -3005.94, 0.000, 0.000, 0.000, 14:09:44.812
183, -3648.47, -3636.29, -3601.67, -3028.24, 0.000, 0.000, 0.000, 14:09:44.821
184, -3922.70, -3656.50, -3708.60, -3126.70, 0.000, 0.000, 0.000, 14:09:44.821
185, -3856.77, -3709.75, -3702.89, -3075.47, 0.000, 0.000, 0.000, 14:09:44.822
186, -3654.84, -3688.73, -3621.09, -2988.05, 0.000, 0.000, 0.000, 14:09:44.822
187, -3695.03, -3629.38, -3608.70, -3036.96, 0.000, 0.000, 0.000, 14:09:44.836
188, -3947.10, -3642.96, -3737.74, -3095.01, 0.000, 0.000, 0.000, 14:09:44.836
189, -3882.95, -3696.54, -3726.70, -3071.61, 0.000, 0.000, 0.000, 14:09:44.850
190, -3693.38, -3699.25, -3633.31, -3014.02, 0.000, 0.000, 0.000, 14:09:44.850
191, -3733.04, -3613.66, -3615.34, -3023.42, 0.000, 0.000, 0.000, 14:09:44.851
192, -3989.42, -3633.36, -3726.01, -3142.58, 0.000, 0.000, 0.000, 14:09:44.851
193, -3924.93, -3688.62, -3716.75, -3108.91, 0.000, 0.000, 0.000, 14:09:44.866
194, -3719.78, -3687.82, -3631.95, -3017.77, 0.000, 0.000, 0.000, 14:09:44.866
195, -3717.10, -3601.56, -3607.60, -3035.66, 0.000, 0.000, 0.000, 14:09:44.881
196, -3974.04, -3630.53, -3718.37, -3166.94, 0.000, 0.000, 0.000, 14:09:44.881
197, -3910.22, -3678.43, -3690.82, -3115.96, 0.000, 0.000, 0.000, 14:09:44.881
198, -3699.24, -3681.32, -3606.79, -3041.04, 0.000, 0.000, 0.000, 14:09:44.881
199, -3699.58, -3596.03, -3586.56, -3047.05, 0.000, 0.000, 0.000, 14:09:44.896
200, -3987.95, -3636.79, -3715.83, -3156.58, 0.000, 0.000, 0.000, 14:09:44.896
0, -3905.58, -3697.73, -3688.12, -3115.73, 0.000, 0.000, 0.000, 14:09:44.896
1, -3687.95, -3684.31, -3605.21, -3041.21, 0.000, 0.000, 0.000, 14:09:44.911
2, -3754.95, -3605.26, -3607.03, -3075.60, 0.000, 0.000, 0.000, 14:09:44.911
3, -3976.34, -3626.42, -3709.90, -3166.99, 0.000, 0.000, 0.000, 14:09:44.925
4, -3867.04, -3675.93, -3683.49, -3116.92, 0.000, 0.000, 0.000, 14:09:44.925
5, -3691.06, -3686.68, -3597.65, -3046.14, 0.000, 0.000, 0.000, 14:09:44.926
6, -3731.53, -3602.00, -3583.41, -3087.09, 0.000, 0.000, 0.000, 14:09:44.926
7, -3964.31, -3638.82, -3699.63, -3163.45, 0.000, 0.000, 0.000, 14:09:44.941
8, -3909.25, -3682.02, -3682.17, -3127.00, 0.000, 0.000, 0.000, 14:09:44.941
9, -3703.53, -3678.57, -3603.08, -3063.98, 0.000, 0.000, 0.000, 14:09:44.957
10, -3724.59, -3608.26, -3594.20, -3080.71, 0.000, 0.000, 0.000, 14:09:44.958
11, -3957.31, -3617.66, -3696.46, -3174.74, 0.000, 0.000, 0.000, 14:09:44.958
12, -3894.67, -3676.81, -3682.83, -3121.25, 0.000, 0.000, 0.000, 14:09:44.958
13, -3691.92, -3692.97, -3586.84, -3039.42, 0.000, 0.000, 0.000, 14:09:44.971
14, -3720.63, -3606.19, -3587.21, -3083.77, 0.000, 0.000, 0.000, 14:09:44.971
15, -3980.72, -3634.04, -3707.65, -3192.14, 0.000, 0.000, 0.000, 14:09:44.986
16, -3882.58, -3685.82, -3678.32, -3141.10, 0.000, 0.000, 0.000, 14:09:44.986
17, -3667.27, -3683.04, -3595.42, -3049.41, 0.000, 0.000, 0.000, 14:09:44.986
18, -3709.72, -3612.01, -3580.48, -3079.42, 0.000, 0.000, 0.000, 14:09:44.986
19, -3950.95, -3624.52, -3687.09, -3160.94, 0.000, 0.000, 0.000, 14:09:45.000
20, -3881.07, -3680.20, -3673.50, -3121.35, 0.000, 0.000, 0.000, 14:09:45.000
21, -3665.03, -3677.14, -3589.94, -3031.64, 0.000, 0.000, 0.000, 14:09:45.015
22, -3720.12, -3605.21, -3595.23, -3079.62, 0.000, 0.000, 0.000, 14:09:45.015
23, -3944.75, -3639.61, -3699.46, -3182.57, 0.000, 0.000, 0.000, 14:09:45.015
24, -3877.54, -3684.91, -3670.08, -3134.50, 0.000, 0.000, 0.000, 14:09:45.016
25, -3690.60, -3685.02, -3588.05, -3059.87, 0.000, 0.000, 0.000, 14:09:45.030
26, -3738.58, -3614.43, -3589.52, -3081.50, 0.000, 0.000, 0.000, 14:09:45.030
27, -3995.49, -3645.63, -3705.35, -3188.94, 0.000, 0.000, 0.000, 14:09:45.046
28, -3866.38, -3680.87, -3676.58, -3120.81, 0.000, 0.000, 0.000, 14:09:45.046
29, -3662.86, -3668.76, -3583.77, -3035.80, 0.000, 0.000, 0.000, 14:09:45.046
30, -3721.51, -3617.50, -3601.42, -3089.99, 0.000, 0.000, 0.000, 14:09:45.046
31, -3965.84, -3647.90, -3704.86, -3179.59, 0.000, 0.000, 0.000, 14:09:45.061
32, -3878.34, -3697.87, -3672.13, -3149.85, 0.000, 0.000, 0.000, 14:09:45.061
33, -3665.83, -3694.94, -3578.79, -3047.24, 0.000, 0.000, 0.000, 14:09:45.075
34, -3733.78, -3605.82, -3582.60, -3077.16, 0.000, 0.000, 0.000, 14:09:45.075
35, -3966.99, -3640.80, -3699.43, -3167.58, 0.000, 0.000, 0.000, 14:09:45.076
36, -3880.98, -3689.06, -3674.74, -3140.50, 0.000, 0.000, 0.000, 14:09:45.076
37, -3665.13, -3681.53, -3582.11, -3048.96, 0.000, 0.000, 0.000, 14:09:45.091
38, -3706.27, -3595.03, -3582.43, -3068.79, 0.000, 0.000, 0.000, 14:09:45.091
39, -3948.97, -3627.66, -3695.31, -3171.33, 0.000, 0.000, 0.000, 14:09:45.105
40, -3881.34, -3689.42, -3680.74, -3130.79, 0.000, 0.000, 0.000, 14:09:45.105
41, -3672.72, -3685.70, -3575.48, -3038.37, 0.000, 0.000, 0.000, 14:09:45.106
42, -3703.96, -3599.33, -3580.43, -3071.35, 0.000, 0.000, 0.000, 14:09:45.106
43, -3979.48, -3647.43, -3702.00, -3190.75, 0.000, 0.000, 0.000, 14:09:45.122
44, -3878.82, -3692.15, -3686.66, -3142.80, 0.000, 0.000, 0.000, 14:09:45.122
45, -3657.36, -3666.50, -3575.43, -3028.39, 0.000, 0.000, 0.000, 14:09:45.136
46, -3722.11, -3604.85, -3581.13, -3090.26, 0.000, 0.000, 0.000, 14:09:45.136
47, -3995.24, -3654.57, -3710.21, -3195.52, 0.000, 0.000, 0.000, 14:09:45.137
48, -3893.05, -3712.61, -3690.91, -3118.58, 0.000, 0.000, 0.000, 14:09:45.137
49, -3647.22, -3663.70, -3576.81, -3011.33, 0.000, 0.000, 0.000, 14:09:45.151
50, -3716.32, -3604.75, -3594.33, -3080.78, 0.000, 0.000, 0.000, 14:09:45.151
51, -3980.95, -3646.17, -3723.96, -3172.80, 0.000, 0.000, 0.000, 14:09:45.165
52, -3895.65, -3712.74, -3703.85, -3104.50, 0.000, 0.000, 0.000, 14:09:45.165
53, -3669.46, -3697.05, -3591.33, -3023.18, 0.000, 0.000, 0.000, 14:09:45.166
54, -3717.84, -3608.60, -3584.98, -3057.15, 0.000, 0.000, 0.000, 14:09:45.166
55, -3957.40, -3652.31, -3714.88, -3182.21, 0.000, 0.000, 0.000, 14:09:45.180
56, -3885.18, -3706.66, -3696.82, -3116.48, 0.000, 0.000, 0.000, 14:09:45.180
57, -3644.38, -3675.08, -3573.50, -3025.18, 0.000, 0.000, 0.000, 14:09:45.196
58, -3723.35, -3603.57, -3584.30, -3080.33, 0.000, 0.000, 0.000, 14:09:45.196
59, -3963.36, -3639.74, -3708.42, -3180.85, 0.000, 0.000, 0.000, 14:09:45.196
60, -3884.81, -3702.83, -3679.72, -3138.16, 0.000, 0.000, 0.000, 14:09:45.197
61, -3642.67, -3678.91, -3577.29, -3042.57, 0.000, 0.000, 0.000, 14:09:45.218
62, -3706.74, -3599.03, -3580.57, -3077.27, 0.000, 0.000, 0.000, 14:09:45.218
63, -3967.73, -3642.96, -3714.85, -3194.69, 0.000, 0.000, 0.000, 14:09:45.225
64, -3877.68, -3698.94, -3681.21, -3125.38, 0.000, 0.000, 0.000, 14:09:45.226
65, -3651.65, -3683.38, -3581.24, -3036.38, 0.000, 0.000, 0.000, 14:09:45.226
66, -3708.68, -3593.67, -3578.56, -3069.29, 0.000, 0.000, 0.000, 14:09:45.226
67, -3958.42, -3649.79, -3713.25, -3198.53, 0.000, 0.000, 0.000, 14:09:45.241
68, -3905.91, -3711.97, -3681.42, -3160.67, 0.000, 0.000, 0.000, 14:09:45.241
69, -3653.92, -3675.18, -3566.33, -3054.62, 0.000, 0.000, 0.000, 14:09:45.256
70, -3700.70, -3593.86, -3576.33, -3083.36, 0.000, 0.000, 0.000, 14:09:45.256
71, -4008.80, -3661.10, -3717.87, -3197.38, 0.000, 0.000, 0.000, 14:09:45.258
72, -3889.17, -3698.11, -3679.11, -3132.50, 0.000, 0.000, 0.000, 14:09:45.258
73, -3632.22, -3667.49, -3564.65, -3027.15, 0.000, 0.000, 0.000, 14:09:45.271
74, -3681.29, -3588.41, -3569.48, -3066.52, 0.000, 0.000, 0.000, 14:09:45.271
75, -3974.55, -3671.70, -3712.89, -3189.33, 0.000, 0.000, 0.000, 14:09:45.301
76, -3880.65, -3707.62, -3689.38, -3161.28, 0.000, 0.000, 0.000, 14:09:45.301
77, -3637.41, -3653.07, -3560.92, -3022.56, 0.000, 0.000, 0.000, 14:09:45.302
78, -3712.57, -3597.86, -3581.57, -3081.27, 0.000, 0.000, 0.000, 14:09:45.302
79, -3987.36, -3654.40, -3708.19, -3211.21, 0.000, 0.000, 0.000, 14:09:45.302
80, -3881.69, -3698.33, -3685.26, -3138.01, 0.000, 0.000, 0.000, 14:09:45.302
81, -3637.92, -3670.78, -3559.63, -3016.39, 0.000, 0.000, 0.000, 14:09:45.303
82, -3699.92, -3582.39, -3575.56, -3078.28, 0.000, 0.000, 0.000, 14:09:45.303
83, -3986.60, -3657.50, -3721.15, -3215.38, 0.000, 0.000, 0.000, 14:09:45.345
84, -3899.44, -3696.17, -3675.01, -3130.87, 0.000, 0.000, 0.000, 14:09:45.345
85, -3632.19, -3667.17, -3553.08, -3017.62, 0.000, 0.000, 0.000, 14:09:45.360
86, -3704.87, -3592.61, -3577.63, -3066.56, 0.000, 0.000, 0.000, 14:09:45.360
87, -3974.51, -3652.34, -3718.22, -3205.33, 0.000, 0.000, 0.000, 14:09:45.361
88, -3883.49, -3696.87, -3680.73, -3142.63, 0.000, 0.000, 0.000, 14:09:45.361
89, -3623.18, -3653.29, -3553.22, -3025.53, 0.000, 0.000, 0.000, 14:09:45.361
90, -3728.32, -3596.40, -3581.15, -3076.03, 0.000, 0.000, 0.000, 14:09:45.362
91, -3987.04, -3658.82, -3723.94, -3184.18, 0.000, 0.000, 0.000, 14:09:45.362
92, -3870.12, -3688.93, -3678.11, -3126.75, 0.000, 0.000, 0.000, 14:09:45.362
93, -3625.75, -3651.36, -3537.18, -3010.17, 0.000, 0.000, 0.000, 14:09:45.363
94, -3713.27, -3603.86, -3584.93, -3084.37, 0.000, 0.000, 0.000, 14:09:45.363
95, -4001.98, -3660.72, -3745.90, -3204.89, 0.000, 0.000, 0.000, 14:09:45.375
96, -3882.29, -3697.23, -3687.71, -3127.15, 0.000, 0.000, 0.000, 14:09:45.376
97, -3614.30, -3653.23, -3547.35, -2992.74, 0.000, 0.000, 0.000, 14:09:45.391
98, -3696.65, -3593.26, -3569.25, -3076.89, 0.000, 0.000, 0.000, 14:09:45.391
99, -4010.17, -3676.79, -3729.57, -3196.34, 0.000, 0.000, 0.000, 14:09:45.405
100, -3884.18, -3703.74, -3682.09, -3132.90, 0.000, 0.000, 0.000, 14:09:45.406
