%OpenBCI Raw EEG Data
%
%Sample Rate = 200.0 Hz
%First Column = SampleIndex
%Last Column = Timestamp 
%Other Columns = EEG data in microvolts followed by Accel Data (in G) interleaved with Aux Data
0, -3919.37, -3625.12, -3668.66, -3227.41, 0.000, 0.000, 0.000, 14:07:54.406
1, -3915.29, -3651.94, -3659.44, -3173.71, 0.000, 0.000, 0.000, 14:07:54.436
2, -3723.52, -3636.51, -3572.22, -3085.91, 0.000, 0.000, 0.000, 14:07:54.436
3, -3621.99, -3583.54, -3530.59, -3038.23, 0.000, 0.000, 0.000, 14:07:54.436
4, -3872.04, -3596.31, -3637.78, -3180.29, 0.000, 0.000, 0.000, 14:07:54.436
5, -3913.39, -3643.11, -3630.76, -3145.35, 0.000, 0.000, 0.000, 14:07:54.437
6, -3682.76, -3622.98, -3558.93, -3062.89, 0.000, 0.000, 0.000, 14:07:54.437
7, -3607.16, -3567.72, -3512.63, -3049.30, 0.000, 0.000, 0.000, 14:07:54.450
8, -3892.35, -3583.22, -3634.23, -3186.42, 0.000, 0.000, 0.000, 14:07:54.450
9, -3890.19, -3633.21, -3637.77, -3150.98, 0.000, 0.000, 0.000, 14:07:54.465
10, -3680.73, -3615.07, -3550.83, -3054.36, 0.000, 0.000, 0.000, 14:07:54.465
11, -3590.31, -3554.61, -3491.20, -3013.82, 0.000, 0.000, 0.000, 14:07:54.466
12, -3845.36, -3564.59, -3609.88, -3131.85, 0.000, 0.000, 0.000, 14:07:54.466
13, -3855.96, -3623.19, -3606.67, -3145.19, 0.000, 0.000, 0.000, 14:07:54.480
14, -3645.57, -3608.89, -3546.02, -3039.18, 0.000, 0.000, 0.000, 14:07:54.480
15, -3617.33, -3544.44, -3490.06, -3018.15, 0.000, 0.000, 0.000, 14:07:54.494
16, -3866.10, -3564.15, -3609.03, -3153.94, 0.000, 0.000, 0.000, 14:07:54.495
17, -3848.52, -3614.01, -3618.81, -3127.18, 0.000, 0.000, 0.000, 14:07:54.495
18, -3668.46, -3602.37, -3526.29, -3031.34, 0.000, 0.000, 0.000, 14:07:54.495
19, -3594.34, -3556.84, -3492.28, -3024.84, 0.000, 0.000, 0.000, 14:07:54.510
20, -3898.38, -3572.13, -3601.43, -3153.73, 0.000, 0.000, 0.000, 14:07:54.510
21, -3778.65, -3597.77, -3585.48, -3107.81, 0.000, 0.000, 0.000, 14:07:54.525
22, -3653.20, -3598.10, -3529.46, -3023.74, 0.000, 0.000, 0.000, 14:07:54.525
23, -3609.06, -3548.51, -3490.87, -3007.55, 0.000, 0.000, 0.000, 14:07:54.540
24, -3861.43, -3553.24, -3587.71, -3158.41, 0.000, 0.000, 0.000, 14:07:54.540
25, -3884.95, -3611.49, -3607.86, -3143.20, 0.000, 0.000, 0.000, 14:07:54.541
26, -3634.83, -3599.14, -3517.01, -3042.87, 0.000, 0.000, 0.000, 14:07:54.541
27, -3576.87, -3533.01, -3465.74, -3006.34, 0.000, 0.000, 0.000, 14:07:54.555
28, -3818.71, -3553.68, -3593.82, -3128.60, 0.000, 0.000, 0.000, 14:07:54.555
29, -3851.51, -3603.17, -3606.42, -3136.52, 0.000, 0.000, 0.000, 14:07:54.556
30, -3642.56, -3593.63, -3514.38, -3016.85, 0.000, 0.000, 0.000, 14:07:54.556
31, -3600.28, -3543.77, -3480.64, -2998.62, 0.000, 0.000, 0.000, 14:07:54.571
32, -3828.37, -3557.12, -3586.72, -3137.97, 0.000, 0.000, 0.000, 14:07:54.571
33, -3842.55, -3609.64, -3595.72, -3146.58, 0.000, 0.000, 0.000, 14:07:54.586
34, -3682.05, -3600.76, -3524.12, -3055.32, 0.000, 0.000, 0.000, 14:07:54.586
35, -3564.95, -3545.18, -3481.63, -3012.08, 0.000, 0.000, 0.000, 14:07:54.586
36, -3836.78, -3555.66, -3585.64, -3133.08, 0.000, 0.000, 0.000, 14:07:54.586
37, -3845.88, -3610.52, -3594.52, -3124.68, 0.000, 0.000, 0.000, 14:07:54.601
38, -3678.44, -3599.52, -3522.51, -3024.09, 0.000, 0.000, 0.000, 14:07:54.601
39, -3589.62, -3533.56, -3480.81, -3005.79, 0.000, 0.000, 0.000, 14:07:54.615
40, -3845.91, -3553.88, -3591.90, -3131.80, 0.000, 0.000, 0.000, 14:07:54.616
41, -3840.69, -3597.85, -3598.22, -3122.20, 0.000, 0.000, 0.000, 14:07:54.623
42, -3654.89, -3594.93, -3506.52, -3025.44, 0.000, 0.000, 0.000, 14:07:54.623
43, -3577.42, -3541.96, -3468.43, -3024.70, 0.000, 0.000, 0.000, 14:07:54.645
44, -3842.11, -3543.64, -3576.55, -3152.43, 0.000, 0.000, 0.000, 14:07:54.645
45, -3855.17, -3605.44, -3597.48, -3116.95, 0.000, 0.000, 0.000, 14:07:54.646
46, -3663.86, -3594.11, -3527.64, -3026.67, 0.000, 0.000, 0.000, 14:07:54.646
47, -3577.13, -3547.52, -3490.23, -3016.52, 0.000, 0.000, 0.000, 14:07:54.660
48, -3814.65, -3546.73, -3577.29, -3155.44, 0.000, 0.000, 0.000, 14:07:54.660
49, -3845.43, -3612.32, -3593.26, -3126.39, 0.000, 0.000, 0.000, 14:07:54.660
50, -3661.58, -3592.64, -3514.54, -3016.33, 0.000, 0.000, 0.000, 14:07:54.660
51, -3573.48, -3548.94, -3480.57, -3015.54, 0.000, 0.000, 0.000, 14:07:54.690
52, -3842.58, -3563.35, -3598.00, -3139.62, 0.000, 0.000, 0.000, 14:07:54.690
53, -3869.04, -3599.87, -3586.67, -3103.17, 0.000, 0.000, 0.000, 14:07:54.691
54, -3659.01, -3593.68, -3518.89, -3012.30, 0.000, 0.000, 0.000, 14:07:54.691
55, -3582.21, -3542.52, -3476.90, -3008.52, 0.000, 0.000, 0.000, 14:07:54.692
56, -3865.92, -3578.74, -3600.60, -3164.87, 0.000, 0.000, 0.000, 14:07:54.692
57, -3836.11, -3600.46, -3592.39, -3133.19, 0.000, 0.000, 0.000, 14:07:54.692
58, -3637.52, -3580.03, -3507.85, -3035.36, 0.000, 0.000, 0.000, 14:07:54.692
59, -3587.58, -3546.48, -3486.25, -3034.26, 0.000, 0.000, 0.000, 14:07:54.705
60, -3854.42, -3565.36, -3594.61, -3154.15, 0.000, 0.000, 0.000, 14:07:54.705
61, -3837.43, -3601.24, -3599.73, -3120.01, 0.000, 0.000, 0.000, 14:07:54.720
62, -3679.61, -3598.20, -3521.23, -3013.65, 0.000, 0.000, 0.000, 14:07:54.721
63, -3566.07, -3529.55, -3453.40, -3004.04, 0.000, 0.000, 0.000, 14:07:54.736
64, -3824.03, -3559.37, -3585.10, -3140.37, 0.000, 0.000, 0.000, 14:07:54.736
65, -3868.08, -3613.26, -3601.61, -3151.93, 0.000, 0.000, 0.000, 14:07:54.737
66, -3626.10, -3589.58, -3515.64, -3031.06, 0.000, 0.000, 0.000, 14:07:54.737
67, -3635.08, -3550.63, -3489.28, -3023.00, 0.000, 0.000, 0.000, 14:07:54.751
68, -3853.97, -3558.73, -3605.59, -3163.49, 0.000, 0.000, 0.000, 14:07:54.751
69, -3798.18, -3606.42, -3573.77, -3107.08, 0.000, 0.000, 0.000, 14:07:54.765
70, -3640.12, -3586.57, -3510.09, -3003.31, 0.000, 0.000, 0.000, 14:07:54.765
71, -3584.80, -3524.44, -3473.56, -2993.08, 0.000, 0.000, 0.000, 14:07:54.766
72, -3869.56, -3566.90, -3602.42, -3134.05, 0.000, 0.000, 0.000, 14:07:54.766
73, -3848.32, -3603.52, -3600.16, -3139.34, 0.000, 0.000, 0.000, 14:07:54.781
74, -3672.15, -3592.28, -3517.91, -3038.63, 0.000, 0.000, 0.000, 14:07:54.781
75, -3535.26, -3533.26, -3476.74, -3030.83, 0.000, 0.000, 0.000, 14:07:54.795
76, -3861.15, -3552.24, -3590.24, -3145.37, 0.000, 0.000, 0.000, 14:07:54.795
77, -3833.71, -3608.36, -3581.20, -3133.96, 0.000, 0.000, 0.000, 14:07:54.825
78, -3650.22, -3586.82, -3511.23, -3024.26, 0.000, 0.000, 0.000, 14:07:54.825
79, -3582.02, -3549.07, -3477.63, -2999.53, 0.000, 0.000, 0.000, 14:07:54.826
80, -3833.07, -3553.56, -3588.13, -3154.38, 0.000, 0.000, 0.000, 14:07:54.826
81, -3873.29, -3613.26, -3596.72, -3147.07, 0.000, 0.000, 0.000, 14:07:54.826
82, -3655.35, -3606.75, -3523.52, -3020.81, 0.000, 0.000, 0.000, 14:07:54.826
83, -3577.32, -3554.80, -3481.16, -2985.56, 0.000, 0.000, 0.000, 14:07:54.827
84, -3846.78, -3593.14, -3577.26, -3140.09, 0.000, 0.000, 0.000, 14:07:54.827
85, -3874.77, -3624.86, -3585.71, -3099.37, 0.000, 0.000, 0.000, 14:07:54.855
86, -3636.61, -3580.48, -3505.45, -3000.55, 0.000, 0.000, 0.000, 14:07:54.855
87, -3549.78, -3551.91, -3469.32, -2995.85, 0.000, 0.000, 0.000, 14:07:54.855
88, -3817.81, -3562.44, -3587.10, -3134.25, 0.000, 0.000, 0.000, 14:07:54.856
89, -3794.47, -3638.13, -3587.89, -3119.42, 0.000, 0.000, 0.000, 14:07:54.856
90, -3609.65, -3632.56, -3494.79, -3002.95, 0.000, 0.000, 0.000, 14:07:54.856
91, -3527.28, -3554.30, -3480.68, -2990.89, 0.000, 0.000, 0.000, 14:07:54.886
92, -3738.62, -3593.94, -3575.45, -3134.75, 0.000, 0.000, 0.000, 14:07:54.886
93, -3761.62, -3647.83, -3560.16, -3101.99, 0.000, 0.000, 0.000, 14:07:54.886
94, -3552.70, -3663.36, -3507.67, -3029.32, 0.000, 0.000, 0.000, 14:07:54.886
95, -3449.87, -3629.68, -3462.88, -3008.92, 0.000, 0.000, 0.000, 14:07:54.886
96, -3720.79, -3627.92, -3580.68, -3127.98, 0.000, 0.000, 0.000, 14:07:54.886
97, -3747.53, -3663.45, -3584.25, -3107.47, 0.000, 0.000, 0.000, 14:07:54.916
98, -3549.34, -3632.90, -3490.40, -3017.57, 0.000, 0.000, 0.000, 14:07:54.916
99, -3478.77, -3574.92, -3457.53, -3003.52, 0.000, 0.000, 0.000, 14:07:54.916
100, -3781.82, -3596.16, -3588.63, -3161.05, 0.000, 0.000, 0.000, 14:07:54.916
101, -3844.11, -3629.37, -3589.88, -3127.00, 0.000, 0.000, 0.000, 14:07:54.916
102, -3638.55, -3597.84, -3518.13, -3038.19, 0.000, 0.000, 0.000, 14:07:54.916
103, -3558.95, -3541.40, -3488.68, -3002.16, 0.000, 0.000, 0.000, 14:07:54.931
104, -3900.83, -3553.23, -3586.63, -3141.85, 0.000, 0.000, 0.000, 14:07:54.933
105, -3905.96, -3599.16, -3584.72, -3104.83, 0.000, 0.000, 0.000, 14:07:54.945
106, -3682.09, -3576.89, -3509.93, -3032.07, 0.000, 0.000, 0.000, 14:07:54.945
107, -3590.83, -3518.48, -3474.18, -3039.10, 0.000, 0.000, 0.000, 14:07:54.946
108, -3897.71, -3540.80, -3588.88, -3159.48, 0.000, 0.000, 0.000, 14:07:54.946
109, -3879.05, -3584.71, -3598.42, -3128.52, 0.000, 0.000, 0.000, 14:07:54.960
110, -3726.86, -3576.75, -3524.60, -3021.22, 0.000, 0.000, 0.000, 14:07:54.960
111, -3657.12, -3519.11, -3484.48, -3036.00, 0.000, 0.000, 0.000, 14:07:54.976
112, -3892.04, -3526.70, -3593.03, -3135.02, 0.000, 0.000, 0.000, 14:07:54.976
113, -3877.84, -3580.36, -3600.09, -3108.29, 0.000, 0.000, 0.000, 14:07:54.976
114, -3646.64, -3559.48, -3511.31, -3024.02, 0.000, 0.000, 0.000, 14:07:54.976
115, -3601.09, -3503.93, -3472.08, -2992.71, 0.000, 0.000, 0.000, 14:07:54.990
116, -3880.32, -3533.14, -3583.64, -3160.30, 0.000, 0.000, 0.000, 14:07:54.990
117, -3899.35, -3591.40, -3593.93, -3139.82, 0.000, 0.000, 0.000, 14:07:55.005
118, -3673.11, -3580.04, -3520.14, -3020.83, 0.000, 0.000, 0.000, 14:07:55.006
119, -3620.81, -3513.02, -3473.47, -2987.43, 0.000, 0.000, 0.000, 14:07:55.006
120, -3864.59, -3542.37, -3601.13, -3136.84, 0.000, 0.000, 0.000, 14:07:55.006
121, -3872.45, -3589.74, -3598.90, -3131.24, 0.000, 0.000, 0.000, 14:07:55.051
122, -3672.51, -3571.57, -3495.92, -3019.49, 0.000, 0.000, 0.000, 14:07:55.051
123, -3619.47, -3531.47, -3497.19, -3019.37, 0.000, 0.000, 0.000, 14:07:55.051
124, -3911.71, -3532.95, -3574.79, -3132.44, 0.000, 0.000, 0.000, 14:07:55.051
125, -3881.49, -3610.33, -3599.93, -3125.64, 0.000, 0.000, 0.000, 14:07:55.053
126, -3694.45, -3591.61, -3522.76, -3007.56, 0.000, 0.000, 0.000, 14:07:55.053
127, -3605.71, -3521.65, -3488.27, -2991.87, 0.000, 0.000, 0.000, 14:07:55.053
128, -3890.65, -3544.55, -3601.34, -3141.52, 0.000, 0.000, 0.000, 14:07:55.053
129, -3797.27, -3581.24, -3591.38, -3131.42, 0.000, 0.000, 0.000, 14:07:55.053
130, -3656.90, -3560.56, -3500.97, -3006.83, 0.000, 0.000, 0.000, 14:07:55.053
131, -3618.36, -3517.66, -3466.17, -2983.47, 0.000, 0.000, 0.000, 14:07:55.080
132, -3847.80, -3534.10, -3581.66, -3126.62, 0.000, 0.000, 0.000, 14:07:55.080
133, -3834.80, -3578.91, -3602.18, -3108.36, 0.000, 0.000, 0.000, 14:07:55.080
134, -3673.00, -3571.82, -3507.14, -3018.03, 0.000, 0.000, 0.000, 14:07:55.082
135, -3605.49, -3528.20, -3484.84, -3028.33, 0.000, 0.000, 0.000, 14:07:55.096
136, -3891.21, -3581.63, -3603.22, -3160.94, 0.000, 0.000, 0.000, 14:07:55.096
137, -3932.06, -3617.34, -3620.83, -3186.35, 0.000, 0.000, 0.000, 14:07:55.096
138, -3661.97, -3567.24, -3498.74, -3064.18, 0.000, 0.000, 0.000, 14:07:55.096
139, -3561.82, -3499.28, -3438.94, -2988.77, 0.000, 0.000, 0.000, 14:07:55.110
140, -3839.48, -3490.04, -3528.60, -3139.46, 0.000, 0.000, 0.000, 14:07:55.110
141, -3789.15, -3534.38, -3510.24, -3122.53, 0.000, 0.000, 0.000, 14:07:55.125
142, -3621.51, -3529.99, -3446.12, -3032.25, 0.000, 0.000, 0.000, 14:07:55.126
143, -3596.47, -3479.45, -3430.03, -3049.72, 0.000, 0.000, 0.000, 14:07:55.126
144, -3847.07, -3498.41, -3534.52, -3182.11, 0.000, 0.000, 0.000, 14:07:55.126
145, -3848.42, -3560.30, -3548.63, -3175.44, 0.000, 0.000, 0.000, 14:07:55.155
146, -3618.28, -3544.68, -3450.56, -3058.89, 0.000, 0.000, 0.000, 14:07:55.155
147, -3583.32, -3475.15, -3408.63, -3084.06, 0.000, 0.000, 0.000, 14:07:55.156
148, -3856.70, -3508.35, -3533.94, -3201.71, 0.000, 0.000, 0.000, 14:07:55.156
149, -3848.73, -3572.10, -3543.73, -3181.24, 0.000, 0.000, 0.000, 14:07:55.156
150, -3670.99, -3575.94, -3481.91, -3066.59, 0.000, 0.000, 0.000, 14:07:55.156
151, -3594.22, -3508.96, -3441.74, -3027.61, 0.000, 0.000, 0.000, 14:07:55.170
152, -3867.87, -3523.50, -3555.99, -3159.94, 0.000, 0.000, 0.000, 14:07:55.170
153, -3837.15, -3584.36, -3561.73, -3128.43, 0.000, 0.000, 0.000, 14:07:55.200
154, -3630.89, -3557.17, -3473.35, -3042.33, 0.000, 0.000, 0.000, 14:07:55.200
155, -3581.99, -3519.91, -3458.93, -3042.24, 0.000, 0.000, 0.000, 14:07:55.201
156, -3870.32, -3542.92, -3576.86, -3173.38, 0.000, 0.000, 0.000, 14:07:55.201
157, -3854.20, -3570.54, -3568.24, -3142.44, 0.000, 0.000, 0.000, 14:07:55.202
158, -3638.03, -3564.45, -3499.64, -3029.50, 0.000, 0.000, 0.000, 14:07:55.202
159, -3578.73, -3519.80, -3460.93, -3031.04, 0.000, 0.000, 0.000, 14:07:55.202
160, -3852.72, -3540.53, -3570.84, -3143.57, 0.000, 0.000, 0.000, 14:07:55.202
161, -3843.99, -3588.71, -3578.49, -3119.12, 0.000, 0.000, 0.000, 14:07:55.216
162, -3659.68, -3584.04, -3489.77, -3021.29, 0.000, 0.000, 0.000, 14:07:55.216
163, -3579.55, -3516.81, -3461.31, -2996.18, 0.000, 0.000, 0.000, 14:07:55.245
164, -3862.73, -3551.97, -3589.13, -3142.09, 0.000, 0.000, 0.000, 14:07:55.245
165, -3841.25, -3591.24, -3589.35, -3113.66, 0.000, 0.000, 0.000, 14:07:55.245
166, -3656.17, -3585.56, -3501.99, -3043.26, 0.000, 0.000, 0.000, 14:07:55.245
167, -3610.16, -3536.73, -3473.42, -3023.36, 0.000, 0.000, 0.000, 14:07:55.246
168, -3878.53, -3550.05, -3592.34, -3155.10, 0.000, 0.000, 0.000, 14:07:55.246
169, -3855.69, -3595.48, -3584.22, -3131.89, 0.000, 0.000, 0.000, 14:07:55.260
170, -3642.60, -3583.60, -3498.47, -3000.11, 0.000, 0.000, 0.000, 14:07:55.261
171, -3594.17, -3530.41, -3471.00, -3020.13, 0.000, 0.000, 0.000, 14:07:55.275
172, -3876.62, -3553.91, -3582.90, -3157.77, 0.000, 0.000, 0.000, 14:07:55.275
173, -3854.51, -3594.46, -3587.54, -3114.98, 0.000, 0.000, 0.000, 14:07:55.275
174, -3653.34, -3588.36, -3518.39, -3028.57, 0.000, 0.000, 0.000, 14:07:55.275
175, -3602.54, -3533.82, -3479.26, -3004.39, 0.000, 0.000, 0.000, 14:07:55.290
176, -3851.32, -3543.72, -3570.53, -3129.16, 0.000, 0.000, 0.000, 14:07:55.290
177, -3852.41, -3614.28, -3602.78, -3123.53, 0.000, 0.000, 0.000, 14:07:55.305
178, -3657.32, -3573.30, -3499.53, -3025.13, 0.000, 0.000, 0.000, 14:07:55.305
179, -3602.60, -3533.04, -3478.40, -3023.87, 0.000, 0.000, 0.000, 14:07:55.306
180, -3891.99, -3576.56, -3607.29, -3168.85, 0.000, 0.000, 0.000, 14:07:55.306
181, -3838.88, -3603.69, -3582.89, -3124.21, 0.000, 0.000, 0.000, 14:07:55.320
182, -3628.49, -3566.19, -3468.50, -3024.56, 0.000, 0.000, 0.000, 14:07:55.320
183, -3581.54, -3502.27, -3429.75, -3033.98, 0.000, 0.000, 0.000, 14:07:55.336
184, -3858.93, -3514.25, -3539.70, -3173.02, 0.000, 0.000, 0.000, 14:07:55.336
185, -3841.25, -3565.93, -3536.12, -3176.24, 0.000, 0.000, 0.000, 14:07:55.336
186, -3643.18, -3554.45, -3442.47, -3074.82, 0.000, 0.000, 0.000, 14:07:55.336
187, -3583.66, -3481.87, -3389.55, -3058.21, 0.000, 0.000, 0.000, 14:07:55.366
188, -3833.07, -3520.15, -3520.49, -3204.30, 0.000, 0.000, 0.000, 14:07:55.366
189, -3852.75, -3570.61, -3519.29, -3199.90, 0.000, 0.000, 0.000, 14:07:55.366
190, -3674.76, -3559.17, -3440.91, -3065.96, 0.000, 0.000, 0.000, 14:07:55.366
191, -3588.69, -3514.99, -3413.92, -3056.11, 0.000, 0.000, 0.000, 14:07:55.366
192, -3892.67, -3531.33, -3542.71, -3186.65, 0.000, 0.000, 0.000, 14:07:55.366
193, -3859.57, -3577.77, -3544.63, -3156.69, 0.000, 0.000, 0.000, 14:07:55.381
194, -3642.25, -3566.37, -3457.00, -3063.93, 0.000, 0.000, 0.000, 14:07:55.381
195, -3603.42, -3527.45, -3440.25, -3052.74, 0.000, 0.000, 0.000, 14:07:55.410
196, -3861.42, -3543.59, -3549.08, -3171.12, 0.000, 0.000, 0.000, 14:07:55.410
197, -3855.39, -3589.25, -3545.81, -3145.70, 0.000, 0.000, 0.000, 14:07:55.411
198, -3631.00, -3572.83, -3467.89, -3035.33, 0.000, 0.000, 0.000, 14:07:55.411
199, -3591.53, -3521.85, -3440.96, -2997.13, 0.000, 0.000, 0.000, 14:07:55.411
200, -3858.90, -3542.40, -3554.54, -3150.24, 0.000, 0.000, 0.000, 14:07:55.412
0, -3836.07, -3613.28, -3563.55, -3150.15, 0.000, 0.000, 0.000, 14:07:55.412
1, -3649.84, -3580.14, -3482.02, -3039.51, 0.000, 0.000, 0.000, 14:07:55.425
2, -3596.87, -3536.53, -3463.07, -3022.80, 0.000, 0.000, 0.000, 14:07:55.426
3, -3882.75, -3558.66, -3588.54, -3158.12, 0.000, 0.000, 0.000, 14:07:55.440
4, -3871.72, -3619.48, -3587.10, -3138.79, 0.000, 0.000, 0.000, 14:07:55.440
5, -3692.55, -3599.06, -3503.24, -3038.98, 0.000, 0.000, 0.000, 14:07:55.441
6, -3636.88, -3530.59, -3465.61, -3015.31, 0.000, 0.000, 0.000, 14:07:55.441
7, -3842.94, -3526.09, -3558.75, -3146.83, 0.000, 0.000, 0.000, 14:07:55.455
8, -3846.17, -3590.59, -3568.99, -3112.67, 0.000, 0.000, 0.000, 14:07:55.455
9, -3640.59, -3560.42, -3472.35, -2961.82, 0.000, 0.000, 0.000, 14:07:55.470
10, -3600.84, -3516.38, -3448.51, -3000.22, 0.000, 0.000, 0.000, 14:07:55.470
11, -3850.86, -3557.99, -3581.38, -3159.12, 0.000, 0.000, 0.000, 14:07:55.470
12, -3860.72, -3605.07, -3578.17, -3144.23, 0.000, 0.000, 0.000, 14:07:55.471
13, -3637.40, -3582.71, -3489.78, -3009.44, 0.000, 0.000, 0.000, 14:07:55.486
14, -3589.54, -3544.02, -3481.24, -3033.38, 0.000, 0.000, 0.000, 14:07:55.486
15, -3842.40, -3541.56, -3564.59, -3120.91, 0.000, 0.000, 0.000, 14:07:55.500
16, -3841.78, -3598.52, -3575.00, -3112.77, 0.000, 0.000, 0.000, 14:07:55.500
17, -3647.85, -3592.10, -3496.40, -3038.22, 0.000, 0.000, 0.000, 14:07:55.500
18, -3607.19, -3533.99, -3472.75, -3029.94, 0.000, 0.000, 0.000, 14:07:55.501
19, -3874.11, -3546.51, -3582.53, -3145.49, 0.000, 0.000, 0.000, 14:07:55.516
20, -3821.00, -3599.73, -3581.80, -3125.83, 0.000, 0.000, 0.000, 14:07:55.516
21, -3652.27, -3593.86, -3505.21, -3024.92, 0.000, 0.000, 0.000, 14:07:55.533
22, -3629.29, -3538.51, -3476.50, -3033.62, 0.000, 0.000, 0.000, 14:07:55.533
23, -3874.63, -3536.59, -3561.74, -3142.76, 0.000, 0.000, 0.000, 14:07:55.533
24, -3820.90, -3578.27, -3552.02, -3088.08, 0.000, 0.000, 0.000, 14:07:55.533
25, -3647.67, -3586.03, -3494.08, -3036.95, 0.000, 0.000, 0.000, 14:07:55.553
26, -3582.91, -3535.56, -3458.59, -3038.94, 0.000, 0.000, 0.000, 14:07:55.553
27, -3865.08, -3543.30, -3583.20, -3173.51, 0.000, 0.000, 0.000, 14:07:55.560
28, -3863.34, -3583.71, -3565.60, -3106.06, 0.000, 0.000, 0.000, 14:07:55.560
29, -3667.28, -3574.19, -3489.25, -3040.92, 0.000, 0.000, 0.000, 14:07:55.560
30, -3621.37, -3518.01, -3459.10, -3019.22, 0.000, 0.000, 0.000, 14:07:55.561
31, -3867.88, -3540.25, -3581.45, -3178.46, 0.000, 0.000, 0.000, 14:07:55.575
32, -3860.25, -3590.66, -3582.45, -3099.81, 0.000, 0.000, 0.000, 14:07:55.575
33, -3649.88, -3582.73, -3495.40, -3028.51, 0.000, 0.000, 0.000, 14:07:55.590
34, -3603.69, -3528.55, -3470.07, -3016.47, 0.000, 0.000, 0.000, 14:07:55.590
35, -3846.97, -3535.85, -3568.57, -3114.51, 0.000, 0.000, 0.000, 14:07:55.591
36, -3830.91, -3590.86, -3564.40, -3112.38, 0.000, 0.000, 0.000, 14:07:55.591
37, -3638.62, -3585.28, -3493.36, -3020.40, 0.000, 0.000, 0.000, 14:07:55.605
38, -3604.52, -3530.16, -3463.41, -3026.71, 0.000, 0.000, 0.000, 14:07:55.605
39, -3879.25, -3553.33, -3579.26, -3130.67, 0.000, 0.000, 0.000, 14:07:55.620
40, -3846.90, -3601.33, -3584.35, -3104.99, 0.000, 0.000, 0.000, 14:07:55.620
41, -3650.43, -3582.70, -3502.39, -3042.49, 0.000, 0.000, 0.000, 14:07:55.620
42, -3619.59, -3532.01, -3460.83, -3001.46, 0.000, 0.000, 0.000, 14:07:55.620
43, -3887.40, -3556.14, -3577.87, -3124.74, 0.000, 0.000, 0.000, 14:07:55.636
44, -3841.14, -3599.41, -3586.03, -3093.90, 0.000, 0.000, 0.000, 14:07:55.636
45, -3640.74, -3582.70, -3492.19, -3036.36, 0.000, 0.000, 0.000, 14:07:55.650
46, -3615.97, -3533.93, -3470.85, -3011.56, 0.000, 0.000, 0.000, 14:07:55.650
47, -3839.24, -3559.15, -3586.78, -3137.64, 0.000, 0.000, 0.000, 14:07:55.651
48, -3834.55, -3594.13, -3575.85, -3073.22, 0.000, 0.000, 0.000, 14:07:55.651
49, -3625.29, -3585.62, -3497.57, -3030.99, 0.000, 0.000, 0.000, 14:07:55.665
50, -3622.53, -3534.33, -3455.50, -3013.78, 0.000, 0.000, 0.000, 14:07:55.665
51, -3864.01, -3561.12, -3588.57, -3141.10, 0.000, 0.000, 0.000, 14:07:55.680
52, -3861.70, -3606.88, -3584.91, -3109.99, 0.000, 0.000, 0.000, 14:07:55.680
53, -3646.97, -3578.55, -3493.00, -3029.50, 0.000, 0.000, 0.000, 14:07:55.681
54, -3601.43, -3533.13, -3468.80, -3024.06, 0.000, 0.000, 0.000, 14:07:55.681
55, -3851.48, -3563.30, -3573.91, -3159.65, 0.000, 0.000, 0.000, 14:07:55.695
56, -3854.36, -3603.32, -3588.06, -3127.41, 0.000, 0.000, 0.000, 14:07:55.695
57, -3648.31, -3588.64, -3488.00, -3021.03, 0.000, 0.000, 0.000, 14:07:55.710
58, -3615.12, -3551.04, -3464.50, -3016.11, 0.000, 0.000, 0.000, 14:07:55.710
59, -3861.78, -3571.40, -3577.01, -3162.71, 0.000, 0.000, 0.000, 14:07:55.711
60, -3798.15, -3622.29, -3538.48, -3081.44, 0.000, 0.000, 0.000, 14:07:55.711
61, -3633.99, -3611.74, -3491.44, -3037.48, 0.000, 0.000, 0.000, 14:07:55.725
62, -3561.07, -3540.23, -3463.85, -3015.64, 0.000, 0.000, 0.000, 14:07:55.725
63, -3809.86, -3626.93, -3591.08, -3138.22, 0.000, 0.000, 0.000, 14:07:55.755
64, -3770.40, -3647.40, -3561.16, -3086.53, 0.000, 0.000, 0.000, 14:07:55.755
65, -3547.59, -3603.61, -3491.77, -2984.15, 0.000, 0.000, 0.000, 14:07:55.755
66, -3478.47, -3571.99, -3472.45, -2947.94, 0.000, 0.000, 0.000, 14:07:55.755
67, -3713.80, -3634.19, -3588.57, -3060.34, 0.000, 0.000, 0.000, 14:07:55.756
68, -3677.87, -3679.23, -3586.41, -3032.90, 0.000, 0.000, 0.000, 14:07:55.756
69, -3503.99, -3671.43, -3524.06, -2942.59, 0.000, 0.000, 0.000, 14:07:55.757
70, -3452.57, -3616.94, -3508.93, -2935.76, 0.000, 0.000, 0.000, 14:07:55.757
71, -3720.74, -3624.94, -3636.69, -3053.28, 0.000, 0.000, 0.000, 14:07:55.770
72, -3716.58, -3667.55, -3633.70, -3037.43, 0.000, 0.000, 0.000, 14:07:55.770
73, -3540.87, -3628.95, -3555.19, -2930.03, 0.000, 0.000, 0.000, 14:07:55.800
74, -3536.66, -3571.72, -3546.72, -2904.30, 0.000, 0.000, 0.000, 14:07:55.800
75, -3822.51, -3585.66, -3650.96, -3052.75, 0.000, 0.000, 0.000, 14:07:55.800
76, -3781.87, -3629.05, -3649.07, -3036.53, 0.000, 0.000, 0.000, 14:07:55.800
77, -3622.53, -3620.99, -3576.27, -2933.99, 0.000, 0.000, 0.000, 14:07:55.802
78, -3595.83, -3538.29, -3540.28, -2921.39, 0.000, 0.000, 0.000, 14:07:55.802
79, -3876.95, -3568.81, -3666.58, -3044.45, 0.000, 0.000, 0.000, 14:07:55.816
80, -3865.06, -3599.92, -3652.66, -3042.39, 0.000, 0.000, 0.000, 14:07:55.816
81, -3663.30, -3566.42, -3555.67, -2914.30, 0.000, 0.000, 0.000, 14:07:55.830
82, -3659.18, -3551.98, -3546.99, -2942.71, 0.000, 0.000, 0.000, 14:07:55.831
83, -3918.20, -3562.76, -3657.27, -3054.46, 0.000, 0.000, 0.000, 14:07:55.831
84, -3883.28, -3599.88, -3668.70, -3031.86, 0.000, 0.000, 0.000, 14:07:55.831
85, -3707.82, -3565.54, -3568.50, -2944.20, 0.000, 0.000, 0.000, 14:07:55.845
86, -3626.34, -3508.90, -3530.50, -2935.69, 0.000, 0.000, 0.000, 14:07:55.845
87, -3919.04, -3536.12, -3639.32, -3063.40, 0.000, 0.000, 0.000, 14:07:55.860
88, -3894.87, -3590.42, -3640.57, -3072.90, 0.000, 0.000, 0.000, 14:07:55.860
89, -3680.52, -3566.94, -3547.52, -2971.18, 0.000, 0.000, 0.000, 14:07:55.861
90, -3627.26, -3513.28, -3509.19, -2994.45, 0.000, 0.000, 0.000, 14:07:55.861
91, -3895.60, -3522.98, -3606.22, -3071.55, 0.000, 0.000, 0.000, 14:07:55.883
92, -3859.42, -3579.45, -3604.73, -3080.62, 0.000, 0.000, 0.000, 14:07:55.883
93, -3681.49, -3584.94, -3532.60, -2989.61, 0.000, 0.000, 0.000, 14:07:55.890
94, -3645.07, -3513.75, -3493.22, -3014.27, 0.000, 0.000, 0.000, 14:07:55.890
95, -3918.12, -3553.30, -3611.91, -3131.76, 0.000, 0.000, 0.000, 14:07:55.890
96, -3871.16, -3592.49, -3608.49, -3095.88, 0.000, 0.000, 0.000, 14:07:55.890
97, -3678.36, -3585.17, -3526.40, -3005.00, 0.000, 0.000, 0.000, 14:07:55.920
98, -3620.69, -3513.47, -3479.17, -2997.07, 0.000, 0.000, 0.000, 14:07:55.920
99, -3882.42, -3544.80, -3597.71, -3126.41, 0.000, 0.000, 0.000, 14:07:55.921
100, -3865.02, -3588.87, -3599.42, -3105.19, 0.000, 0.000, 0.000, 14:07:55.921
101, -3662.46, -3573.45, -3520.18, -3011.59, 0.000, 0.000, 0.000, 14:07:55.921
102, -3621.52, -3529.72, -3492.37, -3004.92, 0.000, 0.000, 0.000, 14:07:55.922
103, -3891.52, -3554.05, -3592.55, -3129.43, 0.000, 0.000, 0.000, 14:07:55.936
104, -3849.68, -3576.50, -3572.67, -3091.65, 0.000, 0.000, 0.000, 14:07:55.936
105, -3678.94, -3590.49, -3518.57, -3024.40, 0.000, 0.000, 0.000, 14:07:55.950
106, -3615.08, -3516.54, -3467.15, -2981.74, 0.000, 0.000, 0.000, 14:07:55.950
107, -3874.50, -3526.45, -3566.82, -3120.90, 0.000, 0.000, 0.000, 14:07:55.951
108, -3846.99, -3591.97, -3586.57, -3084.98, 0.000, 0.000, 0.000, 14:07:55.951
109, -3665.14, -3585.17, -3506.53, -2997.23, 0.000, 0.000, 0.000, 14:07:55.965
110, -3618.46, -3519.40, -3475.29, -3010.81, 0.000, 0.000, 0.000, 14:07:55.966
111, -3870.21, -3537.66, -3584.52, -3131.30, 0.000, 0.000, 0.000, 14:07:55.980
112, -3873.49, -3592.61, -3586.08, -3096.16, 0.000, 0.000, 0.000, 14:07:55.980
113, -3656.29, -3580.00, -3497.23, -2997.88, 0.000, 0.000, 0.000, 14:07:55.980
114, -3597.10, -3509.89, -3470.86, -2984.88, 0.000, 0.000, 0.000, 14:07:55.980
115, -3885.51, -3559.49, -3583.21, -3131.58, 0.000, 0.000, 0.000, 14:07:55.995
116, -3857.14, -3587.45, -3582.64, -3096.64, 0.000, 0.000, 0.000, 14:07:55.995
117, -3673.95, -3588.64, -3515.17, -3030.04, 0.000, 0.000, 0.000, 14:07:56.010
118, -3629.07, -3529.37, -3483.21, -3015.65, 0.000, 0.000, 0.000, 14:07:56.010
119, -3881.87, -3549.00, -3594.52, -3174.02, 0.000, 0.000, 0.000, 14:07:56.011
120, -3832.10, -3599.40, -3595.18, -3104.22, 0.000, 0.000, 0.000, 14:07:56.011
121, -3638.73, -3574.39, -3493.60, -3012.78, 0.000, 0.000, 0.000, 14:07:56.025
122, -3607.62, -3524.05, -3480.19, -3007.39, 0.000, 0.000, 0.000, 14:07:56.025
123, -3852.90, -3534.53, -3572.98, -3137.92, 0.000, 0.000, 0.000, 14:07:56.040
124, -3860.60, -3597.63, -3573.24, -3106.29, 0.000, 0.000, 0.000, 14:07:56.040
125, -3641.16, -3591.20, -3498.82, -3027.61, 0.000, 0.000, 0.000, 14:07:56.041
126, -3613.83, -3524.00, -3474.26, -2997.58, 0.000, 0.000, 0.000, 14:07:56.041
127, -3883.34, -3547.93, -3587.18, -3136.97, 0.000, 0.000, 0.000, 14:07:56.055
128, -3875.94, -3602.53, -3592.19, -3107.97, 0.000, 0.000, 0.000, 14:07:56.055
129, -3658.00, -3589.21, -3504.54, -2999.74, 0.000, 0.000, 0.000, 14:07:56.070
130, -3614.67, -3525.53, -3460.58, -2991.65, 0.000, 0.000, 0.000, 14:07:56.070
131, -3898.15, -3558.12, -3587.59, -3128.87, 0.000, 0.000, 0.000, 14:07:56.071
132, -3848.00, -3602.68, -3582.34, -3121.09, 0.000, 0.000, 0.000, 14:07:56.071
133, -3663.02, -3591.63, -3519.08, -3018.59, 0.000, 0.000, 0.000, 14:07:56.086
134, -3621.86, -3525.52, -3470.86, -3033.65, 0.000, 0.000, 0.000, 14:07:56.086
135, -3876.42, -3554.71, -3578.93, -3139.80, 0.000, 0.000, 0.000, 14:07:56.100
136, -3838.98, -3593.84, -3568.74, -3110.32, 0.000, 0.000, 0.000, 14:07:56.100
137, -3662.31, -3579.27, -3504.53, -3001.60, 0.000, 0.000, 0.000, 14:07:56.100
138, -3611.08, -3523.77, -3473.58, -3001.44, 0.000, 0.000, 0.000, 14:07:56.100
139, -3894.89, -3546.46, -3594.42, -3142.89, 0.000, 0.000, 0.000, 14:07:56.116
140, -3809.31, -3581.42, -3567.43, -3089.99, 0.000, 0.000, 0.000, 14:07:56.116
141, -3630.62, -3588.39, -3494.50, -3009.80, 0.000, 0.000, 0.000, 14:07:56.131
142, -3606.83, -3522.45, -3469.64, -2998.51, 0.000, 0.000, 0.000, 14:07:56.131
143, -3864.88, -3565.99, -3588.25, -3133.41, 0.000, 0.000, 0.000, 14:07:56.132
144, -3848.85, -3592.42, -3583.63, -3090.15, 0.000, 0.000, 0.000, 14:07:56.132
145, -3656.55, -3587.69, -3502.14, -3009.40, 0.000, 0.000, 0.000, 14:07:56.145
146, -3622.30, -3527.61, -3487.44, -3014.09, 0.000, 0.000, 0.000, 14:07:56.145
147, -3840.19, -3533.86, -3572.05, -3121.54, 0.000, 0.000, 0.000, 14:07:56.160
148, -3850.70, -3610.18, -3586.23, -3097.88, 0.000, 0.000, 0.000, 14:07:56.160
149, -3630.80, -3569.50, -3482.94, -3010.61, 0.000, 0.000, 0.000, 14:07:56.160
150, -3595.97, -3518.80, -3468.52, -2998.20, 0.000, 0.000, 0.000, 14:07:56.161
151, -3866.57, -3560.50, -3595.26, -3145.36, 0.000, 0.000, 0.000, 14:07:56.205
152, -3853.53, -3606.81, -3582.59, -3126.08, 0.000, 0.000, 0.000, 14:07:56.205
153, -3634.37, -3574.36, -3499.83, -3004.67, 0.000, 0.000, 0.000, 14:07:56.206
154, -3631.49, -3513.38, -3469.62, -3009.41, 0.000, 0.000, 0.000, 14:07:56.206
155, -3892.74, -3553.25, -3591.28, -3152.10, 0.000, 0.000, 0.000, 14:07:56.206
156, -3849.59, -3595.26, -3581.39, -3104.25, 0.000, 0.000, 0.000, 14:07:56.206
157, -3650.30, -3590.45, -3510.80, -3006.25, 0.000, 0.000, 0.000, 14:07:56.207
158, -3640.74, -3527.84, -3471.67, -3009.54, 0.000, 0.000, 0.000, 14:07:56.207
159, -3877.40, -3552.18, -3589.97, -3157.11, 0.000, 0.000, 0.000, 14:07:56.208
160, -3865.10, -3604.65, -3586.89, -3125.26, 0.000, 0.000, 0.000, 14:07:56.208
161, -3626.48, -3567.91, -3480.00, -2981.21, 0.000, 0.000, 0.000, 14:07:56.220
162, -3596.24, -3524.37, -3465.03, -3000.27, 0.000, 0.000, 0.000, 14:07:56.220
163, -3877.52, -3551.25, -3581.88, -3136.11, 0.000, 0.000, 0.000, 14:07:56.236
164, -3844.65, -3600.04, -3588.84, -3088.89, 0.000, 0.000, 0.000, 14:07:56.236
165, -3644.52, -3583.84, -3503.75, -3002.27, 0.000, 0.000, 0.000, 14:07:56.250
166, -3610.20, -3527.39, -3479.20, -3004.54, 0.000, 0.000, 0.000, 14:07:56.250
167, -3871.17, -3546.26, -3581.84, -3136.11, 0.000, 0.000, 0.000, 14:07:56.250
168, -3846.57, -3609.61, -3588.80, -3098.47, 0.000, 0.000, 0.000, 14:07:56.251
169, -3633.53, -3575.12, -3498.54, -3011.08, 0.000, 0.000, 0.000, 14:07:56.266
170, -3593.99, -3523.32, -3468.37, -3001.00, 0.000, 0.000, 0.000, 14:07:56.266
171, -3876.97, -3553.85, -3585.86, -3106.01, 0.000, 0.000, 0.000, 14:07:56.280
172, -3838.03, -3595.07, -3582.19, -3087.85, 0.000, 0.000, 0.000, 14:07:56.280
173, -3629.26, -3588.98, -3503.04, -3013.41, 0.000, 0.000, 0.000, 14:07:56.281
174, -3616.75, -3527.85, -3472.76, -3004.68, 0.000, 0.000, 0.000, 14:07:56.281
175, -3895.14, -3552.52, -3585.39, -3128.27, 0.000, 0.000, 0.000, 14:07:56.310
176, -3829.69, -3589.09, -3569.48, -3113.78, 0.000, 0.000, 0.000, 14:07:56.310
177, -3645.94, -3617.95, -3501.28, -3009.19, 0.000, 0.000, 0.000, 14:07:56.311
178, -3597.28, -3547.04, -3467.26, -3006.04, 0.000, 0.000, 0.000, 14:07:56.311
179, -3869.83, -3562.56, -3592.44, -3140.31, 0.000, 0.000, 0.000, 14:07:56.311
180, -3847.90, -3630.69, -3584.80, -3112.09, 0.000, 0.000, 0.000, 14:07:56.312
181, -3631.00, -3615.51, -3488.52, -3008.85, 0.000, 0.000, 0.000, 14:07:56.325
182, -3587.14, -3511.29, -3464.74, -3008.37, 0.000, 0.000, 0.000, 14:07:56.325
183, -3864.80, -3623.27, -3581.68, -3151.05, 0.000, 0.000, 0.000, 14:07:56.355
184, -3780.27, -3627.80, -3571.74, -3101.33, 0.000, 0.000, 0.000, 14:07:56.355
185, -3566.92, -3572.80, -3488.87, -2988.64, 0.000, 0.000, 0.000, 14:07:56.355
186, -3509.85, -3565.10, -3453.89, -2990.32, 0.000, 0.000, 0.000, 14:07:56.356
187, -3740.31, -3632.73, -3557.80, -3098.76, 0.000, 0.000, 0.000, 14:07:56.356
188, -3668.37, -3681.65, -3568.55, -3077.15, 0.000, 0.000, 0.000, 14:07:56.356
189, -3456.48, -3691.61, -3497.46, -2989.89, 0.000, 0.000, 0.000, 14:07:56.357
190, -3404.72, -3630.01, -3450.58, -2974.98, 0.000, 0.000, 0.000, 14:07:56.357
191, -3682.84, -3669.77, -3568.17, -3128.01, 0.000, 0.000, 0.000, 14:07:56.377
192, -3669.74, -3693.19, -3561.24, -3067.70, 0.000, 0.000, 0.000, 14:07:56.377
193, -3473.91, -3672.31, -3485.98, -2993.38, 0.000, 0.000, 0.000, 14:07:56.386
194, -3465.28, -3615.51, -3477.97, -3001.25, 0.000, 0.000, 0.000, 14:07:56.386
195, -3749.29, -3608.44, -3569.02, -3134.14, 0.000, 0.000, 0.000, 14:07:56.400
196, -3769.73, -3642.56, -3577.37, -3099.39, 0.000, 0.000, 0.000, 14:07:56.400
197, -3609.30, -3622.24, -3513.30, -3020.19, 0.000, 0.000, 0.000, 14:07:56.400
198, -3612.16, -3548.57, -3484.54, -3015.48, 0.000, 0.000, 0.000, 14:07:56.401
199, -3869.35, -3545.48, -3582.34, -3116.71, 0.000, 0.000, 0.000, 14:07:56.416
200, -3870.49, -3587.96, -3591.99, -3115.16, 0.000, 0.000, 0.000, 14:07:56.416
0, -3709.33, -3577.76, -3512.65, -2988.54, 0.000, 0.000, 0.000, 14:07:56.416
1, -3671.41, -3515.71, -3483.85, -3035.15, 0.000, 0.000, 0.000, 14:07:56.430
2, -3924.53, -3532.18, -3587.45, -3151.42, 0.000, 0.000, 0.000, 14:07:56.430
3, -3911.97, -3584.90, -3591.16, -3114.82, 0.000, 0.000, 0.000, 14:07:56.445
4, -3728.16, -3557.09, -3524.49, -3031.19, 0.000, 0.000, 0.000, 14:07:56.446
5, -3705.49, -3500.68, -3499.33, -3020.16, 0.000, 0.000, 0.000, 14:07:56.446
6, -3956.30, -3517.37, -3588.14, -3148.63, 0.000, 0.000, 0.000, 14:07:56.446
7, -3897.04, -3572.26, -3584.00, -3126.46, 0.000, 0.000, 0.000, 14:07:56.475
8, -3728.71, -3557.28, -3520.13, -3016.10, 0.000, 0.000, 0.000, 14:07:56.475
9, -3691.17, -3505.27, -3488.75, -3016.91, 0.000, 0.000, 0.000, 14:07:56.475
10, -3922.13, -3514.29, -3586.08, -3149.17, 0.000, 0.000, 0.000, 14:07:56.475
11, -3894.36, -3570.64, -3589.16, -3130.55, 0.000, 0.000, 0.000, 14:07:56.476
12, -3703.35, -3556.87, -3500.73, -3002.08, 0.000, 0.000, 0.000, 14:07:56.476
13, -3678.64, -3511.22, -3492.63, -3013.11, 0.000, 0.000, 0.000, 14:07:56.490
14, -3918.07, -3516.67, -3572.52, -3136.14, 0.000, 0.000, 0.000, 14:07:56.490
15, -3882.31, -3586.53, -3584.13, -3100.63, 0.000, 0.000, 0.000, 14:07:56.505
16, -3701.43, -3563.18, -3497.10, -3009.88, 0.000, 0.000, 0.000, 14:07:56.505
17, -3675.78, -3527.60, -3488.46, -3038.29, 0.000, 0.000, 0.000, 14:07:56.505
18, -3933.07, -3544.79, -3601.82, -3179.32, 0.000, 0.000, 0.000, 14:07:56.505
19, -3906.15, -3577.90, -3588.12, -3111.07, 0.000, 0.000, 0.000, 14:07:56.520
20, -3692.56, -3568.58, -3508.93, -3018.32, 0.000, 0.000, 0.000, 14:07:56.520
21, -3649.22, -3515.43, -3495.13, -3006.61, 0.000, 0.000, 0.000, 14:07:56.551
22, -3934.13, -3550.90, -3596.52, -3133.47, 0.000, 0.000, 0.000, 14:07:56.551
23, -3876.19, -3587.33, -3580.13, -3137.13, 0.000, 0.000, 0.000, 14:07:56.551
24, -3684.77, -3583.43, -3511.63, -3027.81, 0.000, 0.000, 0.000, 14:07:56.551
25, -3653.16, -3522.60, -3485.06, -3040.45, 0.000, 0.000, 0.000, 14:07:56.552
26, -3906.00, -3544.36, -3597.98, -3143.63, 0.000, 0.000, 0.000, 14:07:56.553
27, -3863.31, -3581.35, -3589.34, -3115.36, 0.000, 0.000, 0.000, 14:07:56.553
28, -3673.18, -3573.46, -3493.07, -2999.34, 0.000, 0.000, 0.000, 14:07:56.554
29, -3645.25, -3524.66, -3478.87, -3009.55, 0.000, 0.000, 0.000, 14:07:56.566
30, -3914.23, -3551.86, -3597.45, -3147.38, 0.000, 0.000, 0.000, 14:07:56.566
31, -3869.06, -3591.51, -3590.96, -3124.10, 0.000, 0.000, 0.000, 14:07:56.580
32, -3654.04, -3568.37, -3507.28, -2999.16, 0.000, 0.000, 0.000, 14:07:56.581
33, -3640.25, -3523.19, -3487.05, -3020.00, 0.000, 0.000, 0.000, 14:07:56.595
34, -3867.19, -3541.32, -3579.58, -3141.07, 0.000, 0.000, 0.000, 14:07:56.596
35, -3873.84, -3595.41, -3590.86, -3109.43, 0.000, 0.000, 0.000, 14:07:56.597
36, -3650.56, -3568.44, -3494.36, -2993.27, 0.000, 0.000, 0.000, 14:07:56.597
37, -3628.94, -3521.67, -3482.79, -2978.17, 0.000, 0.000, 0.000, 14:07:56.610
38, -3906.85, -3549.55, -3587.47, -3130.77, 0.000, 0.000, 0.000, 14:07:56.610
39, -3858.05, -3598.78, -3596.39, -3098.86, 0.000, 0.000, 0.000, 14:07:56.625
40, -3660.85, -3582.50, -3508.22, -3014.34, 0.000, 0.000, 0.000, 14:07:56.625
41, -3635.02, -3523.37, -3475.55, -3017.73, 0.000, 0.000, 0.000, 14:07:56.626
42, -3884.94, -3554.64, -3592.95, -3162.10, 0.000, 0.000, 0.000, 14:07:56.626
43, -3831.01, -3588.46, -3579.48, -3090.97, 0.000, 0.000, 0.000, 14:07:56.640
44, -3645.77, -3575.97, -3498.18, -2999.90, 0.000, 0.000, 0.000, 14:07:56.640
45, -3637.24, -3527.28, -3487.94, -2980.26, 0.000, 0.000, 0.000, 14:07:56.655
46, -3905.86, -3559.82, -3587.94, -3146.43, 0.000, 0.000, 0.000, 14:07:56.655
47, -3837.52, -3592.96, -3585.98, -3123.57, 0.000, 0.000, 0.000, 14:07:56.656
48, -3621.08, -3569.24, -3483.95, -2989.51, 0.000, 0.000, 0.000, 14:07:56.656
49, -3629.88, -3524.46, -3483.18, -3011.22, 0.000, 0.000, 0.000, 14:07:56.670
50, -3871.09, -3551.31, -3591.33, -3135.54, 0.000, 0.000, 0.000, 14:07:56.670
51, -3832.16, -3590.03, -3574.39, -3102.31, 0.000, 0.000, 0.000, 14:07:56.700
52, -3626.88, -3562.09, -3484.17, -3002.63, 0.000, 0.000, 0.000, 14:07:56.700
53, -3623.50, -3527.58, -3484.94, -3005.24, 0.000, 0.000, 0.000, 14:07:56.701
54, -3902.57, -3555.38, -3597.26, -3125.64, 0.000, 0.000, 0.000, 14:07:56.701
55, -3831.31, -3605.70, -3576.87, -3100.20, 0.000, 0.000, 0.000, 14:07:56.702
56, -3637.22, -3587.88, -3505.64, -2984.01, 0.000, 0.000, 0.000, 14:07:56.702
57, -3631.91, -3529.20, -3482.93, -3026.70, 0.000, 0.000, 0.000, 14:07:56.702
58, -3878.05, -3554.61, -3598.71, -3176.76, 0.000, 0.000, 0.000, 14:07:56.702
59, -3823.50, -3586.63, -3577.55, -3078.75, 0.000, 0.000, 0.000, 14:07:56.722
60, -3636.23, -3576.99, -3502.47, -3002.28, 0.000, 0.000, 0.000, 14:07:56.722
61, -3620.31, -3523.83, -3473.41, -3026.18, 0.000, 0.000, 0.000, 14:07:56.760
62, -3891.88, -3567.43, -3591.75, -3143.25, 0.000, 0.000, 0.000, 14:07:56.760
63, -3833.94, -3589.83, -3582.55, -3116.64, 0.000, 0.000, 0.000, 14:07:56.761
64, -3632.54, -3584.74, -3506.18, -2998.50, 0.000, 0.000, 0.000, 14:07:56.761
65, -3634.39, -3523.04, -3482.41, -2986.97, 0.000, 0.000, 0.000, 14:07:56.762
66, -3866.75, -3558.91, -3596.08, -3154.68, 0.000, 0.000, 0.000, 14:07:56.762
67, -3828.92, -3595.86, -3588.27, -3114.44, 0.000, 0.000, 0.000, 14:07:56.762
68, -3650.72, -3581.15, -3499.30, -3000.18, 0.000, 0.000, 0.000, 14:07:56.762
69, -3630.21, -3529.96, -3478.59, -3018.62, 0.000, 0.000, 0.000, 14:07:56.763
70, -3896.19, -3567.35, -3603.31, -3164.85, 0.000, 0.000, 0.000, 14:07:56.763
71, -3821.87, -3599.33, -3579.33, -3103.14, 0.000, 0.000, 0.000, 14:07:56.775
72, -3639.29, -3581.66, -3515.28, -3007.32, 0.000, 0.000, 0.000, 14:07:56.775
73, -3622.21, -3530.47, -3473.99, -3018.99, 0.000, 0.000, 0.000, 14:07:56.790
74, -3895.93, -3557.78, -3588.22, -3138.69, 0.000, 0.000, 0.000, 14:07:56.790
75, -3837.58, -3599.23, -3584.96, -3111.04, 0.000, 0.000, 0.000, 14:07:56.805
76, -3646.54, -3585.51, -3500.62, -3011.86, 0.000, 0.000, 0.000, 14:07:56.805
77, -3621.74, -3531.28, -3480.21, -3034.40, 0.000, 0.000, 0.000, 14:07:56.806
78, -3876.03, -3555.41, -3586.03, -3124.52, 0.000, 0.000, 0.000, 14:07:56.806
79, -3840.28, -3599.67, -3590.81, -3084.52, 0.000, 0.000, 0.000, 14:07:56.820
80, -3631.35, -3569.88, -3500.88, -2998.12, 0.000, 0.000, 0.000, 14:07:56.820
81, -3622.37, -3515.01, -3474.45, -2980.49, 0.000, 0.000, 0.000, 14:07:56.836
82, -3902.03, -3551.67, -3592.36, -3141.38, 0.000, 0.000, 0.000, 14:07:56.837
83, -3854.76, -3598.01, -3586.39, -3114.74, 0.000, 0.000, 0.000, 14:07:56.837
84, -3644.64, -3576.61, -3496.57, -3021.79, 0.000, 0.000, 0.000, 14:07:56.837
85, -3609.32, -3515.97, -3463.94, -3021.34, 0.000, 0.000, 0.000, 14:07:56.866
86, -3896.65, -3558.94, -3590.98, -3135.80, 0.000, 0.000, 0.000, 14:07:56.866
87, -3838.29, -3603.55, -3588.00, -3112.10, 0.000, 0.000, 0.000, 14:07:56.867
88, -3609.03, -3573.80, -3486.95, -2988.49, 0.000, 0.000, 0.000, 14:07:56.867
89, -3630.84, -3547.32, -3482.49, -3022.81, 0.000, 0.000, 0.000, 14:07:56.867
90, -3876.34, -3557.58, -3581.60, -3135.79, 0.000, 0.000, 0.000, 14:07:56.867
91, -3838.60, -3595.44, -3586.14, -3121.34, 0.000, 0.000, 0.000, 14:07:56.880
92, -3615.08, -3573.15, -3484.86, -2978.81, 0.000, 0.000, 0.000, 14:07:56.880
93, -3627.52, -3535.54, -3480.24, -3009.33, 0.000, 0.000, 0.000, 14:07:56.910
94, -3879.49, -3546.94, -3583.19, -3143.12, 0.000, 0.000, 0.000, 14:07:56.910
95, -3839.10, -3618.75, -3592.79, -3117.86, 0.000, 0.000, 0.000, 14:07:56.910
96, -3653.37, -3584.11, -3505.13, -3000.89, 0.000, 0.000, 0.000, 14:07:56.910
97, -3619.56, -3526.71, -3488.82, -3052.24, 0.000, 0.000, 0.000, 14:07:56.911
98, -3892.46, -3562.65, -3600.34, -3123.49, 0.000, 0.000, 0.000, 14:07:56.911
99, -3846.80, -3607.88, -3583.14, -3117.60, 0.000, 0.000, 0.000, 14:07:56.912
100, -3617.37, -3565.22, -3471.79, -2945.83, 0.000, 0.000, 0.000, 14:07:56.912
101, -3632.97, -3517.62, -3466.89, -3033.73, 0.000, 0.000, 0.000, 14:07:56.925
102, -3883.86, -3534.60, -3564.41, -3146.62, 0.000, 0.000, 0.000, 14:07:56.925
103, -3820.24, -3567.72, -3556.62, -3140.13, 0.000, 0.000, 0.000, 14:07:56.940
104, -3648.61, -3552.68, -3460.98, -3052.51, 0.000, 0.000, 0.000, 14:07:56.941
105, -3634.21, -3480.90, -3436.06, -3071.08, 0.000, 0.000, 0.000, 14:07:56.955
106, -3870.56, -3524.26, -3553.80, -3174.72, 0.000, 0.000, 0.000, 14:07:56.955
107, -3846.62, -3589.15, -3554.15, -3170.66, 0.000, 0.000, 0.000, 14:07:56.956
108, -3654.87, -3557.83, -3466.22, -3041.90, 0.000, 0.000, 0.000, 14:07:56.956
109, -3613.41, -3500.11, -3440.51, -3050.22, 0.000, 0.000, 0.000, 14:07:56.970
110, -3907.52, -3562.13, -3574.84, -3185.25, 0.000, 0.000, 0.000, 14:07:56.970
111, -3850.21, -3585.04, -3559.69, -3123.65, 0.000, 0.000, 0.000, 14:07:56.986
112, -3658.51, -3574.88, -3491.12, -3038.42, 0.000, 0.000, 0.000, 14:07:56.986
113, -3620.82, -3507.00, -3455.39, -3022.60, 0.000, 0.000, 0.000, 14:07:56.986
114, -3893.10, -3550.24, -3573.18, -3162.54, 0.000, 0.000, 0.000, 14:07:56.986
115, -3866.61, -3600.98, -3569.85, -3138.67, 0.000, 0.000, 0.000, 14:07:57.000
116, -3624.86, -3572.67, -3480.18, -3006.86, 0.000, 0.000, 0.000, 14:07:57.000
117, -3638.10, -3526.70, -3458.76, -3062.58, 0.000, 0.000, 0.000, 14:07:57.045
118, -3868.77, -3551.88, -3560.01, -3154.37, 0.000, 0.000, 0.000, 14:07:57.046
119, -3826.20, -3612.12, -3582.34, -3129.30, 0.000, 0.000, 0.000, 14:07:57.046
120, -3635.62, -3567.79, -3479.44, -2986.63, 0.000, 0.000, 0.000, 14:07:57.046
121, -3639.16, -3531.19, -3484.49, -3042.03, 0.000, 0.000, 0.000, 14:07:57.047
122, -3889.07, -3559.37, -3589.68, -3170.44, 0.000, 0.000, 0.000, 14:07:57.047
123, -3836.47, -3606.33, -3572.81, -3119.28, 0.000, 0.000, 0.000, 14:07:57.048
124, -3647.64, -3586.26, -3485.84, -3019.11, 0.000, 0.000, 0.000, 14:07:57.048
125, -3615.42, -3524.33, -3484.77, -3002.76, 0.000, 0.000, 0.000, 14:07:57.048
126, -3906.16, -3566.24, -3602.46, -3133.20, 0.000, 0.000, 0.000, 14:07:57.049
127, -3828.95, -3606.29, -3577.48, -3138.45, 0.000, 0.000, 0.000, 14:07:57.060
128, -3631.13, -3583.38, -3496.17, -2993.28, 0.000, 0.000, 0.000, 14:07:57.060
129, -3632.69, -3523.72, -3480.41, -3028.97, 0.000, 0.000, 0.000, 14:07:57.105
130, -3908.60, -3565.23, -3602.41, -3142.29, 0.000, 0.000, 0.000, 14:07:57.105
131, -3817.56, -3595.42, -3577.25, -3104.75, 0.000, 0.000, 0.000, 14:07:57.105
132, -3636.00, -3570.18, -3494.69, -2981.97, 0.000, 0.000, 0.000, 14:07:57.105
133, -3596.54, -3507.67, -3477.52, -2985.11, 0.000, 0.000, 0.000, 14:07:57.106
134, -3890.45, -3563.96, -3596.21, -3142.62, 0.000, 0.000, 0.000, 14:07:57.106
135, -3837.90, -3601.77, -3582.88, -3098.88, 0.000, 0.000, 0.000, 14:07:57.107
136, -3625.54, -3570.49, -3486.99, -3005.33, 0.000, 0.000, 0.000, 14:07:57.107
137, -3625.18, -3526.94, -3476.65, -2997.18, 0.000, 0.000, 0.000, 14:07:57.107
138, -3880.85, -3563.99, -3595.09, -3155.72, 0.000, 0.000, 0.000, 14:07:57.107
139, -3810.10, -3588.46, -3578.53, -3096.48, 0.000, 0.000, 0.000, 14:07:57.136
140, -3638.72, -3581.03, -3502.30, -3020.06, 0.000, 0.000, 0.000, 14:07:57.136
141, -3615.29, -3517.43, -3486.28, -3021.59, 0.000, 0.000, 0.000, 14:07:57.151
142, -3915.58, -3575.77, -3598.80, -3173.52, 0.000, 0.000, 0.000, 14:07:57.151
143, -3829.65, -3611.85, -3584.59, -3129.40, 0.000, 0.000, 0.000, 14:07:57.151
144, -3609.24, -3581.29, -3486.02, -3000.09, 0.000, 0.000, 0.000, 14:07:57.152
145, -3605.78, -3506.11, -3469.13, -3022.79, 0.000, 0.000, 0.000, 14:07:57.153
146, -3876.31, -3562.02, -3598.66, -3109.67, 0.000, 0.000, 0.000, 14:07:57.153
147, -3833.21, -3605.04, -3587.84, -3120.95, 0.000, 0.000, 0.000, 14:07:57.153
148, -3638.18, -3588.97, -3500.35, -3008.47, 0.000, 0.000, 0.000, 14:07:57.153
149, -3623.11, -3520.03, -3480.97, -3012.73, 0.000, 0.000, 0.000, 14:07:57.171
150, -3890.90, -3557.62, -3585.92, -3142.31, 0.000, 0.000, 0.000, 14:07:57.171
151, -3847.32, -3606.57, -3573.98, -3107.45, 0.000, 0.000, 0.000, 14:07:57.181
152, -3657.36, -3596.65, -3500.94, -3003.96, 0.000, 0.000, 0.000, 14:07:57.181
153, -3631.45, -3540.23, -3490.03, -2999.18, 0.000, 0.000, 0.000, 14:07:57.195
154, -3891.93, -3556.28, -3595.15, -3146.96, 0.000, 0.000, 0.000, 14:07:57.195
155, -3825.01, -3601.91, -3580.17, -3101.93, 0.000, 0.000, 0.000, 14:07:57.196
156, -3635.16, -3624.37, -3529.51, -3042.66, 0.000, 0.000, 0.000, 14:07:57.196
157, -3640.78, -3531.78, -3490.92, -2981.53, 0.000, 0.000, 0.000, 14:07:57.210
158, -3891.32, -3543.18, -3584.37, -3099.07, 0.000, 0.000, 0.000, 14:07:57.210
159, -3870.40, -3636.18, -3618.67, -3090.73, 0.000, 0.000, 0.000, 14:07:57.226
160, -3652.87, -3591.63, -3512.34, -2967.09, 0.000, 0.000, 0.000, 14:07:57.226
161, -3595.64, -3529.06, -3520.79, -2986.90, 0.000, 0.000, 0.000, 14:07:57.226
162, -3883.64, -3560.36, -3616.38, -3112.30, 0.000, 0.000, 0.000, 14:07:57.226
163, -3814.36, -3609.19, -3605.70, -3050.54, 0.000, 0.000, 0.000, 14:07:57.270
164, -3629.83, -3596.10, -3534.43, -2884.03, 0.000, 0.000, 0.000, 14:07:57.270
165, -3613.80, -3541.24, -3517.80, -2980.24, 0.000, 0.000, 0.000, 14:07:57.271
166, -3873.31, -3578.97, -3642.74, -3068.79, 0.000, 0.000, 0.000, 14:07:57.271
167, -3826.04, -3618.21, -3602.27, -3080.51, 0.000, 0.000, 0.000, 14:07:57.271
168, -3629.02, -3588.96, -3509.48, -2976.01, 0.000, 0.000, 0.000, 14:07:57.271
169, -3634.24, -3532.61, -3512.36, -2990.10, 0.000, 0.000, 0.000, 14:07:57.272
170, -3892.93, -3576.53, -3625.90, -3130.79, 0.000, 0.000, 0.000, 14:07:57.272
171, -3841.05, -3611.94, -3615.76, -3090.62, 0.000, 0.000, 0.000, 14:07:57.273
172, -3620.83, -3596.67, -3513.44, -3000.24, 0.000, 0.000, 0.000, 14:07:57.273
173, -3630.90, -3524.41, -3490.37, -3003.07, 0.000, 0.000, 0.000, 14:07:57.300
174, -3886.72, -3553.91, -3590.96, -3136.31, 0.000, 0.000, 0.000, 14:07:57.300
175, -3815.22, -3611.66, -3601.92, -3094.42, 0.000, 0.000, 0.000, 14:07:57.301
176, -3632.34, -3587.12, -3506.46, -3006.63, 0.000, 0.000, 0.000, 14:07:57.301
177, -3641.68, -3520.09, -3483.42, -3008.40, 0.000, 0.000, 0.000, 14:07:57.316
178, -3917.23, -3585.83, -3618.40, -3163.62, 0.000, 0.000, 0.000, 14:07:57.316
179, -3804.76, -3608.92, -3593.45, -3072.77, 0.000, 0.000, 0.000, 14:07:57.318
180, -3626.05, -3584.05, -3508.93, -2992.58, 0.000, 0.000, 0.000, 14:07:57.318
181, -3638.48, -3522.70, -3491.49, -3020.77, 0.000, 0.000, 0.000, 14:07:57.331
182, -3892.04, -3569.17, -3593.99, -3174.66, 0.000, 0.000, 0.000, 14:07:57.331
183, -3826.27, -3597.46, -3587.68, -3089.16, 0.000, 0.000, 0.000, 14:07:57.345
184, -3642.47, -3589.06, -3514.40, -3017.98, 0.000, 0.000, 0.000, 14:07:57.345
185, -3639.11, -3537.99, -3499.69, -2998.28, 0.000, 0.000, 0.000, 14:07:57.346
186, -3878.97, -3572.07, -3608.96, -3113.41, 0.000, 0.000, 0.000, 14:07:57.346
187, -3850.72, -3599.01, -3578.94, -3073.64, 0.000, 0.000, 0.000, 14:07:57.360
188, -3634.84, -3591.54, -3502.26, -3024.27, 0.000, 0.000, 0.000, 14:07:57.360
189, -3651.14, -3541.72, -3504.61, -3043.21, 0.000, 0.000, 0.000, 14:07:57.375
190, -3880.66, -3573.84, -3596.13, -3132.63, 0.000, 0.000, 0.000, 14:07:57.375
191, -3824.24, -3617.19, -3594.66, -3116.14, 0.000, 0.000, 0.000, 14:07:57.376
192, -3628.32, -3583.29, -3486.47, -3010.78, 0.000, 0.000, 0.000, 14:07:57.376
193, -3645.08, -3539.64, -3491.72, -3061.93, 0.000, 0.000, 0.000, 14:07:57.390
194, -3888.78, -3572.38, -3595.90, -3144.39, 0.000, 0.000, 0.000, 14:07:57.390
195, -3848.72, -3609.72, -3582.14, -3089.05, 0.000, 0.000, 0.000, 14:07:57.420
196, -3647.71, -3591.18, -3497.48, -3016.11, 0.000, 0.000, 0.000, 14:07:57.420
197, -3622.02, -3508.36, -3478.44, -3001.69, 0.000, 0.000, 0.000, 14:07:57.420
198, -3914.38, -3576.93, -3601.00, -3129.47, 0.000, 0.000, 0.000, 14:07:57.420
199, -3833.60, -3608.08, -3573.20, -3085.88, 0.000, 0.000, 0.000, 14:07:57.421
200, -3636.97, -3576.86, -3493.04, -2987.82, 0.000, 0.000, 0.000, 14:07:57.421
0, -3620.34, -3529.18, -3485.75, -3016.67, 0.000, 0.000, 0.000, 14:07:57.421
1, -3891.70, -3564.89, -3601.54, -3166.05, 0.000, 0.000, 0.000, 14:07:57.436
2, -3802.64, -3601.15, -3575.85, -3082.80, 0.000, 0.000, 0.000, 14:07:57.438
3, -3622.51, -3594.70, -3506.87, -3000.69, 0.000, 0.000, 0.000, 14:07:57.466
4, -3659.07, -3528.88, -3483.10, -2994.40, 0.000, 0.000, 0.000, 14:07:57.467
5, -3875.10, -3545.08, -3584.72, -3160.10, 0.000, 0.000, 0.000, 14:07:57.467
6, -3819.57, -3592.18, -3576.00, -3097.41, 0.000, 0.000, 0.000, 14:07:57.467
7, -3620.69, -3588.91, -3491.69, -2985.22, 0.000, 0.000, 0.000, 14:07:57.468
8, -3604.74, -3530.96, -3476.64, -3011.23, 0.000, 0.000, 0.000, 14:07:57.468
9, -3894.33, -3571.07, -3611.30, -3173.01, 0.000, 0.000, 0.000, 14:07:57.468
10, -3831.04, -3601.23, -3576.16, -3098.72, 0.000, 0.000, 0.000, 14:07:57.468
11, -3639.73, -3590.15, -3501.96, -3013.86, 0.000, 0.000, 0.000, 14:07:57.481
12, -3645.50, -3530.45, -3491.81, -3022.59, 0.000, 0.000, 0.000, 14:07:57.481
13, -3897.64, -3560.12, -3601.22, -3140.75, 0.000, 0.000, 0.000, 14:07:57.495
14, -3823.64, -3603.14, -3580.57, -3100.98, 0.000, 0.000, 0.000, 14:07:57.496
15, -3628.17, -3582.48, -3492.12, -2998.49, 0.000, 0.000, 0.000, 14:07:57.510
16, -3625.23, -3529.24, -3479.62, -3023.47, 0.000, 0.000, 0.000, 14:07:57.510
17, -3891.15, -3571.57, -3607.57, -3139.71, 0.000, 0.000, 0.000, 14:07:57.511
18, -3842.40, -3611.06, -3583.66, -3117.13, 0.000, 0.000, 0.000, 14:07:57.511
19, -3624.69, -3587.59, -3493.35, -3001.71, 0.000, 0.000, 0.000, 14:07:57.525
20, -3634.74, -3528.30, -3483.70, -3024.21, 0.000, 0.000, 0.000, 14:07:57.525
21, -3879.79, -3571.38, -3600.03, -3155.78, 0.000, 0.000, 0.000, 14:07:57.540
22, -3814.80, -3610.04, -3577.11, -3093.83, 0.000, 0.000, 0.000, 14:07:57.541
23, -3635.03, -3596.15, -3508.70, -3006.04, 0.000, 0.000, 0.000, 14:07:57.541
24, -3654.64, -3525.23, -3496.66, -3039.32, 0.000, 0.000, 0.000, 14:07:57.541
25, -3915.59, -3570.36, -3607.81, -3147.70, 0.000, 0.000, 0.000, 14:07:57.555
26, -3835.47, -3614.97, -3585.80, -3096.43, 0.000, 0.000, 0.000, 14:07:57.556
27, -3611.59, -3579.04, -3491.57, -2990.90, 0.000, 0.000, 0.000, 14:07:57.600
28, -3649.96, -3535.85, -3481.58, -3017.20, 0.000, 0.000, 0.000, 14:07:57.601
29, -3886.37, -3560.72, -3590.85, -3137.60, 0.000, 0.000, 0.000, 14:07:57.601
30, -3820.31, -3608.97, -3587.62, -3118.32, 0.000, 0.000, 0.000, 14:07:57.601
31, -3629.88, -3591.14, -3502.81, -3003.03, 0.000, 0.000, 0.000, 14:07:57.602
32, -3635.48, -3523.17, -3488.19, -3045.33, 0.000, 0.000, 0.000, 14:07:57.602
33, -3922.89, -3582.43, -3612.36, -3168.28, 0.000, 0.000, 0.000, 14:07:57.603
34, -3835.61, -3609.17, -3589.53, -3090.80, 0.000, 0.000, 0.000, 14:07:57.603
35, -3617.24, -3577.29, -3481.71, -3008.55, 0.000, 0.000, 0.000, 14:07:57.603
36, -3613.73, -3524.82, -3476.76, -3023.13, 0.000, 0.000, 0.000, 14:07:57.603
37, -3905.79, -3575.38, -3601.33, -3163.65, 0.000, 0.000, 0.000, 14:07:57.616
38, -3838.10, -3601.60, -3589.36, -3089.90, 0.000, 0.000, 0.000, 14:07:57.617
39, -3604.22, -3566.45, -3490.64, -2957.97, 0.000, 0.000, 0.000, 14:07:57.630
40, -3631.58, -3524.70, -3485.90, -3038.57, 0.000, 0.000, 0.000, 14:07:57.630
41, -3890.30, -3564.55, -3594.76, -3166.34, 0.000, 0.000, 0.000, 14:07:57.631
42, -3826.56, -3598.96, -3572.51, -3103.10, 0.000, 0.000, 0.000, 14:07:57.631
43, -3615.54, -3575.55, -3486.45, -2984.30, 0.000, 0.000, 0.000, 14:07:57.646
44, -3631.37, -3530.69, -3489.75, -3012.44, 0.000, 0.000, 0.000, 14:07:57.646
45, -3885.01, -3558.32, -3603.86, -3125.27, 0.000, 0.000, 0.000, 14:07:57.660
46, -3859.24, -3601.88, -3585.81, -3101.61, 0.000, 0.000, 0.000, 14:07:57.660
47, -3617.07, -3576.16, -3485.83, -2994.76, 0.000, 0.000, 0.000, 14:07:57.661
48, -3623.33, -3516.71, -3474.15, -3022.45, 0.000, 0.000, 0.000, 14:07:57.661
49, -3920.32, -3574.50, -3603.72, -3137.96, 0.000, 0.000, 0.000, 14:07:57.676
50, -3827.86, -3608.04, -3578.00, -3086.00, 0.000, 0.000, 0.000, 14:07:57.676
51, -3613.14, -3595.35, -3506.05, -3009.72, 0.000, 0.000, 0.000, 14:07:57.690
52, -3627.10, -3534.90, -3492.86, -3020.68, 0.000, 0.000, 0.000, 14:07:57.690
53, -3889.14, -3566.07, -3605.37, -3150.07, 0.000, 0.000, 0.000, 14:07:57.691
54, -3838.86, -3598.70, -3583.90, -3116.31, 0.000, 0.000, 0.000, 14:07:57.691
55, -3621.78, -3588.19, -3501.52, -3020.98, 0.000, 0.000, 0.000, 14:07:57.705
56, -3629.89, -3520.45, -3487.14, -3006.02, 0.000, 0.000, 0.000, 14:07:57.705
57, -3895.16, -3567.09, -3593.73, -3146.34, 0.000, 0.000, 0.000, 14:07:57.720
58, -3836.05, -3603.47, -3578.63, -3091.82, 0.000, 0.000, 0.000, 14:07:57.720
59, -3645.61, -3595.37, -3496.00, -2999.83, 0.000, 0.000, 0.000, 14:07:57.720
60, -3631.10, -3526.95, -3483.89, -3026.59, 0.000, 0.000, 0.000, 14:07:57.721
61, -3898.12, -3589.02, -3613.15, -3149.40, 0.000, 0.000, 0.000, 14:07:57.750
62, -3824.11, -3623.36, -3588.35, -3123.37, 0.000, 0.000, 0.000, 14:07:57.750
63, -3622.09, -3580.89, -3481.39, -2980.70, 0.000, 0.000, 0.000, 14:07:57.751
64, -3645.70, -3528.54, -3484.09, -3019.99, 0.000, 0.000, 0.000, 14:07:57.752
65, -3899.49, -3571.53, -3614.63, -3180.75, 0.000, 0.000, 0.000, 14:07:57.752
66, -3818.91, -3608.23, -3582.20, -3122.48, 0.000, 0.000, 0.000, 14:07:57.752
67, -3614.25, -3585.53, -3488.26, -2992.74, 0.000, 0.000, 0.000, 14:07:57.765
68, -3612.13, -3508.53, -3474.11, -2991.99, 0.000, 0.000, 0.000, 14:07:57.765
69, -3901.97, -3582.57, -3613.90, -3161.26, 0.000, 0.000, 0.000, 14:07:57.781
70, -3831.10, -3618.34, -3592.70, -3106.17, 0.000, 0.000, 0.000, 14:07:57.781
71, -3632.97, -3576.52, -3493.29, -2994.37, 0.000, 0.000, 0.000, 14:07:57.781
72, -3627.09, -3521.96, -3490.81, -3014.54, 0.000, 0.000, 0.000, 14:07:57.781
73, -3907.72, -3577.18, -3605.59, -3147.83, 0.000, 0.000, 0.000, 14:07:57.810
74, -3841.42, -3611.18, -3581.56, -3120.42, 0.000, 0.000, 0.000, 14:07:57.810
75, -3594.91, -3583.35, -3482.59, -2972.86, 0.000, 0.000, 0.000, 14:07:57.811
76, -3626.49, -3527.22, -3469.34, -2985.57, 0.000, 0.000, 0.000, 14:07:57.811
77, -3918.98, -3576.99, -3612.10, -3139.43, 0.000, 0.000, 0.000, 14:07:57.812
78, -3840.91, -3616.85, -3588.38, -3103.63, 0.000, 0.000, 0.000, 14:07:57.812
79, -3607.66, -3579.24, -3481.57, -2970.61, 0.000, 0.000, 0.000, 14:07:57.825
80, -3624.18, -3517.85, -3489.41, -3020.89, 0.000, 0.000, 0.000, 14:07:57.825
81, -3888.90, -3571.44, -3602.70, -3189.19, 0.000, 0.000, 0.000, 14:07:57.855
82, -3826.68, -3607.00, -3584.21, -3101.84, 0.000, 0.000, 0.000, 14:07:57.856
83, -3624.19, -3585.07, -3488.70, -2995.08, 0.000, 0.000, 0.000, 14:07:57.856
84, -3636.96, -3503.74, -3471.92, -2988.62, 0.000, 0.000, 0.000, 14:07:57.856
85, -3903.75, -3569.68, -3609.49, -3136.71, 0.000, 0.000, 0.000, 14:07:57.857
86, -3839.52, -3627.46, -3586.57, -3115.25, 0.000, 0.000, 0.000, 14:07:57.857
87, -3606.22, -3590.07, -3481.20, -2986.74, 0.000, 0.000, 0.000, 14:07:57.857
88, -3635.97, -3525.32, -3481.42, -3023.68, 0.000, 0.000, 0.000, 14:07:57.857
89, -3886.58, -3561.09, -3594.02, -3145.49, 0.000, 0.000, 0.000, 14:07:57.870
90, -3838.44, -3619.30, -3580.44, -3110.39, 0.000, 0.000, 0.000, 14:07:57.870
91, -3610.57, -3592.35, -3496.09, -2995.03, 0.000, 0.000, 0.000, 14:07:57.886
92, -3633.48, -3523.28, -3486.71, -3040.97, 0.000, 0.000, 0.000, 14:07:57.886
93, -3880.79, -3562.04, -3591.31, -3130.95, 0.000, 0.000, 0.000, 14:07:57.900
94, -3853.23, -3614.26, -3582.64, -3118.51, 0.000, 0.000, 0.000, 14:07:57.900
95, -3626.50, -3577.27, -3490.62, -3008.84, 0.000, 0.000, 0.000, 14:07:57.901
96, -3626.91, -3526.83, -3489.62, -3024.54, 0.000, 0.000, 0.000, 14:07:57.901
97, -3892.38, -3577.17, -3611.43, -3147.43, 0.000, 0.000, 0.000, 14:07:57.916
98, -3828.54, -3606.15, -3579.27, -3087.31, 0.000, 0.000, 0.000, 14:07:57.916
99, -3605.44, -3586.48, -3486.74, -2975.28, 0.000, 0.000, 0.000, 14:07:57.930
100, -3628.60, -3510.00, -3478.83, -3019.20, 0.000, 0.000, 0.000, 14:07:57.930
101, -3883.73, -3554.93, -3590.54, -3149.72, 0.000, 0.000, 0.000, 14:07:57.931
102, -3823.58, -3602.49, -3565.37, -3100.49, 0.000, 0.000, 0.000, 14:07:57.931
103, -3619.89, -3591.07, -3506.16, -2980.59, 0.000, 0.000, 0.000, 14:07:57.945
104, -3633.11, -3535.01, -3489.58, -3039.09, 0.000, 0.000, 0.000, 14:07:57.945
105, -3894.18, -3566.90, -3596.46, -3154.38, 0.000, 0.000, 0.000, 14:07:57.975
106, -3839.45, -3608.60, -3580.31, -3110.75, 0.000, 0.000, 0.000, 14:07:57.975
107, -3628.93, -3587.95, -3487.33, -3010.03, 0.000, 0.000, 0.000, 14:07:57.975
108, -3631.33, -3510.29, -3472.11, -2995.98, 0.000, 0.000, 0.000, 14:07:57.975
109, -3899.02, -3565.46, -3600.91, -3154.96, 0.000, 0.000, 0.000, 14:07:57.976
110, -3838.08, -3627.06, -3588.83, -3101.19, 0.000, 0.000, 0.000, 14:07:57.976
111, -3607.76, -3591.78, -3488.75, -2992.67, 0.000, 0.000, 0.000, 14:07:57.977
112, -3640.96, -3525.92, -3485.35, -3035.08, 0.000, 0.000, 0.000, 14:07:57.977
113, -3904.22, -3573.14, -3602.19, -3158.58, 0.000, 0.000, 0.000, 14:07:57.991
114, -3812.16, -3598.38, -3575.87, -3088.44, 0.000, 0.000, 0.000, 14:07:57.991
115, -3627.55, -3578.73, -3502.68, -3004.47, 0.000, 0.000, 0.000, 14:07:58.020
116, -3654.42, -3520.48, -3491.96, -3033.66, 0.000, 0.000, 0.000, 14:07:58.021
117, -3900.23, -3570.94, -3606.30, -3176.95, 0.000, 0.000, 0.000, 14:07:58.021
118, -3813.21, -3604.40, -3577.61, -3088.88, 0.000, 0.000, 0.000, 14:07:58.021
119, -3589.58, -3567.47, -3467.46, -2964.23, 0.000, 0.000, 0.000, 14:07:58.023
120, -3658.63, -3544.05, -3500.97, -3028.50, 0.000, 0.000, 0.000, 14:07:58.023
121, -3878.66, -3574.56, -3599.80, -3163.78, 0.000, 0.000, 0.000, 14:07:58.035
122, -3829.87, -3605.55, -3579.39, -3108.46, 0.000, 0.000, 0.000, 14:07:58.035
123, -3624.65, -3590.72, -3496.05, -3011.73, 0.000, 0.000, 0.000, 14:07:58.050
124, -3660.98, -3530.00, -3491.18, -3041.27, 0.000, 0.000, 0.000, 14:07:58.051
125, -3930.78, -3561.78, -3610.55, -3156.55, 0.000, 0.000, 0.000, 14:07:58.052
126, -3830.51, -3611.53, -3586.06, -3110.57, 0.000, 0.000, 0.000, 14:07:58.052
127, -3616.48, -3580.31, -3481.57, -3014.86, 0.000, 0.000, 0.000, 14:07:58.066
128, -3647.44, -3528.39, -3487.09, -3020.77, 0.000, 0.000, 0.000, 14:07:58.067
129, -3881.12, -3566.35, -3610.48, -3125.60, 0.000, 0.000, 0.000, 14:07:58.081
130, -3822.89, -3619.07, -3575.43, -3100.14, 0.000, 0.000, 0.000, 14:07:58.081
131, -3622.23, -3592.77, -3497.10, -2997.57, 0.000, 0.000, 0.000, 14:07:58.081
132, -3651.29, -3532.65, -3489.30, -3048.81, 0.000, 0.000, 0.000, 14:07:58.081
133, -3905.50, -3578.22, -3606.06, -3150.08, 0.000, 0.000, 0.000, 14:07:58.095
134, -3820.83, -3617.41, -3586.08, -3099.53, 0.000, 0.000, 0.000, 14:07:58.095
135, -3594.16, -3589.79, -3491.43, -3020.04, 0.000, 0.000, 0.000, 14:07:58.110
136, -3636.69, -3520.23, -3493.31, -3031.95, 0.000, 0.000, 0.000, 14:07:58.110
137, -3886.46, -3571.38, -3598.68, -3132.14, 0.000, 0.000, 0.000, 14:07:58.111
138, -3835.43, -3616.59, -3583.51, -3110.97, 0.000, 0.000, 0.000, 14:07:58.111
139, -3624.42, -3590.02, -3484.77, -2980.20, 0.000, 0.000, 0.000, 14:07:58.140
140, -3648.14, -3529.64, -3483.05, -3030.52, 0.000, 0.000, 0.000, 14:07:58.140
141, -3913.72, -3583.53, -3612.93, -3144.72, 0.000, 0.000, 0.000, 14:07:58.140
142, -3849.63, -3638.04, -3598.46, -3124.71, 0.000, 0.000, 0.000, 14:07:58.140
143, -3616.48, -3569.43, -3477.17, -2994.15, 0.000, 0.000, 0.000, 14:07:58.141
144, -3630.54, -3516.64, -3482.00, -3028.27, 0.000, 0.000, 0.000, 14:07:58.141
145, -3914.43, -3593.63, -3609.52, -3182.66, 0.000, 0.000, 0.000, 14:07:58.156
146, -3828.50, -3620.75, -3579.10, -3118.44, 0.000, 0.000, 0.000, 14:07:58.156
147, -3618.51, -3585.77, -3489.99, -2995.63, 0.000, 0.000, 0.000, 14:07:58.170
148, -3641.43, -3529.79, -3478.68, -3022.23, 0.000, 0.000, 0.000, 14:07:58.170
149, -3923.88, -3594.11, -3617.76, -3169.28, 0.000, 0.000, 0.000, 14:07:58.171
150, -3840.39, -3621.70, -3586.22, -3095.50, 0.000, 0.000, 0.000, 14:07:58.171
151, -3617.97, -3591.12, -3495.61, -3001.67, 0.000, 0.000, 0.000, 14:07:58.185
152, -3646.79, -3515.03, -3488.64, -3010.66, 0.000, 0.000, 0.000, 14:07:58.186
153, -3894.61, -3560.16, -3594.76, -3139.67, 0.000, 0.000, 0.000, 14:07:58.200
154, -3840.81, -3620.16, -3586.41, -3081.63, 0.000, 0.000, 0.000, 14:07:58.200
155, -3619.75, -3590.19, -3491.55, -2991.33, 0.000, 0.000, 0.000, 14:07:58.201
156, -3642.61, -3520.63, -3483.05, -3032.58, 0.000, 0.000, 0.000, 14:07:58.201
157, -3893.98, -3563.43, -3592.36, -3140.30, 0.000, 0.000, 0.000, 14:07:58.216
158, -3828.54, -3607.27, -3578.81, -3100.90, 0.000, 0.000, 0.000, 14:07:58.216
159, -3607.09, -3587.65, -3492.12, -3000.42, 0.000, 0.000, 0.000, 14:07:58.245
160, -3637.87, -3525.16, -3486.39, -3035.08, 0.000, 0.000, 0.000, 14:07:58.245
161, -3883.85, -3562.61, -3606.96, -3141.31, 0.000, 0.000, 0.000, 14:07:58.245
162, -3830.97, -3609.18, -3578.41, -3086.35, 0.000, 0.000, 0.000, 14:07:58.245
163, -3632.41, -3601.06, -3497.73, -2988.59, 0.000, 0.000, 0.000, 14:07:58.246
164, -3646.60, -3523.38, -3480.64, -3012.96, 0.000, 0.000, 0.000, 14:07:58.246
165, -3883.84, -3561.00, -3593.97, -3142.28, 0.000, 0.000, 0.000, 14:07:58.247
166, -3813.00, -3600.32, -3579.13, -3093.62, 0.000, 0.000, 0.000, 14:07:58.247
167, -3592.74, -3580.27, -3500.88, -3007.26, 0.000, 0.000, 0.000, 14:07:58.260
168, -3626.06, -3539.58, -3491.59, -3025.96, 0.000, 0.000, 0.000, 14:07:58.260
169, -3919.93, -3571.65, -3602.07, -3158.13, 0.000, 0.000, 0.000, 14:07:58.275
170, -3826.01, -3614.52, -3586.38, -3096.39, 0.000, 0.000, 0.000, 14:07:58.275
171, -3605.26, -3588.25, -3506.35, -2963.62, 0.000, 0.000, 0.000, 14:07:58.290
172, -3646.92, -3530.29, -3493.52, -3019.49, 0.000, 0.000, 0.000, 14:07:58.290
173, -3914.91, -3571.81, -3600.78, -3144.67, 0.000, 0.000, 0.000, 14:07:58.290
174, -3823.88, -3607.79, -3571.21, -3107.75, 0.000, 0.000, 0.000, 14:07:58.291
175, -3617.41, -3581.61, -3474.28, -2985.23, 0.000, 0.000, 0.000, 14:07:58.320
176, -3597.41, -3521.60, -3489.83, -3026.23, 0.000, 0.000, 0.000, 14:07:58.320
177, -3894.24, -3576.82, -3605.82, -3130.73, 0.000, 0.000, 0.000, 14:07:58.320
178, -3824.73, -3612.59, -3588.33, -3124.31, 0.000, 0.000, 0.000, 14:07:58.320
179, -3618.60, -3577.78, -3496.11, -3023.26, 0.000, 0.000, 0.000, 14:07:58.321
180, -3643.71, -3516.47, -3488.11, -3010.55, 0.000, 0.000, 0.000, 14:07:58.321
181, -3888.77, -3564.36, -3601.43, -3158.34, 0.000, 0.000, 0.000, 14:07:58.335
182, -3822.06, -3602.63, -3592.79, -3105.41, 0.000, 0.000, 0.000, 14:07:58.335
183, -3624.50, -3597.02, -3497.53, -2996.36, 0.000, 0.000, 0.000, 14:07:58.350
184, -3646.38, -3529.62, -3491.57, -3031.98, 0.000, 0.000, 0.000, 14:07:58.350
185, -3906.49, -3571.34, -3610.05, -3157.98, 0.000, 0.000, 0.000, 14:07:58.366
186, -3834.20, -3610.23, -3584.95, -3088.29, 0.000, 0.000, 0.000, 14:07:58.366
187, -3634.65, -3580.83, -3482.41, -2980.34, 0.000, 0.000, 0.000, 14:07:58.372
188, -3635.61, -3510.98, -3483.14, -3020.48, 0.000, 0.000, 0.000, 14:07:58.372
189, -3894.26, -3574.16, -3605.22, -3154.97, 0.000, 0.000, 0.000, 14:07:58.380
190, -3791.86, -3611.69, -3573.80, -3102.52, 0.000, 0.000, 0.000, 14:07:58.380
191, -3598.54, -3590.55, -3497.58, -3004.14, 0.000, 0.000, 0.000, 14:07:58.381
192, -3623.05, -3518.43, -3495.41, -3042.50, 0.000, 0.000, 0.000, 14:07:58.381
193, -3898.74, -3570.19, -3611.21, -3135.30, 0.000, 0.000, 0.000, 14:07:58.410
194, -3823.41, -3603.66, -3566.99, -3073.40, 0.000, 0.000, 0.000, 14:07:58.410
195, -3618.81, -3581.78, -3492.47, -2970.31, 0.000, 0.000, 0.000, 14:07:58.411
196, -3644.88, -3533.09, -3487.09, -3022.66, 0.000, 0.000, 0.000, 14:07:58.411
197, -3921.28, -3584.10, -3616.36, -3153.81, 0.000, 0.000, 0.000, 14:07:58.411
198, -3827.35, -3620.20, -3590.53, -3129.81, 0.000, 0.000, 0.000, 14:07:58.411
199, -3599.95, -3576.87, -3488.69, -2986.19, 0.000, 0.000, 0.000, 14:07:58.425
200, -3645.22, -3529.81, -3504.18, -3037.59, 0.000, 0.000, 0.000, 14:07:58.425
0, -3897.43, -3573.63, -3588.70, -3146.66, 0.000, 0.000, 0.000, 14:07:58.426
1, -3836.31, -3616.44, -3572.69, -3097.43, 0.000, 0.000, 0.000, 14:07:58.440
2, -3610.17, -3575.97, -3481.34, -2986.50, 0.000, 0.000, 0.000, 14:07:58.440
3, -3653.28, -3511.86, -3479.93, -3029.31, 0.000, 0.000, 0.000, 14:07:58.456
4, -3935.58, -3580.99, -3619.47, -3153.43, 0.000, 0.000, 0.000, 14:07:58.456
5, -3846.93, -3624.70, -3593.42, -3098.20, 0.000, 0.000, 0.000, 14:07:58.470
6, -3602.07, -3589.47, -3500.92, -2988.21, 0.000, 0.000, 0.000, 14:07:58.470
7, -3633.29, -3517.19, -3489.95, -3034.55, 0.000, 0.000, 0.000, 14:07:58.471
8, -3920.14, -3567.97, -3611.87, -3133.01, 0.000, 0.000, 0.000, 14:07:58.471
9, -3828.59, -3597.68, -3573.90, -3094.09, 0.000, 0.000, 0.000, 14:07:58.485
10, -3603.67, -3577.90, -3491.97, -2976.36, 0.000, 0.000, 0.000, 14:07:58.485
11, -3640.42, -3532.24, -3486.01, -3015.07, 0.000, 0.000, 0.000, 14:07:58.486
12, -3898.02, -3574.28, -3601.43, -3146.65, 0.000, 0.000, 0.000, 14:07:58.486
13, -3828.36, -3619.16, -3586.41, -3118.14, 0.000, 0.000, 0.000, 14:07:58.500
14, -3618.41, -3576.44, -3482.69, -3005.58, 0.000, 0.000, 0.000, 14:07:58.500
15, -3670.17, -3532.04, -3504.25, -3040.18, 0.000, 0.000, 0.000, 14:07:58.530
16, -3918.81, -3573.10, -3611.38, -3160.40, 0.000, 0.000, 0.000, 14:07:58.530
17, -3814.26, -3597.74, -3570.78, -3092.58, 0.000, 0.000, 0.000, 14:07:58.545
18, -3607.63, -3585.91, -3492.84, -2999.41, 0.000, 0.000, 0.000, 14:07:58.545
19, -3642.82, -3507.51, -3489.99, -3018.48, 0.000, 0.000, 0.000, 14:07:58.546
20, -3914.04, -3572.41, -3602.63, -3153.75, 0.000, 0.000, 0.000, 14:07:58.546
21, -3839.47, -3622.32, -3593.05, -3128.23, 0.000, 0.000, 0.000, 14:07:58.547
22, -3606.59, -3590.33, -3505.69, -2990.76, 0.000, 0.000, 0.000, 14:07:58.580
23, -3650.12, -3531.86, -3499.75, -3037.10, 0.000, 0.000, 0.000, 14:07:58.580
24, -3908.70, -3562.42, -3604.07, -3156.38, 0.000, 0.000, 0.000, 14:07:58.580
25, -3826.22, -3604.28, -3581.27, -3109.82, 0.000, 0.000, 0.000, 14:07:58.580
26, -3615.34, -3573.51, -3472.08, -2955.61, 0.000, 0.000, 0.000, 14:07:58.581
27, -3658.71, -3520.69, -3493.22, -3000.50, 0.000, 0.000, 0.000, 14:07:58.581
28, -3894.66, -3575.28, -3613.20, -3160.37, 0.000, 0.000, 0.000, 14:07:58.581
29, -3824.64, -3601.14, -3572.85, -3096.87, 0.000, 0.000, 0.000, 14:07:58.581
30, -3598.01, -3578.41, -3501.48, -2989.04, 0.000, 0.000, 0.000, 14:07:58.581
31, -3648.93, -3530.23, -3499.34, -3040.90, 0.000, 0.000, 0.000, 14:07:58.590
32, -3912.60, -3575.64, -3601.28, -3156.51, 0.000, 0.000, 0.000, 14:07:58.590
33, -3811.95, -3596.07, -3585.24, -3074.62, 0.000, 0.000, 0.000, 14:07:58.605
34, -3606.44, -3578.76, -3483.14, -2984.74, 0.000, 0.000, 0.000, 14:07:58.605
35, -3629.97, -3534.34, -3491.39, -3019.80, 0.000, 0.000, 0.000, 14:07:58.607
36, -3902.37, -3576.31, -3602.20, -3152.51, 0.000, 0.000, 0.000, 14:07:58.607
37, -3819.59, -3618.20, -3585.92, -3101.38, 0.000, 0.000, 0.000, 14:07:58.620
38, -3620.62, -3579.34, -3486.40, -2999.64, 0.000, 0.000, 0.000, 14:07:58.621
39, -3659.06, -3515.11, -3487.98, -3032.89, 0.000, 0.000, 0.000, 14:07:58.636
40, -3911.09, -3576.66, -3596.89, -3149.68, 0.000, 0.000, 0.000, 14:07:58.636
41, -3810.32, -3621.39, -3581.70, -3106.65, 0.000, 0.000, 0.000, 14:07:58.637
42, -3580.87, -3573.63, -3489.67, -2988.13, 0.000, 0.000, 0.000, 14:07:58.637
43, -3648.81, -3518.23, -3504.85, -3040.82, 0.000, 0.000, 0.000, 14:07:58.650
44, -3922.08, -3581.03, -3606.56, -3158.93, 0.000, 0.000, 0.000, 14:07:58.650
45, -3839.27, -3631.22, -3589.79, -3111.03, 0.000, 0.000, 0.000, 14:07:58.665
46, -3605.55, -3574.61, -3473.68, -2978.45, 0.000, 0.000, 0.000, 14:07:58.666
47, -3632.35, -3514.16, -3475.23, -3030.81, 0.000, 0.000, 0.000, 14:07:58.666
48, -3894.56, -3582.43, -3606.81, -3163.28, 0.000, 0.000, 0.000, 14:07:58.666
49, -3812.94, -3616.92, -3578.76, -3112.29, 0.000, 0.000, 0.000, 14:07:58.695
50, -3595.71, -3572.51, -3477.31, -2980.67, 0.000, 0.000, 0.000, 14:07:58.695
51, -3661.83, -3529.41, -3494.10, -3015.21, 0.000, 0.000, 0.000, 14:07:58.695
52, -3935.21, -3586.67, -3608.40, -3150.96, 0.000, 0.000, 0.000, 14:07:58.696
53, -3815.68, -3614.49, -3585.84, -3093.36, 0.000, 0.000, 0.000, 14:07:58.696
54, -3605.07, -3591.15, -3497.39, -3001.61, 0.000, 0.000, 0.000, 14:07:58.696
55, -3679.59, -3535.07, -3503.47, -3047.73, 0.000, 0.000, 0.000, 14:07:58.711
56, -3891.60, -3574.13, -3602.09, -3150.64, 0.000, 0.000, 0.000, 14:07:58.711
57, -3814.18, -3609.43, -3563.09, -3074.61, 0.000, 0.000, 0.000, 14:07:58.726
58, -3596.66, -3582.70, -3467.84, -2977.33, 0.000, 0.000, 0.000, 14:07:58.726
59, -3653.67, -3526.24, -3493.93, -3036.14, 0.000, 0.000, 0.000, 14:07:58.726
60, -3906.62, -3571.85, -3611.36, -3178.52, 0.000, 0.000, 0.000, 14:07:58.726
61, -3813.96, -3618.72, -3586.89, -3109.12, 0.000, 0.000, 0.000, 14:07:58.755
62, -3590.09, -3578.93, -3488.93, -3000.89, 0.000, 0.000, 0.000, 14:07:58.755
63, -3634.71, -3505.15, -3488.96, -3017.67, 0.000, 0.000, 0.000, 14:07:58.756
64, -3890.12, -3582.41, -3598.13, -3162.63, 0.000, 0.000, 0.000, 14:07:58.756
65, -3810.87, -3610.54, -3560.37, -3096.23, 0.000, 0.000, 0.000, 14:07:58.756
66, -3601.62, -3577.77, -3482.11, -3001.80, 0.000, 0.000, 0.000, 14:07:58.756
67, -3673.67, -3525.80, -3508.91, -3039.01, 0.000, 0.000, 0.000, 14:07:58.770
68, -3927.51, -3594.64, -3616.57, -3166.07, 0.000, 0.000, 0.000, 14:07:58.770
69, -3825.06, -3606.93, -3574.82, -3099.52, 0.000, 0.000, 0.000, 14:07:58.800
70, -3615.58, -3575.91, -3474.60, -2981.80, 0.000, 0.000, 0.000, 14:07:58.800
71, -3632.70, -3508.79, -3472.54, -2993.07, 0.000, 0.000, 0.000, 14:07:58.802
72, -3883.95, -3577.58, -3601.32, -3157.43, 0.000, 0.000, 0.000, 14:07:58.802
73, -3823.75, -3607.50, -3585.63, -3104.57, 0.000, 0.000, 0.000, 14:07:58.815
74, -3583.89, -3582.47, -3489.00, -2993.26, 0.000, 0.000, 0.000, 14:07:58.815
75, -3648.35, -3542.26, -3494.59, -3043.48, 0.000, 0.000, 0.000, 14:07:58.816
76, -3893.75, -3579.69, -3602.77, -3162.36, 0.000, 0.000, 0.000, 14:07:58.816
77, -3805.61, -3612.56, -3593.60, -3092.19, 0.000, 0.000, 0.000, 14:07:58.816
78, -3595.24, -3579.50, -3475.70, -2987.53, 0.000, 0.000, 0.000, 14:07:58.816
79, -3640.40, -3518.54, -3493.27, -3075.66, 0.000, 0.000, 0.000, 14:07:58.831
80, -3931.08, -3581.73, -3608.11, -3159.68, 0.000, 0.000, 0.000, 14:07:58.831
81, -3824.49, -3617.60, -3573.87, -3110.49, 0.000, 0.000, 0.000, 14:07:58.875
82, -3577.06, -3568.25, -3458.07, -2968.96, 0.000, 0.000, 0.000, 14:07:58.875
83, -3660.61, -3522.63, -3483.27, -3001.01, 0.000, 0.000, 0.000, 14:07:58.875
84, -3912.98, -3575.68, -3598.17, -3157.48, 0.000, 0.000, 0.000, 14:07:58.875
85, -3834.67, -3641.90, -3593.89, -3126.72, 0.000, 0.000, 0.000, 14:07:58.876
86, -3602.94, -3589.20, -3497.31, -2982.84, 0.000, 0.000, 0.000, 14:07:58.876
87, -3639.45, -3520.59, -3483.87, -3027.74, 0.000, 0.000, 0.000, 14:07:58.878
88, -3918.89, -3597.96, -3607.48, -3181.15, 0.000, 0.000, 0.000, 14:07:58.878
89, -3820.68, -3605.11, -3565.01, -3068.91, 0.000, 0.000, 0.000, 14:07:58.878
90, -3587.96, -3564.76, -3474.20, -2993.51, 0.000, 0.000, 0.000, 14:07:58.878
91, -3637.09, -3521.41, -3491.24, -3052.24, 0.000, 0.000, 0.000, 14:07:58.890
92, -3928.32, -3584.04, -3587.25, -3190.44, 0.000, 0.000, 0.000, 14:07:58.890
93, -3806.39, -3597.75, -3587.30, -3089.28, 0.000, 0.000, 0.000, 14:07:58.905
94, -3617.05, -3591.94, -3489.05, -3003.41, 0.000, 0.000, 0.000, 14:07:58.905
95, -3646.11, -3515.40, -3473.96, -3020.56, 0.000, 0.000, 0.000, 14:07:58.906
96, -3898.37, -3579.71, -3621.24, -3136.94, 0.000, 0.000, 0.000, 14:07:58.906
97, -3824.35, -3615.37, -3569.13, -3101.92, 0.000, 0.000, 0.000, 14:07:58.936
98, -3609.35, -3569.83, -3475.78, -2983.88, 0.000, 0.000, 0.000, 14:07:58.936
99, -3657.91, -3531.12, -3505.14, -3043.48, 0.000, 0.000, 0.000, 14:07:58.936
100, -3896.64, -3571.11, -3593.63, -3154.41, 0.000, 0.000, 0.000, 14:07:58.936
101, -3824.57, -3619.61, -3582.07, -3110.85, 0.000, 0.000, 0.000, 14:07:58.937
102, -3606.72, -3596.26, -3503.51, -3010.37, 0.000, 0.000, 0.000, 14:07:58.937
103, -3636.30, -3523.70, -3486.97, -3028.77, 0.000, 0.000, 0.000, 14:07:58.966
104, -3929.35, -3603.27, -3614.14, -3180.26, 0.000, 0.000, 0.000, 14:07:58.966
105, -3809.40, -3606.85, -3580.62, -3105.14, 0.000, 0.000, 0.000, 14:07:58.966
106, -3615.03, -3586.73, -3481.62, -2996.59, 0.000, 0.000, 0.000, 14:07:58.966
107, -3634.97, -3516.12, -3486.05, -3049.77, 0.000, 0.000, 0.000, 14:07:58.967
108, -3912.78, -3583.12, -3621.09, -3157.09, 0.000, 0.000, 0.000, 14:07:58.967
109, -3800.81, -3607.16, -3593.18, -3092.18, 0.000, 0.000, 0.000, 14:07:58.981
110, -3596.27, -3589.51, -3492.46, -3000.90, 0.000, 0.000, 0.000, 14:07:58.981
111, -3658.73, -3530.57, -3508.76, -3044.67, 0.000, 0.000, 0.000, 14:07:58.995
112, -3899.17, -3583.05, -3602.18, -3159.18, 0.000, 0.000, 0.000, 14:07:58.995
113, -3813.55, -3613.82, -3569.48, -3102.45, 0.000, 0.000, 0.000, 14:07:58.996
114, -3609.81, -3579.22, -3488.57, -2978.56, 0.000, 0.000, 0.000, 14:07:58.996
115, -3655.80, -3520.20, -3499.72, -3055.70, 0.000, 0.000, 0.000, 14:07:59.010
116, -3901.26, -3590.47, -3631.31, -3157.81, 0.000, 0.000, 0.000, 14:07:59.010
117, -3827.49, -3597.17, -3576.32, -3100.17, 0.000, 0.000, 0.000, 14:07:59.040
118, -3618.10, -3591.95, -3503.15, -2995.38, 0.000, 0.000, 0.000, 14:07:59.040
119, -3667.49, -3532.83, -3506.06, -3039.82, 0.000, 0.000, 0.000, 14:07:59.041
120, -3894.69, -3577.74, -3603.52, -3176.87, 0.000, 0.000, 0.000, 14:07:59.041
121, -3804.59, -3614.30, -3588.28, -3095.70, 0.000, 0.000, 0.000, 14:07:59.042
122, -3593.90, -3586.07, -3488.91, -2980.56, 0.000, 0.000, 0.000, 14:07:59.042
123, -3644.91, -3512.98, -3507.81, -3034.37, 0.000, 0.000, 0.000, 14:07:59.042
124, -3929.02, -3596.61, -3631.16, -3193.79, 0.000, 0.000, 0.000, 14:07:59.042
125, -3800.90, -3609.85, -3569.29, -3101.75, 0.000, 0.000, 0.000, 14:07:59.055
126, -3591.21, -3568.02, -3471.40, -3001.81, 0.000, 0.000, 0.000, 14:07:59.055
127, -3659.38, -3541.26, -3513.67, -3054.66, 0.000, 0.000, 0.000, 14:07:59.086
128, -3924.57, -3590.39, -3618.41, -3172.33, 0.000, 0.000, 0.000, 14:07:59.086
129, -3805.89, -3608.70, -3574.39, -3103.62, 0.000, 0.000, 0.000, 14:07:59.086
130, -3595.15, -3580.84, -3485.08, -2994.33, 0.000, 0.000, 0.000, 14:07:59.086
131, -3634.65, -3519.30, -3488.58, -3038.76, 0.000, 0.000, 0.000, 14:07:59.087
132, -3908.80, -3580.36, -3614.97, -3147.08, 0.000, 0.000, 0.000, 14:07:59.087
133, -3784.99, -3618.02, -3576.94, -3092.91, 0.000, 0.000, 0.000, 14:07:59.101
134, -3602.68, -3590.32, -3494.12, -2993.97, 0.000, 0.000, 0.000, 14:07:59.101
135, -3657.98, -3526.59, -3501.37, -3053.98, 0.000, 0.000, 0.000, 14:07:59.131
136, -3938.35, -3589.06, -3618.12, -3169.62, 0.000, 0.000, 0.000, 14:07:59.132
137, -3768.72, -3598.55, -3570.80, -3083.36, 0.000, 0.000, 0.000, 14:07:59.132
138, -3606.68, -3591.02, -3502.01, -2998.16, 0.000, 0.000, 0.000, 14:07:59.132
139, -3651.51, -3526.53, -3498.27, -3051.85, 0.000, 0.000, 0.000, 14:07:59.132
140, -3919.09, -3591.20, -3622.95, -3181.40, 0.000, 0.000, 0.000, 14:07:59.132
141, -3812.00, -3608.94, -3579.31, -3080.80, 0.000, 0.000, 0.000, 14:07:59.132
142, -3595.97, -3584.53, -3476.17, -2973.70, 0.000, 0.000, 0.000, 14:07:59.132
143, -3641.73, -3524.08, -3490.35, -3041.45, 0.000, 0.000, 0.000, 14:07:59.145
144, -3911.17, -3591.99, -3624.63, -3163.43, 0.000, 0.000, 0.000, 14:07:59.145
145, -3834.30, -3619.12, -3589.82, -3095.26, 0.000, 0.000, 0.000, 14:07:59.160
146, -3607.57, -3603.00, -3492.49, -3006.90, 0.000, 0.000, 0.000, 14:07:59.160
147, -3656.78, -3530.11, -3514.63, -3044.62, 0.000, 0.000, 0.000, 14:07:59.175
148, -3898.80, -3569.72, -3603.02, -3163.86, 0.000, 0.000, 0.000, 14:07:59.175
149, -3802.77, -3617.63, -3577.48, -3110.49, 0.000, 0.000, 0.000, 14:07:59.176
150, -3604.26, -3583.88, -3485.69, -2993.56, 0.000, 0.000, 0.000, 14:07:59.176
151, -3667.45, -3530.29, -3498.00, -3046.42, 0.000, 0.000, 0.000, 14:07:59.190
152, -3913.05, -3580.35, -3611.22, -3144.70, 0.000, 0.000, 0.000, 14:07:59.190
153, -3795.65, -3614.20, -3581.12, -3100.75, 0.000, 0.000, 0.000, 14:07:59.205
154, -3588.61, -3577.95, -3466.13, -2998.98, 0.000, 0.000, 0.000, 14:07:59.205
155, -3662.08, -3519.69, -3494.30, -3028.36, 0.000, 0.000, 0.000, 14:07:59.205
156, -3881.97, -3582.23, -3624.69, -3160.11, 0.000, 0.000, 0.000, 14:07:59.205
157, -3811.51, -3621.14, -3582.35, -3099.75, 0.000, 0.000, 0.000, 14:07:59.220
158, -3607.92, -3581.37, -3484.03, -3010.42, 0.000, 0.000, 0.000, 14:07:59.220
159, -3624.14, -3509.22, -3483.68, -3015.88, 0.000, 0.000, 0.000, 14:07:59.251
160, -3914.73, -3591.84, -3611.53, -3150.98, 0.000, 0.000, 0.000, 14:07:59.251
161, -3797.17, -3607.57, -3584.68, -3104.15, 0.000, 0.000, 0.000, 14:07:59.251
162, -3604.67, -3587.24, -3490.73, -2998.42, 0.000, 0.000, 0.000, 14:07:59.251
163, -3666.18, -3533.67, -3511.75, -3040.89, 0.000, 0.000, 0.000, 14:07:59.252
164, -3913.58, -3583.43, -3618.12, -3157.03, 0.000, 0.000, 0.000, 14:07:59.252
165, -3775.74, -3606.79, -3566.81, -3089.14, 0.000, 0.000, 0.000, 14:07:59.253
166, -3585.19, -3603.05, -3476.47, -2979.79, 0.000, 0.000, 0.000, 14:07:59.253
167, -3675.93, -3550.58, -3511.39, -3043.40, 0.000, 0.000, 0.000, 14:07:59.266
168, -3925.25, -3606.18, -3620.45, -3173.24, 0.000, 0.000, 0.000, 14:07:59.266
169, -3797.35, -3649.60, -3590.34, -3098.01, 0.000, 0.000, 0.000, 14:07:59.281
170, -3583.47, -3574.96, -3480.29, -2983.84, 0.000, 0.000, 0.000, 14:07:59.281
171, -3624.76, -3536.71, -3482.22, -3065.23, 0.000, 0.000, 0.000, 14:07:59.295
172, -3882.48, -3617.71, -3619.99, -3166.97, 0.000, 0.000, 0.000, 14:07:59.295
173, -3716.66, -3612.90, -3552.84, -3076.14, 0.000, 0.000, 0.000, 14:07:59.296
174, -3543.39, -3619.68, -3480.00, -2992.82, 0.000, 0.000, 0.000, 14:07:59.296
175, -3585.98, -3572.54, -3483.92, -3027.39, 0.000, 0.000, 0.000, 14:07:59.311
176, -3813.48, -3610.03, -3596.91, -3152.81, 0.000, 0.000, 0.000, 14:07:59.311
177, -3690.43, -3665.34, -3566.98, -3056.90, 0.000, 0.000, 0.000, 14:07:59.326
178, -3466.10, -3642.55, -3469.98, -2978.74, 0.000, 0.000, 0.000, 14:07:59.326
179, -3558.62, -3613.90, -3507.45, -3031.04, 0.000, 0.000, 0.000, 14:07:59.326
180, -3803.27, -3666.94, -3607.24, -3139.92, 0.000, 0.000, 0.000, 14:07:59.326
181, -3698.03, -3674.31, -3568.39, -3079.96, 0.000, 0.000, 0.000, 14:07:59.355
182, -3483.78, -3632.87, -3459.89, -2969.74, 0.000, 0.000, 0.000, 14:07:59.355
183, -3585.89, -3574.11, -3491.23, -3047.00, 0.000, 0.000, 0.000, 14:07:59.356
184, -3828.77, -3617.07, -3597.35, -3153.77, 0.000, 0.000, 0.000, 14:07:59.356
185, -3777.64, -3648.74, -3587.82, -3121.37, 0.000, 0.000, 0.000, 14:07:59.357
186, -3557.72, -3593.54, -3501.72, -2971.25, 0.000, 0.000, 0.000, 14:07:59.357
187, -3687.15, -3535.79, -3523.54, -3069.66, 0.000, 0.000, 0.000, 14:07:59.370
188, -3961.10, -3584.81, -3628.91, -3185.66, 0.000, 0.000, 0.000, 14:07:59.370
189, -3833.06, -3601.79, -3590.12, -3101.67, 0.000, 0.000, 0.000, 14:07:59.386
190, -3612.23, -3572.25, -3488.58, -2989.38, 0.000, 0.000, 0.000, 14:07:59.386
191, -3695.23, -3504.94, -3506.02, -3054.02, 0.000, 0.000, 0.000, 14:07:59.386
192, -3963.06, -3569.15, -3623.68, -3154.60, 0.000, 0.000, 0.000, 14:07:59.386
193, -3857.38, -3592.81, -3584.58, -3103.34, 0.000, 0.000, 0.000, 14:07:59.401
194, -3627.29, -3550.55, -3498.98, -2992.07, 0.000, 0.000, 0.000, 14:07:59.401
195, -3717.50, -3506.99, -3524.27, -3077.61, 0.000, 0.000, 0.000, 14:07:59.415
196, -3949.85, -3564.78, -3620.18, -3189.49, 0.000, 0.000, 0.000, 14:07:59.415
197, -3826.66, -3581.30, -3579.61, -3087.30, 0.000, 0.000, 0.000, 14:07:59.415
198, -3632.53, -3564.74, -3516.93, -3021.52, 0.000, 0.000, 0.000, 14:07:59.415
199, -3703.85, -3499.68, -3507.96, -3057.50, 0.000, 0.000, 0.000, 14:07:59.430
200, -3933.73, -3559.78, -3605.98, -3181.95, 0.000, 0.000, 0.000, 14:07:59.430
0, -3836.61, -3596.14, -3587.28, -3105.90, 0.000, 0.000, 0.000, 14:07:59.431
1, -3632.41, -3566.62, -3502.92, -2998.83, 0.000, 0.000, 0.000, 14:07:59.445
2, -3706.77, -3500.96, -3498.84, -3062.71, 0.000, 0.000, 0.000, 14:07:59.445
3, -3914.01, -3565.36, -3600.59, -3167.29, 0.000, 0.000, 0.000, 14:07:59.475
4, -3834.48, -3617.13, -3589.79, -3125.96, 0.000, 0.000, 0.000, 14:07:59.475
5, -3618.74, -3583.27, -3493.11, -3002.05, 0.000, 0.000, 0.000, 14:07:59.476
6, -3693.31, -3507.69, -3506.37, -3046.50, 0.000, 0.000, 0.000, 14:07:59.476
7, -3932.56, -3559.95, -3617.52, -3156.82, 0.000, 0.000, 0.000, 14:07:59.476
8, -3826.39, -3599.32, -3578.31, -3118.05, 0.000, 0.000, 0.000, 14:07:59.476
9, -3592.24, -3558.95, -3482.50, -2990.70, 0.000, 0.000, 0.000, 14:07:59.477
10, -3682.38, -3511.56, -3502.00, -3038.44, 0.000, 0.000, 0.000, 14:07:59.477
11, -3905.56, -3566.28, -3611.70, -3123.05, 0.000, 0.000, 0.000, 14:07:59.490
12, -3818.05, -3608.18, -3582.59, -3099.95, 0.000, 0.000, 0.000, 14:07:59.490
13, -3596.46, -3579.01, -3492.86, -3023.48, 0.000, 0.000, 0.000, 14:07:59.520
14, -3720.33, -3530.17, -3515.46, -3054.38, 0.000, 0.000, 0.000, 14:07:59.520
15, -3949.67, -3583.79, -3620.60, -3158.80, 0.000, 0.000, 0.000, 14:07:59.520
16, -3841.94, -3606.96, -3588.15, -3148.13, 0.000, 0.000, 0.000, 14:07:59.520
17, -3611.19, -3574.54, -3489.46, -3012.98, 0.000, 0.000, 0.000, 14:07:59.521
18, -3662.15, -3519.52, -3504.15, -3024.85, 0.000, 0.000, 0.000, 14:07:59.521
19, -3890.63, -3578.02, -3598.43, -3150.01, 0.000, 0.000, 0.000, 14:07:59.535
20, -3799.71, -3600.17, -3582.34, -3089.77, 0.000, 0.000, 0.000, 14:07:59.535
21, -3610.85, -3568.73, -3484.68, -2987.89, 0.000, 0.000, 0.000, 14:07:59.550
22, -3679.30, -3509.19, -3512.70, -3044.34, 0.000, 0.000, 0.000, 14:07:59.551
23, -3922.25, -3574.67, -3617.65, -3179.64, 0.000, 0.000, 0.000, 14:07:59.552
24, -3817.25, -3604.51, -3577.17, -3084.76, 0.000, 0.000, 0.000, 14:07:59.552
25, -3596.00, -3583.27, -3498.24, -2992.61, 0.000, 0.000, 0.000, 14:07:59.566
26, -3673.07, -3507.72, -3497.49, -3035.06, 0.000, 0.000, 0.000, 14:07:59.566
27, -3904.60, -3573.64, -3607.20, -3170.77, 0.000, 0.000, 0.000, 14:07:59.580
28, -3800.95, -3600.57, -3575.28, -3128.24, 0.000, 0.000, 0.000, 14:07:59.580
29, -3598.40, -3575.84, -3482.76, -2995.40, 0.000, 0.000, 0.000, 14:07:59.580
30, -3674.65, -3517.20, -3499.20, -3045.88, 0.000, 0.000, 0.000, 14:07:59.581
31, -3894.09, -3565.44, -3604.99, -3183.54, 0.000, 0.000, 0.000, 14:07:59.596
32, -3803.91, -3611.96, -3593.39, -3090.04, 0.000, 0.000, 0.000, 14:07:59.596
33, -3588.43, -3588.88, -3486.69, -2957.84, 0.000, 0.000, 0.000, 14:07:59.610
34, -3673.33, -3518.51, -3503.30, -3012.67, 0.000, 0.000, 0.000, 14:07:59.610
35, -3920.80, -3573.62, -3626.58, -3172.26, 0.000, 0.000, 0.000, 14:07:59.611
36, -3791.47, -3599.55, -3580.44, -3065.17, 0.000, 0.000, 0.000, 14:07:59.611
37, -3587.31, -3565.85, -3471.20, -3000.63, 0.000, 0.000, 0.000, 14:07:59.655
38, -3672.32, -3533.20, -3514.29, -3063.60, 0.000, 0.000, 0.000, 14:07:59.655
39, -3921.18, -3578.01, -3617.26, -3166.02, 0.000, 0.000, 0.000, 14:07:59.656
40, -3793.44, -3604.31, -3571.54, -3090.74, 0.000, 0.000, 0.000, 14:07:59.656
41, -3610.29, -3567.40, -3479.51, -3005.57, 0.000, 0.000, 0.000, 14:07:59.656
42, -3644.21, -3527.68, -3512.20, -3043.02, 0.000, 0.000, 0.000, 14:07:59.657
43, -3935.25, -3589.03, -3610.68, -3172.99, 0.000, 0.000, 0.000, 14:07:59.657
44, -3806.00, -3613.13, -3587.84, -3108.08, 0.000, 0.000, 0.000, 14:07:59.657
45, -3595.61, -3576.00, -3484.30, -3001.75, 0.000, 0.000, 0.000, 14:07:59.658
46, -3682.14, -3529.67, -3517.49, -3048.29, 0.000, 0.000, 0.000, 14:07:59.658
47, -3908.15, -3587.24, -3612.78, -3122.12, 0.000, 0.000, 0.000, 14:07:59.686
48, -3793.62, -3599.08, -3561.12, -3106.94, 0.000, 0.000, 0.000, 14:07:59.686
49, -3592.82, -3576.90, -3477.11, -2974.17, 0.000, 0.000, 0.000, 14:07:59.686
50, -3672.67, -3518.32, -3500.02, -3033.39, 0.000, 0.000, 0.000, 14:07:59.686
51, -3892.06, -3569.55, -3600.55, -3167.86, 0.000, 0.000, 0.000, 14:07:59.701
52, -3758.95, -3605.53, -3567.63, -3103.83, 0.000, 0.000, 0.000, 14:07:59.702
53, -3580.32, -3571.55, -3483.04, -2980.89, 0.000, 0.000, 0.000, 14:07:59.702
54, -3668.16, -3519.71, -3500.83, -3034.22, 0.000, 0.000, 0.000, 14:07:59.702
55, -3912.03, -3594.68, -3614.35, -3168.86, 0.000, 0.000, 0.000, 14:07:59.715
56, -3810.59, -3604.93, -3565.74, -3083.50, 0.000, 0.000, 0.000, 14:07:59.716
57, -3577.28, -3580.08, -3489.29, -2983.42, 0.000, 0.000, 0.000, 14:07:59.730
58, -3667.60, -3522.75, -3499.87, -3071.50, 0.000, 0.000, 0.000, 14:07:59.731
59, -3924.60, -3583.73, -3608.20, -3160.48, 0.000, 0.000, 0.000, 14:07:59.731
60, -3781.14, -3600.94, -3553.10, -3077.50, 0.000, 0.000, 0.000, 14:07:59.731
61, -3561.28, -3575.44, -3471.86, -3001.81, 0.000, 0.000, 0.000, 14:07:59.745
62, -3669.50, -3526.48, -3507.16, -3076.06, 0.000, 0.000, 0.000, 14:07:59.745
63, -3913.33, -3589.67, -3607.01, -3170.62, 0.000, 0.000, 0.000, 14:07:59.760
64, -3801.18, -3609.81, -3563.17, -3136.44, 0.000, 0.000, 0.000, 14:07:59.761
65, -3562.51, -3567.12, -3465.27, -2953.43, 0.000, 0.000, 0.000, 14:07:59.761
66, -3663.92, -3506.86, -3503.79, -3059.29, 0.000, 0.000, 0.000, 14:07:59.761
67, -3911.65, -3583.96, -3624.91, -3106.67, 0.000, 0.000, 0.000, 14:07:59.775
68, -3806.54, -3617.53, -3576.43, -3093.35, 0.000, 0.000, 0.000, 14:07:59.775
69, -3557.76, -3572.20, -3472.38, -3000.21, 0.000, 0.000, 0.000, 14:07:59.805
70, -3674.79, -3527.77, -3502.24, -3070.33, 0.000, 0.000, 0.000, 14:07:59.805
71, -3898.65, -3576.30, -3607.37, -3132.61, 0.000, 0.000, 0.000, 14:07:59.806
72, -3792.46, -3607.36, -3576.92, -3072.62, 0.000, 0.000, 0.000, 14:07:59.806
73, -3593.21, -3570.45, -3484.28, -2993.04, 0.000, 0.000, 0.000, 14:07:59.806
74, -3665.10, -3507.83, -3501.07, -3048.13, 0.000, 0.000, 0.000, 14:07:59.806
75, -3906.68, -3586.68, -3612.51, -3169.78, 0.000, 0.000, 0.000, 14:07:59.807
76, -3812.66, -3618.11, -3589.23, -3131.32, 0.000, 0.000, 0.000, 14:07:59.807
77, -3588.04, -3566.88, -3475.25, -2926.72, 0.000, 0.000, 0.000, 14:07:59.820
78, -3669.48, -3518.72, -3504.13, -3038.05, 0.000, 0.000, 0.000, 14:07:59.820
79, -3893.58, -3578.37, -3614.47, -3152.69, 0.000, 0.000, 0.000, 14:07:59.836
80, -3770.13, -3611.07, -3579.13, -3125.08, 0.000, 0.000, 0.000, 14:07:59.836
81, -3583.45, -3568.55, -3463.04, -2977.08, 0.000, 0.000, 0.000, 14:07:59.851
82, -3678.86, -3524.90, -3504.35, -3019.96, 0.000, 0.000, 0.000, 14:07:59.851
83, -3904.70, -3585.46, -3613.29, -3165.11, 0.000, 0.000, 0.000, 14:07:59.857
84, -3786.70, -3609.13, -3578.12, -3077.60, 0.000, 0.000, 0.000, 14:07:59.857
85, -3595.04, -3577.75, -3481.39, -2995.95, 0.000, 0.000, 0.000, 14:07:59.880
86, -3675.27, -3519.47, -3508.17, -3058.90, 0.000, 0.000, 0.000, 14:07:59.880
87, -3909.38, -3590.75, -3619.33, -3153.26, 0.000, 0.000, 0.000, 14:07:59.881
88, -3811.38, -3615.90, -3575.20, -3106.17, 0.000, 0.000, 0.000, 14:07:59.881
89, -3571.28, -3577.81, -3483.29, -2993.23, 0.000, 0.000, 0.000, 14:07:59.881
90, -3690.27, -3533.03, -3518.32, -3090.28, 0.000, 0.000, 0.000, 14:07:59.882
91, -3893.86, -3578.00, -3606.81, -3121.35, 0.000, 0.000, 0.000, 14:07:59.910
92, -3758.51, -3599.58, -3558.27, -3019.94, 0.000, 0.000, 0.000, 14:07:59.910
93, -3570.99, -3579.05, -3479.03, -2979.39, 0.000, 0.000, 0.000, 14:07:59.911
94, -3693.41, -3532.41, -3505.49, -3079.78, 0.000, 0.000, 0.000, 14:07:59.911
95, -3925.52, -3595.29, -3623.41, -3208.96, 0.000, 0.000, 0.000, 14:07:59.912
96, -3786.83, -3616.41, -3585.26, -3087.83, 0.000, 0.000, 0.000, 14:07:59.912
97, -3569.87, -3575.46, -3477.77, -2992.96, 0.000, 0.000, 0.000, 14:07:59.926
98, -3674.08, -3511.67, -3503.17, -3078.57, 0.000, 0.000, 0.000, 14:07:59.926
99, -3881.39, -3582.32, -3608.27, -3172.60, 0.000, 0.000, 0.000, 14:07:59.940
100, -3771.68, -3598.88, -3561.10, -3069.61, 0.000, 0.000, 0.000, 14:07:59.940
101, -3579.24, -3589.46, -3488.93, -2983.66, 0.000, 0.000, 0.000, 14:07:59.941
102, -3681.43, -3532.97, -3515.87, -3072.85, 0.000, 0.000, 0.000, 14:07:59.941
103, -3917.12, -3587.16, -3616.05, -3169.59, 0.000, 0.000, 0.000, 14:07:59.970
104, -3813.11, -3620.34, -3575.04, -3106.35, 0.000, 0.000, 0.000, 14:07:59.970
105, -3585.78, -3570.14, -3487.10, -2966.25, 0.000, 0.000, 0.000, 14:07:59.971
106, -3649.58, -3513.13, -3502.54, -3044.58, 0.000, 0.000, 0.000, 14:07:59.971
107, -3913.98, -3608.84, -3630.82, -3161.23, 0.000, 0.000, 0.000, 14:07:59.971
108, -3752.71, -3603.80, -3560.78, -3083.03, 0.000, 0.000, 0.000, 14:07:59.972
109, -3587.57, -3577.76, -3475.50, -2987.89, 0.000, 0.000, 0.000, 14:07:59.986
110, -3674.15, -3529.74, -3518.60, -3062.04, 0.000, 0.000, 0.000, 14:07:59.986
111, -3883.93, -3586.01, -3609.04, -3150.88, 0.000, 0.000, 0.000, 14:08:00.001
112, -3775.39, -3598.53, -3570.14, -3105.72, 0.000, 0.000, 0.000, 14:08:00.001
113, -3576.99, -3574.97, -3482.44, -2983.95, 0.000, 0.000, 0.000, 14:08:00.002
114, -3693.21, -3514.04, -3505.06, -3076.43, 0.000, 0.000, 0.000, 14:08:00.002
115, -3897.30, -3569.24, -3602.99, -3101.21, 0.000, 0.000, 0.000, 14:08:00.031
116, -3787.65, -3603.28, -3560.05, -3099.55, 0.000, 0.000, 0.000, 14:08:00.032
117, -3566.28, -3562.89, -3460.45, -2978.29, 0.000, 0.000, 0.000, 14:08:00.032
118, -3689.96, -3538.61, -3530.17, -3042.03, 0.000, 0.000, 0.000, 14:08:00.033
119, -3913.10, -3586.74, -3618.31, -3158.39, 0.000, 0.000, 0.000, 14:08:00.033
120, -3806.37, -3607.37, -3572.52, -3100.40, 0.000, 0.000, 0.000, 14:08:00.033
121, -3574.78, -3571.88, -3471.98, -2991.15, 0.000, 0.000, 0.000, 14:08:00.046
122, -3694.94, -3518.11, -3511.13, -3050.50, 0.000, 0.000, 0.000, 14:08:00.046
123, -3907.05, -3576.20, -3609.91, -3176.26, 0.000, 0.000, 0.000, 14:08:00.075
124, -3767.93, -3595.20, -3555.38, -3079.31, 0.000, 0.000, 0.000, 14:08:00.075
125, -3590.11, -3583.30, -3477.59, -2986.52, 0.000, 0.000, 0.000, 14:08:00.075
126, -3657.85, -3519.92, -3509.80, -3025.33, 0.000, 0.000, 0.000, 14:08:00.075
127, -3925.41, -3600.48, -3619.54, -3157.71, 0.000, 0.000, 0.000, 14:08:00.076
128, -3815.75, -3610.50, -3572.74, -3087.86, 0.000, 0.000, 0.000, 14:08:00.076
129, -3591.09, -3579.71, -3480.98, -2979.64, 0.000, 0.000, 0.000, 14:08:00.078
130, -3665.07, -3525.24, -3510.91, -3063.52, 0.000, 0.000, 0.000, 14:08:00.079
131, -3876.81, -3580.09, -3592.81, -3156.25, 0.000, 0.000, 0.000, 14:08:00.091
132, -3781.70, -3609.13, -3562.14, -3082.29, 0.000, 0.000, 0.000, 14:08:00.091
133, -3576.33, -3577.51, -3476.63, -3025.71, 0.000, 0.000, 0.000, 14:08:00.105
134, -3695.49, -3522.20, -3496.60, -3093.39, 0.000, 0.000, 0.000, 14:08:00.105
135, -3913.80, -3588.09, -3622.44, -3124.09, 0.000, 0.000, 0.000, 14:08:00.120
136, -3783.21, -3609.12, -3560.89, -3098.07, 0.000, 0.000, 0.000, 14:08:00.120
137, -3579.08, -3580.98, -3479.15, -2987.09, 0.000, 0.000, 0.000, 14:08:00.120
138, -3692.01, -3534.06, -3506.47, -3048.78, 0.000, 0.000, 0.000, 14:08:00.120
139, -3893.78, -3582.33, -3598.14, -3183.70, 0.000, 0.000, 0.000, 14:08:00.135
140, -3789.67, -3617.83, -3569.16, -3085.68, 0.000, 0.000, 0.000, 14:08:00.135
141, -3571.42, -3571.59, -3481.54, -2986.74, 0.000, 0.000, 0.000, 14:08:00.152
142, -3675.87, -3514.25, -3501.41, -3106.85, 0.000, 0.000, 0.000, 14:08:00.152
143, -3886.72, -3587.63, -3597.22, -3179.42, 0.000, 0.000, 0.000, 14:08:00.152
144, -3799.77, -3612.33, -3575.60, -3141.83, 0.000, 0.000, 0.000, 14:08:00.152
145, -3587.59, -3572.66, -3486.82, -3008.34, 0.000, 0.000, 0.000, 14:08:00.165
146, -3691.92, -3514.83, -3510.71, -3067.25, 0.000, 0.000, 0.000, 14:08:00.165
147, -3882.99, -3583.12, -3592.55, -3131.32, 0.000, 0.000, 0.000, 14:08:00.181
148, -3795.76, -3618.22, -3570.42, -3092.10, 0.000, 0.000, 0.000, 14:08:00.181
149, -3577.40, -3574.12, -3468.20, -3010.20, 0.000, 0.000, 0.000, 14:08:00.196
150, -3685.96, -3517.97, -3505.17, -3032.36, 0.000, 0.000, 0.000, 14:08:00.196
151, -3904.67, -3582.98, -3612.69, -3143.63, 0.000, 0.000, 0.000, 14:08:00.210
152, -3783.18, -3592.53, -3561.96, -3053.93, 0.000, 0.000, 0.000, 14:08:00.211
153, -3576.34, -3570.09, -3476.19, -2966.83, 0.000, 0.000, 0.000, 14:08:00.211
154, -3674.74, -3542.26, -3511.59, -3049.97, 0.000, 0.000, 0.000, 14:08:00.211
155, -3910.30, -3585.38, -3606.43, -3138.44, 0.000, 0.000, 0.000, 14:08:00.212
156, -3807.08, -3609.62, -3573.82, -3082.14, 0.000, 0.000, 0.000, 14:08:00.212
157, -3573.05, -3571.86, -3489.91, -3005.06, 0.000, 0.000, 0.000, 14:08:00.240
158, -3693.46, -3509.41, -3499.04, -3051.12, 0.000, 0.000, 0.000, 14:08:00.240
159, -3882.56, -3568.18, -3592.90, -3123.01, 0.000, 0.000, 0.000, 14:08:00.241
160, -3791.81, -3609.74, -3558.06, -3093.79, 0.000, 0.000, 0.000, 14:08:00.241
161, -3567.77, -3590.69, -3476.31, -2985.21, 0.000, 0.000, 0.000, 14:08:00.241
162, -3683.01, -3512.90, -3502.57, -3035.58, 0.000, 0.000, 0.000, 14:08:00.242
163, -3882.47, -3589.04, -3622.50, -3158.76, 0.000, 0.000, 0.000, 14:08:00.255
164, -3790.99, -3616.24, -3567.30, -3067.36, 0.000, 0.000, 0.000, 14:08:00.255
165, -3571.94, -3578.99, -3481.56, -2996.51, 0.000, 0.000, 0.000, 14:08:00.270
166, -3684.76, -3533.26, -3509.68, -3041.62, 0.000, 0.000, 0.000, 14:08:00.270
167, -3899.98, -3582.09, -3609.56, -3151.81, 0.000, 0.000, 0.000, 14:08:00.270
168, -3782.85, -3606.14, -3564.41, -3088.47, 0.000, 0.000, 0.000, 14:08:00.271
169, -3573.49, -3575.70, -3483.78, -2978.26, 0.000, 0.000, 0.000, 14:08:00.286
170, -3692.73, -3514.07, -3509.38, -3065.71, 0.000, 0.000, 0.000, 14:08:00.286
171, -3892.90, -3581.72, -3601.73, -3158.66, 0.000, 0.000, 0.000, 14:08:00.301
172, -3759.34, -3592.22, -3542.88, -3078.44, 0.000, 0.000, 0.000, 14:08:00.301
173, -3603.31, -3592.94, -3484.80, -2991.63, 0.000, 0.000, 0.000, 14:08:00.301
174, -3694.73, -3526.06, -3501.25, -3052.09, 0.000, 0.000, 0.000, 14:08:00.301
175, -3916.69, -3580.47, -3606.48, -3156.31, 0.000, 0.000, 0.000, 14:08:00.315
176, -3787.52, -3613.53, -3578.39, -3091.49, 0.000, 0.000, 0.000, 14:08:00.315
177, -3576.04, -3570.12, -3473.89, -2969.53, 0.000, 0.000, 0.000, 14:08:00.332
178, -3683.64, -3523.42, -3512.32, -3054.62, 0.000, 0.000, 0.000, 14:08:00.332
179, -3900.86, -3576.53, -3602.48, -3160.20, 0.000, 0.000, 0.000, 14:08:00.332
180, -3786.35, -3605.91, -3571.38, -3072.79, 0.000, 0.000, 0.000, 14:08:00.332
181, -3559.12, -3576.00, -3478.33, -2953.88, 0.000, 0.000, 0.000, 14:08:00.360
182, -3682.60, -3521.32, -3514.49, -3051.55, 0.000, 0.000, 0.000, 14:08:00.360
183, -3905.89, -3594.55, -3620.60, -3139.88, 0.000, 0.000, 0.000, 14:08:00.360
184, -3784.78, -3600.23, -3573.14, -3148.55, 0.000, 0.000, 0.000, 14:08:00.361
185, -3582.14, -3565.27, -3473.59, -2966.29, 0.000, 0.000, 0.000, 14:08:00.361
186, -3696.01, -3522.17, -3515.78, -3061.18, 0.000, 0.000, 0.000, 14:08:00.361
187, -3917.43, -3581.70, -3603.70, -3172.44, 0.000, 0.000, 0.000, 14:08:00.375
188, -3766.79, -3605.04, -3558.31, -3089.34, 0.000, 0.000, 0.000, 14:08:00.375
189, -3563.54, -3575.18, -3468.82, -2977.50, 0.000, 0.000, 0.000, 14:08:00.405
190, -3664.52, -3516.50, -3500.83, -3060.41, 0.000, 0.000, 0.000, 14:08:00.405
191, -3900.80, -3574.31, -3601.45, -3152.10, 0.000, 0.000, 0.000, 14:08:00.406
192, -3773.66, -3595.01, -3570.16, -3071.42, 0.000, 0.000, 0.000, 14:08:00.406
193, -3573.58, -3576.94, -3478.10, -2940.70, 0.000, 0.000, 0.000, 14:08:00.406
194, -3679.77, -3517.10, -3505.65, -3064.17, 0.000, 0.000, 0.000, 14:08:00.407
195, -3882.41, -3573.25, -3588.22, -3140.96, 0.000, 0.000, 0.000, 14:08:00.407
196, -3790.69, -3620.12, -3580.96, -3102.10, 0.000, 0.000, 0.000, 14:08:00.407
197, -3561.66, -3572.91, -3468.59, -3014.13, 0.000, 0.000, 0.000, 14:08:00.435
198, -3699.60, -3526.95, -3505.27, -3055.17, 0.000, 0.000, 0.000, 14:08:00.435
199, -3895.43, -3582.86, -3609.73, -3127.81, 0.000, 0.000, 0.000, 14:08:00.435
200, -3792.78, -3600.46, -3567.62, -3081.25, 0.000, 0.000, 0.000, 14:08:00.435
0, -3581.10, -3573.61, -3478.75, -2967.70, 0.000, 0.000, 0.000, 14:08:00.436
1, -3701.20, -3528.60, -3524.98, -3072.68, 0.000, 0.000, 0.000, 14:08:00.467
2, -3893.74, -3574.25, -3604.92, -3139.01, 0.000, 0.000, 0.000, 14:08:00.467
3, -3778.22, -3615.26, -3571.20, -3093.08, 0.000, 0.000, 0.000, 14:08:00.467
4, -3555.06, -3575.20, -3471.61, -2972.53, 0.000, 0.000, 0.000, 14:08:00.469
5, -3678.89, -3522.36, -3502.69, -3021.35, 0.000, 0.000, 0.000, 14:08:00.469
6, -3897.03, -3595.36, -3613.24, -3158.27, 0.000, 0.000, 0.000, 14:08:00.469
7, -3775.23, -3608.40, -3572.29, -3083.74, 0.000, 0.000, 0.000, 14:08:00.481
8, -3580.83, -3574.72, -3477.86, -2987.58, 0.000, 0.000, 0.000, 14:08:00.481
9, -3691.72, -3534.04, -3518.42, -3057.67, 0.000, 0.000, 0.000, 14:08:00.495
10, -3894.42, -3577.74, -3608.58, -3148.64, 0.000, 0.000, 0.000, 14:08:00.495
11, -3783.26, -3601.40, -3556.94, -3101.21, 0.000, 0.000, 0.000, 14:08:00.496
12, -3558.54, -3570.48, -3472.77, -2962.88, 0.000, 0.000, 0.000, 14:08:00.496
13, -3678.35, -3533.09, -3514.84, -3045.23, 0.000, 0.000, 0.000, 14:08:00.510
14, -3919.56, -3597.79, -3613.77, -3180.65, 0.000, 0.000, 0.000, 14:08:00.510
15, -3801.09, -3616.19, -3571.20, -3090.20, 0.000, 0.000, 0.000, 14:08:00.540
16, -3548.94, -3564.01, -3453.51, -2969.71, 0.000, 0.000, 0.000, 14:08:00.540
17, -3697.70, -3527.95, -3516.68, -3054.81, 0.000, 0.000, 0.000, 14:08:00.540
18, -3895.65, -3577.90, -3602.24, -3144.71, 0.000, 0.000, 0.000, 14:08:00.540
19, -3789.43, -3609.27, -3575.69, -3058.59, 0.000, 0.000, 0.000, 14:08:00.541
20, -3562.03, -3570.72, -3469.00, -2983.86, 0.000, 0.000, 0.000, 14:08:00.541
21, -3682.86, -3515.47, -3503.03, -3072.60, 0.000, 0.000, 0.000, 14:08:00.542
22, -3893.37, -3601.53, -3609.61, -3170.01, 0.000, 0.000, 0.000, 14:08:00.542
23, -3757.22, -3614.59, -3561.35, -3029.19, 0.000, 0.000, 0.000, 14:08:00.556
24, -3576.12, -3572.21, -3478.29, -2987.08, 0.000, 0.000, 0.000, 14:08:00.556
25, -3690.76, -3516.15, -3515.35, -3065.48, 0.000, 0.000, 0.000, 14:08:00.570
26, -3884.66, -3571.57, -3595.22, -3143.04, 0.000, 0.000, 0.000, 14:08:00.570
27, -3757.11, -3600.45, -3551.51, -3069.19, 0.000, 0.000, 0.000, 14:08:00.601
28, -3586.75, -3582.51, -3481.18, -3001.29, 0.000, 0.000, 0.000, 14:08:00.602
29, -3689.66, -3524.13, -3512.88, -3036.76, 0.000, 0.000, 0.000, 14:08:00.602
30, -3909.00, -3581.11, -3608.94, -3141.42, 0.000, 0.000, 0.000, 14:08:00.602
31, -3782.62, -3607.73, -3562.96, -3090.19, 0.000, 0.000, 0.000, 14:08:00.602
32, -3591.71, -3576.93, -3468.79, -2971.97, 0.000, 0.000, 0.000, 14:08:00.602
33, -3689.04, -3522.84, -3516.25, -3079.64, 0.000, 0.000, 0.000, 14:08:00.602
34, -3911.30, -3595.91, -3617.57, -3147.11, 0.000, 0.000, 0.000, 14:08:00.602
35, -3790.16, -3601.13, -3565.20, -3052.78, 0.000, 0.000, 0.000, 14:08:00.631
36, -3569.68, -3572.16, -3475.36, -2965.22, 0.000, 0.000, 0.000, 14:08:00.631
37, -3698.07, -3515.31, -3514.18, -3077.58, 0.000, 0.000, 0.000, 14:08:00.631
38, -3916.97, -3594.67, -3623.00, -3164.98, 0.000, 0.000, 0.000, 14:08:00.631
39, -3775.24, -3610.30, -3558.60, -3078.49, 0.000, 0.000, 0.000, 14:08:00.645
40, -3544.10, -3565.07, -3459.65, -2973.87, 0.000, 0.000, 0.000, 14:08:00.645
41, -3697.33, -3522.21, -3520.98, -3052.27, 0.000, 0.000, 0.000, 14:08:00.646
42, -3882.93, -3592.95, -3616.16, -3154.76, 0.000, 0.000, 0.000, 14:08:00.646
43, -3743.90, -3607.57, -3561.16, -3091.06, 0.000, 0.000, 0.000, 14:08:00.660
44, -3550.86, -3571.34, -3471.29, -2968.70, 0.000, 0.000, 0.000, 14:08:00.660
45, -3679.37, -3518.25, -3498.06, -3057.58, 0.000, 0.000, 0.000, 14:08:00.675
46, -3936.17, -3582.95, -3607.41, -3139.48, 0.000, 0.000, 0.000, 14:08:00.675
47, -3775.77, -3604.61, -3570.55, -3088.50, 0.000, 0.000, 0.000, 14:08:00.690
48, -3571.24, -3576.06, -3473.82, -2983.76, 0.000, 0.000, 0.000, 14:08:00.690
49, -3672.14, -3504.03, -3492.03, -3038.81, 0.000, 0.000, 0.000, 14:08:00.691
50, -3928.42, -3610.36, -3625.57, -3158.08, 0.000, 0.000, 0.000, 14:08:00.691
51, -3786.37, -3606.08, -3570.75, -3073.28, 0.000, 0.000, 0.000, 14:08:00.705
52, -3540.93, -3547.77, -3459.25, -2965.76, 0.000, 0.000, 0.000, 14:08:00.705
53, -3698.99, -3524.79, -3510.47, -3060.48, 0.000, 0.000, 0.000, 14:08:00.706
54, -3919.56, -3587.34, -3604.53, -3162.62, 0.000, 0.000, 0.000, 14:08:00.706
55, -3790.54, -3617.84, -3566.52, -3080.87, 0.000, 0.000, 0.000, 14:08:00.720
56, -3570.08, -3581.13, -3472.90, -2986.60, 0.000, 0.000, 0.000, 14:08:00.720
57, -3690.71, -3520.50, -3514.68, -3073.52, 0.000, 0.000, 0.000, 14:08:00.751
58, -3908.26, -3575.70, -3603.66, -3143.39, 0.000, 0.000, 0.000, 14:08:00.751
59, -3771.42, -3600.47, -3563.50, -3090.61, 0.000, 0.000, 0.000, 14:08:00.751
60, -3542.50, -3561.12, -3456.52, -2961.32, 0.000, 0.000, 0.000, 14:08:00.751
61, -3696.42, -3543.13, -3530.14, -3077.62, 0.000, 0.000, 0.000, 14:08:00.751
62, -3890.72, -3596.75, -3616.55, -3167.03, 0.000, 0.000, 0.000, 14:08:00.752
63, -3790.44, -3609.75, -3563.15, -3077.20, 0.000, 0.000, 0.000, 14:08:00.752
64, -3573.47, -3562.76, -3463.87, -2960.42, 0.000, 0.000, 0.000, 14:08:00.752
65, -3695.85, -3513.48, -3510.80, -3052.59, 0.000, 0.000, 0.000, 14:08:00.766
66, -3882.87, -3592.05, -3602.57, -3145.68, 0.000, 0.000, 0.000, 14:08:00.766
67, -3791.02, -3631.23, -3574.71, -3091.89, 0.000, 0.000, 0.000, 14:08:00.796
68, -3584.63, -3571.54, -3476.56, -2967.64, 0.000, 0.000, 0.000, 14:08:00.796
69, -3717.88, -3519.65, -3512.58, -3069.23, 0.000, 0.000, 0.000, 14:08:00.797
70, -3924.93, -3598.85, -3617.27, -3175.17, 0.000, 0.000, 0.000, 14:08:00.797
71, -3802.66, -3606.65, -3555.20, -3073.46, 0.000, 0.000, 0.000, 14:08:00.797
72, -3560.25, -3569.29, -3467.42, -2956.20, 0.000, 0.000, 0.000, 14:08:00.797
73, -3698.17, -3527.96, -3510.22, -3042.28, 0.000, 0.000, 0.000, 14:08:00.810
74, -3887.61, -3592.22, -3612.58, -3141.44, 0.000, 0.000, 0.000, 14:08:00.810
75, -3769.29, -3610.03, -3559.16, -3091.04, 0.000, 0.000, 0.000, 14:08:00.825
76, -3551.60, -3566.23, -3464.77, -2956.83, 0.000, 0.000, 0.000, 14:08:00.825
77, -3683.43, -3519.31, -3512.92, -3069.85, 0.000, 0.000, 0.000, 14:08:00.826
78, -3904.27, -3587.14, -3612.15, -3176.23, 0.000, 0.000, 0.000, 14:08:00.826
79, -3769.33, -3595.14, -3548.70, -3069.61, 0.000, 0.000, 0.000, 14:08:00.840
80, -3571.53, -3570.64, -3463.58, -2974.18, 0.000, 0.000, 0.000, 14:08:00.840
81, -3699.05, -3527.05, -3507.48, -3044.29, 0.000, 0.000, 0.000, 14:08:00.855
82, -3894.81, -3575.33, -3597.81, -3145.76, 0.000, 0.000, 0.000, 14:08:00.855
83, -3769.10, -3602.45, -3555.58, -3078.35, 0.000, 0.000, 0.000, 14:08:00.855
84, -3568.00, -3571.65, -3480.52, -2984.54, 0.000, 0.000, 0.000, 14:08:00.855
85, -3707.33, -3520.05, -3510.28, -3046.43, 0.000, 0.000, 0.000, 14:08:00.871
86, -3894.16, -3584.81, -3584.13, -3137.46, 0.000, 0.000, 0.000, 14:08:00.871
87, -3773.56, -3616.21, -3557.49, -3088.44, 0.000, 0.000, 0.000, 14:08:00.885
88, -3575.52, -3576.51, -3478.83, -2968.99, 0.000, 0.000, 0.000, 14:08:00.885
89, -3720.23, -3531.12, -3519.25, -3061.99, 0.000, 0.000, 0.000, 14:08:00.885
90, -3903.26, -3590.67, -3609.36, -3141.16, 0.000, 0.000, 0.000, 14:08:00.885
91, -3801.01, -3611.51, -3580.14, -3075.43, 0.000, 0.000, 0.000, 14:08:00.915
92, -3568.63, -3551.70, -3467.26, -2959.25, 0.000, 0.000, 0.000, 14:08:00.915
93, -3714.65, -3531.65, -3527.81, -3069.66, 0.000, 0.000, 0.000, 14:08:00.916
94, -3916.17, -3600.41, -3615.72, -3148.86, 0.000, 0.000, 0.000, 14:08:00.916
95, -3774.45, -3603.05, -3555.46, -3068.88, 0.000, 0.000, 0.000, 14:08:00.917
96, -3534.37, -3557.45, -3445.90, -2962.09, 0.000, 0.000, 0.000, 14:08:00.917
97, -3735.97, -3535.32, -3516.78, -3052.62, 0.000, 0.000, 0.000, 14:08:00.930
98, -3904.86, -3580.64, -3603.18, -3140.49, 0.000, 0.000, 0.000, 14:08:00.930
99, -3789.13, -3605.66, -3559.59, -3057.65, 0.000, 0.000, 0.000, 14:08:00.946
100, -3551.86, -3544.33, -3451.55, -2962.32, 0.000, 0.000, 0.000, 14:08:00.946
101, -3718.69, -3519.61, -3522.61, -3091.18, 0.000, 0.000, 0.000, 14:08:00.946
102, -3917.38, -3597.61, -3623.57, -3158.80, 0.000, 0.000, 0.000, 14:08:00.946
103, -3788.60, -3615.10, -3564.92, -3096.42, 0.000, 0.000, 0.000, 14:08:00.960
104, -3570.25, -3567.26, -3464.37, -2971.96, 0.000, 0.000, 0.000, 14:08:00.963
105, -3700.73, -3525.82, -3518.08, -3082.09, 0.000, 0.000, 0.000, 14:08:00.975
106, -3900.62, -3571.08, -3588.43, -3142.69, 0.000, 0.000, 0.000, 14:08:00.975
107, -3762.50, -3601.04, -3558.99, -3063.44, 0.000, 0.000, 0.000, 14:08:00.976
108, -3552.36, -3563.94, -3472.52, -2961.39, 0.000, 0.000, 0.000, 14:08:00.976
109, -3703.11, -3511.56, -3503.15, -3044.32, 0.000, 0.000, 0.000, 14:08:00.990
110, -3905.25, -3601.74, -3620.66, -3159.53, 0.000, 0.000, 0.000, 14:08:00.990
111, -3776.92, -3618.66, -3567.77, -3096.58, 0.000, 0.000, 0.000, 14:08:01.005
112, -3549.54, -3568.50, -3458.14, -2970.66, 0.000, 0.000, 0.000, 14:08:01.005
113, -3686.16, -3520.27, -3515.40, -3061.62, 0.000, 0.000, 0.000, 14:08:01.020
114, -3911.89, -3588.31, -3608.45, -3166.05, 0.000, 0.000, 0.000, 14:08:01.020
115, -3776.27, -3592.79, -3555.07, -3049.65, 0.000, 0.000, 0.000, 14:08:01.020
116, -3555.09, -3550.57, -3446.86, -2964.24, 0.000, 0.000, 0.000, 14:08:01.020
117, -3715.49, -3525.90, -3527.00, -3084.60, 0.000, 0.000, 0.000, 14:08:01.035
118, -3929.23, -3599.24, -3622.44, -3195.59, 0.000, 0.000, 0.000, 14:08:01.035
119, -3782.92, -3608.98, -3561.77, -3088.88, 0.000, 0.000, 0.000, 14:08:01.036
120, -3560.00, -3566.77, -3472.06, -2959.78, 0.000, 0.000, 0.000, 14:08:01.036
121, -3691.82, -3514.08, -3501.37, -3043.06, 0.000, 0.000, 0.000, 14:08:01.051
122, -3896.86, -3601.83, -3606.65, -3152.79, 0.000, 0.000, 0.000, 14:08:01.051
123, -3754.16, -3611.03, -3556.25, -3074.02, 0.000, 0.000, 0.000, 14:08:01.066
124, -3564.89, -3563.48, -3469.18, -2964.47, 0.000, 0.000, 0.000, 14:08:01.066
125, -3708.28, -3523.26, -3520.36, -3075.71, 0.000, 0.000, 0.000, 14:08:01.066
126, -3890.12, -3586.78, -3619.48, -3203.49, 0.000, 0.000, 0.000, 14:08:01.066
127, -3777.55, -3604.23, -3550.03, -3077.48, 0.000, 0.000, 0.000, 14:08:01.096
128, -3570.56, -3559.16, -3453.38, -2913.56, 0.000, 0.000, 0.000, 14:08:01.096
129, -3724.16, -3514.23, -3520.51, -3077.33, 0.000, 0.000, 0.000, 14:08:01.096
130, -3919.60, -3594.80, -3616.77, -3150.87, 0.000, 0.000, 0.000, 14:08:01.096
131, -3754.78, -3596.52, -3556.70, -3067.71, 0.000, 0.000, 0.000, 14:08:01.097
132, -3586.68, -3574.59, -3485.15, -2975.92, 0.000, 0.000, 0.000, 14:08:01.097
133, -3729.70, -3530.22, -3513.09, -3071.88, 0.000, 0.000, 0.000, 14:08:01.110
134, -3912.59, -3582.90, -3600.49, -3148.03, 0.000, 0.000, 0.000, 14:08:01.110
135, -3776.16, -3597.92, -3547.23, -3055.11, 0.000, 0.000, 0.000, 14:08:01.125
136, -3565.06, -3569.72, -3463.67, -2961.51, 0.000, 0.000, 0.000, 14:08:01.125
137, -3719.48, -3522.61, -3518.81, -3062.31, 0.000, 0.000, 0.000, 14:08:01.126
138, -3922.51, -3588.50, -3627.88, -3172.73, 0.000, 0.000, 0.000, 14:08:01.126
139, -3781.58, -3613.56, -3575.03, -3082.71, 0.000, 0.000, 0.000, 14:08:01.140
140, -3564.94, -3554.97, -3456.90, -2939.45, 0.000, 0.000, 0.000, 14:08:01.141
141, -3718.82, -3526.36, -3528.25, -3057.56, 0.000, 0.000, 0.000, 14:08:01.155
142, -3907.85, -3595.74, -3619.99, -3128.65, 0.000, 0.000, 0.000, 14:08:01.155
143, -3792.39, -3600.28, -3549.44, -3049.40, 0.000, 0.000, 0.000, 14:08:01.155
144, -3587.81, -3580.41, -3474.16, -2983.71, 0.000, 0.000, 0.000, 14:08:01.155
145, -3705.98, -3524.50, -3523.98, -3073.05, 0.000, 0.000, 0.000, 14:08:01.185
146, -3916.74, -3596.15, -3615.26, -3158.29, 0.000, 0.000, 0.000, 14:08:01.185
147, -3770.82, -3604.10, -3545.83, -3068.22, 0.000, 0.000, 0.000, 14:08:01.201
148, -3564.00, -3564.27, -3464.42, -2991.19, 0.000, 0.000, 0.000, 14:08:01.201
149, -3708.70, -3518.36, -3512.23, -3089.91, 0.000, 0.000, 0.000, 14:08:01.201
150, -3891.69, -3594.28, -3608.35, -3159.30, 0.000, 0.000, 0.000, 14:08:01.201
151, -3803.16, -3615.18, -3576.73, -3070.30, 0.000, 0.000, 0.000, 14:08:01.201
152, -3558.69, -3566.11, -3475.54, -2945.66, 0.000, 0.000, 0.000, 14:08:01.201
153, -3729.20, -3523.21, -3518.41, -3054.61, 0.000, 0.000, 0.000, 14:08:01.208
154, -3898.06, -3588.84, -3602.77, -3111.29, 0.000, 0.000, 0.000, 14:08:01.209
155, -3775.54, -3603.73, -3552.99, -3052.95, 0.000, 0.000, 0.000, 14:08:01.215
156, -3574.35, -3565.75, -3470.81, -3001.92, 0.000, 0.000, 0.000, 14:08:01.215
157, -3727.45, -3530.49, -3525.65, -3059.22, 0.000, 0.000, 0.000, 14:08:01.246
158, -3883.23, -3598.54, -3619.59, -3155.77, 0.000, 0.000, 0.000, 14:08:01.246
159, -3751.33, -3594.52, -3549.18, -3044.42, 0.000, 0.000, 0.000, 14:08:01.246
160, -3578.13, -3575.31, -3478.17, -2973.80, 0.000, 0.000, 0.000, 14:08:01.246
161, -3698.93, -3519.03, -3520.96, -3085.77, 0.000, 0.000, 0.000, 14:08:01.247
162, -3908.73, -3588.00, -3610.19, -3146.92, 0.000, 0.000, 0.000, 14:08:01.247
163, -3767.91, -3617.09, -3564.19, -3069.76, 0.000, 0.000, 0.000, 14:08:01.260
164, -3516.06, -3552.41, -3455.40, -2966.08, 0.000, 0.000, 0.000, 14:08:01.260
165, -3683.86, -3523.25, -3521.56, -3072.02, 0.000, 0.000, 0.000, 14:08:01.275
166, -3933.10, -3598.55, -3623.64, -3132.06, 0.000, 0.000, 0.000, 14:08:01.276
167, -3781.15, -3606.34, -3561.26, -3088.36, 0.000, 0.000, 0.000, 14:08:01.276
168, -3588.42, -3556.31, -3461.44, -2948.43, 0.000, 0.000, 0.000, 14:08:01.276
169, -3725.34, -3514.75, -3511.05, -3065.15, 0.000, 0.000, 0.000, 14:08:01.305
170, -3907.19, -3575.04, -3600.33, -3154.49, 0.000, 0.000, 0.000, 14:08:01.305
171, -3760.22, -3618.71, -3555.72, -3083.47, 0.000, 0.000, 0.000, 14:08:01.305
172, -3575.04, -3580.07, -3477.47, -2981.38, 0.000, 0.000, 0.000, 14:08:01.305
173, -3702.53, -3503.29, -3508.94, -3027.81, 0.000, 0.000, 0.000, 14:08:01.320
174, -3923.61, -3587.99, -3599.56, -3194.70, 0.000, 0.000, 0.000, 14:08:01.320
175, -3778.42, -3599.76, -3535.69, -3102.19, 0.000, 0.000, 0.000, 14:08:01.321
176, -3557.31, -3513.44, -3412.95, -2989.90, 0.000, 0.000, 0.000, 14:08:01.321
177, -3750.76, -3500.65, -3474.93, -3113.48, 0.000, 0.000, 0.000, 14:08:01.351
178, -3914.31, -3562.10, -3555.70, -3239.65, 0.000, 0.000, 0.000, 14:08:01.351
179, -3787.29, -3568.62, -3495.41, -3122.25, 0.000, 0.000, 0.000, 14:08:01.352
180, -3561.41, -3523.36, -3395.54, -3091.54, 0.000, 0.000, 0.000, 14:08:01.352
181, -3727.96, -3491.83, -3465.38, -3144.09, 0.000, 0.000, 0.000, 14:08:01.352
182, -3900.88, -3572.23, -3561.40, -3251.60, 0.000, 0.000, 0.000, 14:08:01.352
183, -3775.04, -3592.46, -3511.58, -3134.36, 0.000, 0.000, 0.000, 14:08:01.352
184, -3577.88, -3540.35, -3416.97, -3031.64, 0.000, 0.000, 0.000, 14:08:01.352
185, -3732.93, -3517.96, -3490.76, -3136.55, 0.000, 0.000, 0.000, 14:08:01.366
186, -3904.02, -3568.52, -3562.09, -3167.90, 0.000, 0.000, 0.000, 14:08:01.366
187, -3767.56, -3587.40, -3515.04, -3098.52, 0.000, 0.000, 0.000, 14:08:01.380
188, -3573.34, -3562.48, -3433.37, -3012.46, 0.000, 0.000, 0.000, 14:08:01.381
189, -3733.38, -3514.45, -3498.50, -3098.47, 0.000, 0.000, 0.000, 14:08:01.410
190, -3919.90, -3595.98, -3580.94, -3186.96, 0.000, 0.000, 0.000, 14:08:01.410
191, -3774.94, -3605.67, -3538.28, -3110.44, 0.000, 0.000, 0.000, 14:08:01.411
192, -3565.94, -3549.25, -3441.22, -3009.43, 0.000, 0.000, 0.000, 14:08:01.411
193, -3721.01, -3519.37, -3512.15, -3089.31, 0.000, 0.000, 0.000, 14:08:01.411
194, -3903.69, -3591.92, -3593.80, -3171.33, 0.000, 0.000, 0.000, 14:08:01.411
195, -3782.15, -3602.18, -3537.96, -3092.33, 0.000, 0.000, 0.000, 14:08:01.425
196, -3569.79, -3563.23, -3443.03, -2989.04, 0.000, 0.000, 0.000, 14:08:01.425
197, -3725.68, -3516.91, -3514.60, -3091.19, 0.000, 0.000, 0.000, 14:08:01.426
198, -3936.50, -3597.28, -3609.81, -3174.21, 0.000, 0.000, 0.000, 14:08:01.426
199, -3771.87, -3605.33, -3559.06, -3086.47, 0.000, 0.000, 0.000, 14:08:01.440
200, -3570.65, -3547.22, -3439.51, -2976.87, 0.000, 0.000, 0.000, 14:08:01.440
0, -3737.17, -3532.62, -3524.86, -3083.31, 0.000, 0.000, 0.000, 14:08:01.441
1, -3901.83, -3598.32, -3606.17, -3161.43, 0.000, 0.000, 0.000, 14:08:01.470
2, -3779.24, -3611.83, -3551.48, -3093.76, 0.000, 0.000, 0.000, 14:08:01.470
3, -3585.10, -3566.84, -3462.14, -2975.53, 0.000, 0.000, 0.000, 14:08:01.471
4, -3716.92, -3518.16, -3510.68, -3067.91, 0.000, 0.000, 0.000, 14:08:01.471
5, -3946.69, -3618.46, -3618.45, -3155.05, 0.000, 0.000, 0.000, 14:08:01.485
6, -3793.43, -3619.89, -3559.60, -3090.06, 0.000, 0.000, 0.000, 14:08:01.485
7, -3576.72, -3576.53, -3470.03, -2970.22, 0.000, 0.000, 0.000, 14:08:01.485
8, -3744.04, -3531.23, -3527.31, -3065.83, 0.000, 0.000, 0.000, 14:08:01.485
9, -3917.88, -3591.66, -3608.28, -3153.10, 0.000, 0.000, 0.000, 14:08:01.501
10, -3779.39, -3604.63, -3568.03, -3061.03, 0.000, 0.000, 0.000, 14:08:01.501
11, -3549.07, -3538.50, -3453.62, -2944.95, 0.000, 0.000, 0.000, 14:08:01.501
12, -3725.89, -3526.16, -3514.59, -3070.29, 0.000, 0.000, 0.000, 14:08:01.501
13, -3926.58, -3594.33, -3611.92, -3166.25, 0.000, 0.000, 0.000, 14:08:01.515
14, -3763.80, -3607.24, -3556.59, -3062.53, 0.000, 0.000, 0.000, 14:08:01.515
15, -3572.40, -3569.20, -3472.47, -2959.86, 0.000, 0.000, 0.000, 14:08:01.531
16, -3738.43, -3524.20, -3522.32, -3070.14, 0.000, 0.000, 0.000, 14:08:01.531
17, -3885.11, -3587.98, -3599.94, -3140.95, 0.000, 0.000, 0.000, 14:08:01.532
18, -3736.67, -3597.69, -3548.61, -3071.53, 0.000, 0.000, 0.000, 14:08:01.532
19, -3594.55, -3572.14, -3485.14, -2966.73, 0.000, 0.000, 0.000, 14:08:01.546
20, -3693.81, -3535.51, -3533.14, -3076.91, 0.000, 0.000, 0.000, 14:08:01.546
21, -3810.56, -3592.74, -3609.42, -3104.01, 0.000, 0.000, 0.000, 14:08:01.560
22, -3765.91, -3602.27, -3552.81, -3126.73, 0.000, 0.000, 0.000, 14:08:01.560
23, -3565.76, -3561.69, -3469.88, -2966.89, 0.000, 0.000, 0.000, 14:08:01.560
24, -3734.19, -3534.02, -3526.74, -3081.59, 0.000, 0.000, 0.000, 14:08:01.560
25, -3886.08, -3590.72, -3593.58, -3109.55, 0.000, 0.000, 0.000, 14:08:01.575
26, -3799.15, -3615.33, -3565.78, -3053.74, 0.000, 0.000, 0.000, 14:08:01.575
27, -3592.42, -3568.50, -3471.26, -2983.30, 0.000, 0.000, 0.000, 14:08:01.590
28, -3752.89, -3527.28, -3521.01, -3063.17, 0.000, 0.000, 0.000, 14:08:01.590
29, -3912.74, -3596.93, -3608.86, -3159.13, 0.000, 0.000, 0.000, 14:08:01.590
30, -3766.70, -3613.21, -3570.39, -3083.12, 0.000, 0.000, 0.000, 14:08:01.590
31, -3578.30, -3566.19, -3470.91, -2964.61, 0.000, 0.000, 0.000, 14:08:01.605
32, -3733.94, -3534.69, -3524.35, -3090.05, 0.000, 0.000, 0.000, 14:08:01.605
33, -3922.20, -3587.49, -3602.49, -3146.74, 0.000, 0.000, 0.000, 14:08:01.635
34, -3770.38, -3625.17, -3564.28, -3100.50, 0.000, 0.000, 0.000, 14:08:01.635
35, -3561.83, -3563.73, -3456.68, -2969.10, 0.000, 0.000, 0.000, 14:08:01.636
36, -3737.63, -3523.03, -3522.83, -3069.09, 0.000, 0.000, 0.000, 14:08:01.636
37, -3914.51, -3606.85, -3610.79, -3166.10, 0.000, 0.000, 0.000, 14:08:01.636
38, -3781.09, -3616.67, -3561.59, -3077.72, 0.000, 0.000, 0.000, 14:08:01.636
39, -3566.56, -3554.73, -3465.64, -2957.68, 0.000, 0.000, 0.000, 14:08:01.637
40, -3747.54, -3524.70, -3528.99, -3062.55, 0.000, 0.000, 0.000, 14:08:01.637
41, -3925.54, -3595.35, -3610.40, -3160.78, 0.000, 0.000, 0.000, 14:08:01.650
42, -3774.48, -3613.41, -3549.82, -3069.39, 0.000, 0.000, 0.000, 14:08:01.650
43, -3549.54, -3565.05, -3456.93, -2964.33, 0.000, 0.000, 0.000, 14:08:01.666
44, -3738.31, -3521.35, -3529.95, -3085.80, 0.000, 0.000, 0.000, 14:08:01.666
45, -3904.94, -3593.05, -3613.14, -3151.25, 0.000, 0.000, 0.000, 14:08:01.695
46, -3772.91, -3590.61, -3541.18, -3044.80, 0.000, 0.000, 0.000, 14:08:01.696
47, -3553.17, -3558.86, -3459.15, -2965.36, 0.000, 0.000, 0.000, 14:08:01.696
48, -3743.46, -3536.16, -3528.55, -3083.68, 0.000, 0.000, 0.000, 14:08:01.696
49, -3921.16, -3607.96, -3623.01, -3166.55, 0.000, 0.000, 0.000, 14:08:01.697
50, -3770.39, -3593.17, -3554.26, -3075.80, 0.000, 0.000, 0.000, 14:08:01.697
51, -3550.14, -3557.57, -3460.27, -2970.62, 0.000, 0.000, 0.000, 14:08:01.697
52, -3720.47, -3514.22, -3513.62, -3065.94, 0.000, 0.000, 0.000, 14:08:01.697
53, -3947.21, -3612.05, -3616.20, -3132.26, 0.000, 0.000, 0.000, 14:08:01.710
54, -3852.97, -3634.88, -3565.61, -3074.55, 0.000, 0.000, 0.000, 14:08:01.710
55, -3531.07, -3533.00, -3434.61, -2971.23, 0.000, 0.000, 0.000, 14:08:01.755
56, -3729.91, -3531.25, -3517.15, -3066.75, 0.000, 0.000, 0.000, 14:08:01.755
57, -3910.45, -3601.92, -3619.74, -3154.03, 0.000, 0.000, 0.000, 14:08:01.756
58, -3793.93, -3606.97, -3558.56, -3079.45, 0.000, 0.000, 0.000, 14:08:01.756
59, -3557.12, -3556.17, -3460.88, -2955.44, 0.000, 0.000, 0.000, 14:08:01.756
60, -3724.95, -3510.86, -3522.28, -3064.16, 0.000, 0.000, 0.000, 14:08:01.756
61, -3911.78, -3585.86, -3604.74, -3147.22, 0.000, 0.000, 0.000, 14:08:01.757
62, -3754.14, -3606.04, -3560.15, -3084.53, 0.000, 0.000, 0.000, 14:08:01.757
63, -3573.64, -3561.22, -3453.41, -2970.43, 0.000, 0.000, 0.000, 14:08:01.758
64, -3706.41, -3520.99, -3518.23, -3072.44, 0.000, 0.000, 0.000, 14:08:01.758
65, -3908.50, -3598.21, -3617.71, -3163.40, 0.000, 0.000, 0.000, 14:08:01.770
66, -3773.16, -3615.69, -3554.02, -3062.26, 0.000, 0.000, 0.000, 14:08:01.770
67, -3562.38, -3566.19, -3450.98, -2959.35, 0.000, 0.000, 0.000, 14:08:01.801
68, -3740.36, -3539.95, -3530.18, -3092.93, 0.000, 0.000, 0.000, 14:08:01.801
69, -3911.70, -3613.82, -3613.53, -3149.60, 0.000, 0.000, 0.000, 14:08:01.801
70, -3778.59, -3615.84, -3555.44, -3075.46, 0.000, 0.000, 0.000, 14:08:01.801
71, -3547.53, -3550.66, -3462.47, -2965.70, 0.000, 0.000, 0.000, 14:08:01.801
72, -3702.32, -3524.22, -3514.25, -3073.44, 0.000, 0.000, 0.000, 14:08:01.801
73, -3925.57, -3612.07, -3620.62, -3160.91, 0.000, 0.000, 0.000, 14:08:01.815
74, -3803.78, -3610.94, -3562.20, -3070.44, 0.000, 0.000, 0.000, 14:08:01.815
75, -3537.12, -3557.08, -3451.94, -2953.70, 0.000, 0.000, 0.000, 14:08:01.831
76, -3742.63, -3534.42, -3529.78, -3105.23, 0.000, 0.000, 0.000, 14:08:01.831
77, -3942.23, -3608.05, -3621.12, -3168.75, 0.000, 0.000, 0.000, 14:08:01.832
78, -3734.98, -3605.98, -3561.24, -3084.30, 0.000, 0.000, 0.000, 14:08:01.832
79, -3565.26, -3544.78, -3448.88, -2953.56, 0.000, 0.000, 0.000, 14:08:01.860
80, -3744.67, -3532.97, -3530.03, -3091.08, 0.000, 0.000, 0.000, 14:08:01.860
81, -3883.54, -3610.70, -3623.31, -3166.11, 0.000, 0.000, 0.000, 14:08:01.860
82, -3750.27, -3610.68, -3566.56, -3076.90, 0.000, 0.000, 0.000, 14:08:01.860
83, -3579.08, -3560.12, -3459.79, -2956.12, 0.000, 0.000, 0.000, 14:08:01.861
84, -3741.08, -3532.31, -3514.12, -3079.58, 0.000, 0.000, 0.000, 14:08:01.861
85, -3915.77, -3608.59, -3616.08, -3155.77, 0.000, 0.000, 0.000, 14:08:01.875
86, -3778.45, -3603.15, -3561.71, -3073.39, 0.000, 0.000, 0.000, 14:08:01.875
87, -3573.42, -3556.97, -3462.47, -2967.14, 0.000, 0.000, 0.000, 14:08:01.905
88, -3722.77, -3523.69, -3520.30, -3077.69, 0.000, 0.000, 0.000, 14:08:01.906
89, -3912.30, -3599.50, -3608.43, -3147.81, 0.000, 0.000, 0.000, 14:08:01.906
90, -3797.11, -3610.54, -3555.93, -3053.44, 0.000, 0.000, 0.000, 14:08:01.906
91, -3572.63, -3551.43, -3462.06, -2977.13, 0.000, 0.000, 0.000, 14:08:01.907
92, -3774.36, -3529.70, -3539.85, -3095.93, 0.000, 0.000, 0.000, 14:08:01.907
93, -3918.22, -3600.34, -3614.10, -3137.87, 0.000, 0.000, 0.000, 14:08:01.907
94, -3764.85, -3600.71, -3553.07, -3046.94, 0.000, 0.000, 0.000, 14:08:01.907
95, -3548.39, -3547.11, -3455.93, -2950.60, 0.000, 0.000, 0.000, 14:08:01.920
96, -3731.05, -3530.55, -3529.31, -3088.50, 0.000, 0.000, 0.000, 14:08:01.920
97, -3901.14, -3600.80, -3614.53, -3160.42, 0.000, 0.000, 0.000, 14:08:01.935
98, -3731.29, -3602.92, -3552.85, -3065.69, 0.000, 0.000, 0.000, 14:08:01.935
99, -3563.97, -3562.16, -3457.91, -2971.41, 0.000, 0.000, 0.000, 14:08:01.951
100, -3691.63, -3524.56, -3529.71, -3089.41, 0.000, 0.000, 0.000, 14:08:01.951
