%OpenBCI Raw EEG Data
%
%Sample Rate = 200.0 Hz
%First Column = SampleIndex
%Last Column = Timestamp 
%Other Columns = EEG data in microvolts followed by Accel Data (in G) interleaved with Aux Data
0, -3409.40, -3351.32, -3164.66, -2647.09, 0.000, 0.000, 0.000, 14:01:40.020
1, -3431.81, -3327.81, -3164.30, -2661.27, 0.000, 0.000, 0.000, 14:01:40.034
2, -3799.92, -3477.20, -3418.23, -2876.85, 0.000, 0.000, 0.000, 14:01:40.034
3, -3716.06, -3460.16, -3343.92, -2815.05, 0.000, 0.000, 0.000, 14:01:40.050
4, -3350.97, -3326.65, -3133.44, -2639.47, 0.000, 0.000, 0.000, 14:01:40.050
5, -3386.66, -3317.17, -3158.84, -2662.29, 0.000, 0.000, 0.000, 14:01:40.064
6, -3800.39, -3462.28, -3404.81, -2859.08, 0.000, 0.000, 0.000, 14:01:40.064
7, -3660.35, -3428.44, -3311.83, -2792.04, 0.000, 0.000, 0.000, 14:01:40.064
8, -3362.71, -3318.62, -3122.06, -2601.91, 0.000, 0.000, 0.000, 14:01:40.064
9, -3368.24, -3303.35, -3157.62, -2647.25, 0.000, 0.000, 0.000, 14:01:40.080
10, -3789.17, -3447.05, -3401.87, -2859.99, 0.000, 0.000, 0.000, 14:01:40.080
11, -3621.92, -3431.07, -3297.63, -2778.24, 0.000, 0.000, 0.000, 14:01:40.094
12, -3326.27, -3299.18, -3098.92, -2594.00, 0.000, 0.000, 0.000, 14:01:40.094
13, -3391.55, -3300.23, -3142.14, -2645.06, 0.000, 0.000, 0.000, 14:01:40.095
14, -3775.00, -3440.93, -3394.59, -2849.97, 0.000, 0.000, 0.000, 14:01:40.095
15, -3656.39, -3410.01, -3296.20, -2770.44, 0.000, 0.000, 0.000, 14:01:40.139
16, -3348.41, -3294.32, -3104.08, -2598.66, 0.000, 0.000, 0.000, 14:01:40.139
17, -3400.62, -3283.65, -3142.24, -2636.65, 0.000, 0.000, 0.000, 14:01:40.140
18, -3804.23, -3438.50, -3386.86, -2855.54, 0.000, 0.000, 0.000, 14:01:40.140
19, -3647.42, -3390.47, -3290.84, -2766.26, 0.000, 0.000, 0.000, 14:01:40.140
20, -3345.16, -3273.06, -3092.10, -2611.09, 0.000, 0.000, 0.000, 14:01:40.140
21, -3406.91, -3287.81, -3144.69, -2656.25, 0.000, 0.000, 0.000, 14:01:40.141
22, -3786.49, -3431.83, -3380.13, -2847.31, 0.000, 0.000, 0.000, 14:01:40.141
23, -3633.88, -3396.72, -3284.83, -2758.36, 0.000, 0.000, 0.000, 14:01:40.142
24, -3319.26, -3285.64, -3085.45, -2583.63, 0.000, 0.000, 0.000, 14:01:40.142
25, -3417.69, -3304.75, -3151.91, -2653.79, 0.000, 0.000, 0.000, 14:01:40.154
26, -3817.31, -3444.10, -3389.75, -2863.00, 0.000, 0.000, 0.000, 14:01:40.154
27, -3641.05, -3413.19, -3294.81, -2759.22, 0.000, 0.000, 0.000, 14:01:40.184
28, -3344.53, -3293.07, -3094.66, -2597.28, 0.000, 0.000, 0.000, 14:01:40.184
29, -3396.61, -3299.78, -3170.75, -2662.22, 0.000, 0.000, 0.000, 14:01:40.184
30, -3772.63, -3442.81, -3369.79, -2866.22, 0.000, 0.000, 0.000, 14:01:40.185
31, -3639.12, -3394.27, -3273.71, -2747.37, 0.000, 0.000, 0.000, 14:01:40.185
32, -3306.91, -3277.64, -3077.44, -2567.15, 0.000, 0.000, 0.000, 14:01:40.185
33, -3420.43, -3294.74, -3149.55, -2640.29, 0.000, 0.000, 0.000, 14:01:40.186
34, -3771.24, -3433.62, -3374.20, -2838.90, 0.000, 0.000, 0.000, 14:01:40.186
35, -3598.07, -3399.57, -3268.73, -2740.27, 0.000, 0.000, 0.000, 14:01:40.199
36, -3293.33, -3278.22, -3080.36, -2578.50, 0.000, 0.000, 0.000, 14:01:40.199
37, -3408.11, -3296.80, -3151.51, -2670.95, 0.000, 0.000, 0.000, 14:01:40.215
38, -3792.85, -3441.41, -3377.37, -2885.04, 0.000, 0.000, 0.000, 14:01:40.215
39, -3628.37, -3388.86, -3270.07, -2737.42, 0.000, 0.000, 0.000, 14:01:40.244
40, -3302.78, -3279.33, -3084.82, -2568.93, 0.000, 0.000, 0.000, 14:01:40.244
41, -3415.44, -3301.35, -3163.95, -2657.65, 0.000, 0.000, 0.000, 14:01:40.244
42, -3784.38, -3435.23, -3377.17, -2863.07, 0.000, 0.000, 0.000, 14:01:40.245
43, -3611.90, -3396.11, -3270.53, -2738.12, 0.000, 0.000, 0.000, 14:01:40.245
44, -3309.66, -3292.36, -3084.11, -2591.44, 0.000, 0.000, 0.000, 14:01:40.245
45, -3416.40, -3305.80, -3162.68, -2656.38, 0.000, 0.000, 0.000, 14:01:40.253
46, -3777.31, -3446.06, -3388.87, -2836.37, 0.000, 0.000, 0.000, 14:01:40.253
47, -3620.27, -3396.98, -3268.46, -2738.06, 0.000, 0.000, 0.000, 14:01:40.259
48, -3303.79, -3279.10, -3077.30, -2564.32, 0.000, 0.000, 0.000, 14:01:40.259
49, -3428.73, -3297.76, -3159.27, -2658.63, 0.000, 0.000, 0.000, 14:01:40.304
50, -3777.76, -3441.14, -3380.71, -2849.40, 0.000, 0.000, 0.000, 14:01:40.304
51, -3608.92, -3406.81, -3269.62, -2753.91, 0.000, 0.000, 0.000, 14:01:40.305
52, -3262.01, -3274.18, -3064.94, -2553.50, 0.000, 0.000, 0.000, 14:01:40.305
53, -3429.75, -3298.07, -3161.14, -2648.98, 0.000, 0.000, 0.000, 14:01:40.305
54, -3795.65, -3456.66, -3380.34, -2865.13, 0.000, 0.000, 0.000, 14:01:40.305
55, -3593.38, -3397.37, -3252.37, -2736.20, 0.000, 0.000, 0.000, 14:01:40.306
56, -3264.20, -3280.80, -3070.57, -2559.29, 0.000, 0.000, 0.000, 14:01:40.306
57, -3443.47, -3299.74, -3165.21, -2677.43, 0.000, 0.000, 0.000, 14:01:40.307
58, -3795.63, -3439.76, -3384.41, -2838.10, 0.000, 0.000, 0.000, 14:01:40.307
59, -3601.72, -3395.51, -3268.12, -2713.99, 0.000, 0.000, 0.000, 14:01:40.319
60, -3283.77, -3292.82, -3068.38, -2543.67, 0.000, 0.000, 0.000, 14:01:40.319
61, -3429.22, -3301.41, -3174.50, -2675.15, 0.000, 0.000, 0.000, 14:01:40.349
62, -3793.96, -3448.47, -3386.90, -2840.37, 0.000, 0.000, 0.000, 14:01:40.349
63, -3589.01, -3391.02, -3250.25, -2734.23, 0.000, 0.000, 0.000, 14:01:40.349
64, -3281.18, -3268.17, -3055.89, -2567.94, 0.000, 0.000, 0.000, 14:01:40.350
65, -3462.41, -3309.94, -3177.15, -2682.07, 0.000, 0.000, 0.000, 14:01:40.350
66, -3790.35, -3461.78, -3376.18, -2843.76, 0.000, 0.000, 0.000, 14:01:40.350
67, -3569.13, -3391.31, -3256.25, -2734.05, 0.000, 0.000, 0.000, 14:01:40.365
68, -3297.07, -3274.77, -3058.60, -2576.96, 0.000, 0.000, 0.000, 14:01:40.365
69, -3471.83, -3312.68, -3186.25, -2695.98, 0.000, 0.000, 0.000, 14:01:40.380
70, -3786.85, -3453.69, -3378.99, -2861.15, 0.000, 0.000, 0.000, 14:01:40.380
71, -3589.90, -3390.01, -3253.22, -2734.15, 0.000, 0.000, 0.000, 14:01:40.380
72, -3264.70, -3273.72, -3064.34, -2567.61, 0.000, 0.000, 0.000, 14:01:40.380
73, -3455.47, -3319.60, -3196.71, -2687.31, 0.000, 0.000, 0.000, 14:01:40.410
74, -3797.05, -3455.96, -3376.97, -2839.88, 0.000, 0.000, 0.000, 14:01:40.410
75, -3573.89, -3393.30, -3246.36, -2744.71, 0.000, 0.000, 0.000, 14:01:40.411
76, -3260.76, -3268.90, -3059.50, -2550.01, 0.000, 0.000, 0.000, 14:01:40.411
77, -3496.63, -3341.90, -3209.66, -2698.48, 0.000, 0.000, 0.000, 14:01:40.411
78, -3798.21, -3458.59, -3383.03, -2838.21, 0.000, 0.000, 0.000, 14:01:40.411
79, -3551.71, -3387.12, -3239.71, -2720.04, 0.000, 0.000, 0.000, 14:01:40.423
80, -3265.14, -3258.76, -3050.93, -2557.69, 0.000, 0.000, 0.000, 14:01:40.424
81, -3487.53, -3325.73, -3209.00, -2709.25, 0.000, 0.000, 0.000, 14:01:40.468
82, -3783.23, -3441.52, -3369.54, -2845.56, 0.000, 0.000, 0.000, 14:01:40.469
83, -3585.07, -3386.40, -3235.14, -2720.77, 0.000, 0.000, 0.000, 14:01:40.469
84, -3251.40, -3272.70, -3065.92, -2550.06, 0.000, 0.000, 0.000, 14:01:40.469
85, -3490.33, -3319.13, -3205.75, -2682.41, 0.000, 0.000, 0.000, 14:01:40.470
86, -3782.93, -3433.10, -3367.90, -2853.75, 0.000, 0.000, 0.000, 14:01:40.470
87, -3558.70, -3368.20, -3223.49, -2715.53, 0.000, 0.000, 0.000, 14:01:40.470
88, -3259.48, -3261.44, -3054.37, -2539.11, 0.000, 0.000, 0.000, 14:01:40.470
89, -3497.21, -3328.59, -3209.43, -2722.12, 0.000, 0.000, 0.000, 14:01:40.471
90, -3758.13, -3444.46, -3377.09, -2846.88, 0.000, 0.000, 0.000, 14:01:40.471
91, -3551.87, -3373.29, -3231.77, -2712.53, 0.000, 0.000, 0.000, 14:01:40.484
92, -3261.54, -3251.44, -3040.60, -2548.88, 0.000, 0.000, 0.000, 14:01:40.484
93, -3518.56, -3325.82, -3207.25, -2701.88, 0.000, 0.000, 0.000, 14:01:40.515
94, -3785.93, -3449.07, -3369.20, -2858.84, 0.000, 0.000, 0.000, 14:01:40.515
95, -3560.31, -3393.48, -3248.86, -2715.40, 0.000, 0.000, 0.000, 14:01:40.516
96, -3270.12, -3272.89, -3065.33, -2562.59, 0.000, 0.000, 0.000, 14:01:40.516
97, -3517.68, -3321.71, -3211.41, -2709.87, 0.000, 0.000, 0.000, 14:01:40.516
98, -3750.24, -3434.40, -3366.21, -2842.73, 0.000, 0.000, 0.000, 14:01:40.517
99, -3578.86, -3375.45, -3243.39, -2716.09, 0.000, 0.000, 0.000, 14:01:40.517
100, -3259.03, -3269.44, -3061.77, -2569.50, 0.000, 0.000, 0.000, 14:01:40.517
101, -3505.27, -3324.84, -3221.22, -2700.91, 0.000, 0.000, 0.000, 14:01:40.530
102, -3784.34, -3451.81, -3380.26, -2853.09, 0.000, 0.000, 0.000, 14:01:40.530
103, -3529.44, -3375.58, -3219.51, -2717.68, 0.000, 0.000, 0.000, 14:01:40.545
104, -3257.96, -3268.57, -3052.56, -2560.61, 0.000, 0.000, 0.000, 14:01:40.545
105, -3535.57, -3332.14, -3231.48, -2724.14, 0.000, 0.000, 0.000, 14:01:40.574
106, -3771.56, -3446.81, -3371.20, -2835.99, 0.000, 0.000, 0.000, 14:01:40.574
107, -3549.44, -3372.63, -3232.59, -2707.94, 0.000, 0.000, 0.000, 14:01:40.575
108, -3263.86, -3255.91, -3052.93, -2573.38, 0.000, 0.000, 0.000, 14:01:40.575
109, -3533.43, -3328.24, -3223.25, -2714.26, 0.000, 0.000, 0.000, 14:01:40.575
110, -3783.06, -3443.96, -3367.44, -2821.40, 0.000, 0.000, 0.000, 14:01:40.575
111, -3552.79, -3378.86, -3230.14, -2718.71, 0.000, 0.000, 0.000, 14:01:40.576
112, -3258.93, -3263.66, -3062.70, -2564.30, 0.000, 0.000, 0.000, 14:01:40.576
113, -3548.54, -3341.78, -3240.55, -2723.97, 0.000, 0.000, 0.000, 14:01:40.589
114, -3756.12, -3447.51, -3364.24, -2852.80, 0.000, 0.000, 0.000, 14:01:40.589
115, -3511.98, -3379.28, -3220.50, -2728.29, 0.000, 0.000, 0.000, 14:01:40.619
116, -3249.14, -3243.12, -3037.00, -2539.78, 0.000, 0.000, 0.000, 14:01:40.619
117, -3549.89, -3349.80, -3246.13, -2726.26, 0.000, 0.000, 0.000, 14:01:40.634
118, -3768.87, -3442.89, -3385.68, -2825.90, 0.000, 0.000, 0.000, 14:01:40.634
119, -3529.94, -3372.60, -3221.76, -2685.13, 0.000, 0.000, 0.000, 14:01:40.635
120, -3259.15, -3261.20, -3038.42, -2551.84, 0.000, 0.000, 0.000, 14:01:40.635
121, -3553.72, -3356.70, -3255.06, -2767.47, 0.000, 0.000, 0.000, 14:01:40.636
122, -3753.58, -3447.90, -3373.13, -2833.59, 0.000, 0.000, 0.000, 14:01:40.636
123, -3525.89, -3362.21, -3211.08, -2697.39, 0.000, 0.000, 0.000, 14:01:40.636
124, -3240.41, -3246.25, -3043.02, -2546.94, 0.000, 0.000, 0.000, 14:01:40.636
125, -3557.27, -3349.30, -3248.02, -2746.99, 0.000, 0.000, 0.000, 14:01:40.650
126, -3759.66, -3448.36, -3364.28, -2869.92, 0.000, 0.000, 0.000, 14:01:40.650
127, -3541.35, -3366.68, -3205.45, -2706.20, 0.000, 0.000, 0.000, 14:01:40.679
128, -3278.62, -3260.16, -3045.35, -2562.05, 0.000, 0.000, 0.000, 14:01:40.679
129, -3542.73, -3341.84, -3235.82, -2734.41, 0.000, 0.000, 0.000, 14:01:40.679
130, -3777.73, -3447.71, -3372.15, -2833.46, 0.000, 0.000, 0.000, 14:01:40.679
131, -3515.01, -3364.41, -3213.39, -2699.82, 0.000, 0.000, 0.000, 14:01:40.681
132, -3252.41, -3264.77, -3047.61, -2552.41, 0.000, 0.000, 0.000, 14:01:40.681
133, -3536.41, -3339.90, -3247.71, -2733.55, 0.000, 0.000, 0.000, 14:01:40.694
134, -3753.75, -3447.30, -3365.67, -2840.07, 0.000, 0.000, 0.000, 14:01:40.694
135, -3511.81, -3369.80, -3208.70, -2677.81, 0.000, 0.000, 0.000, 14:01:40.709
136, -3253.88, -3260.57, -3048.98, -2546.30, 0.000, 0.000, 0.000, 14:01:40.709
137, -3556.67, -3350.25, -3255.96, -2738.94, 0.000, 0.000, 0.000, 14:01:40.710
138, -3753.84, -3434.88, -3354.87, -2819.64, 0.000, 0.000, 0.000, 14:01:40.710
139, -3516.98, -3381.29, -3209.83, -2694.74, 0.000, 0.000, 0.000, 14:01:40.739
140, -3265.26, -3269.46, -3058.49, -2554.86, 0.000, 0.000, 0.000, 14:01:40.739
141, -3631.43, -3365.01, -3271.10, -2753.87, 0.000, 0.000, 0.000, 14:01:40.739
142, -3753.85, -3442.05, -3360.27, -2852.36, 0.000, 0.000, 0.000, 14:01:40.739
143, -3505.40, -3363.38, -3192.92, -2688.40, 0.000, 0.000, 0.000, 14:01:40.740
144, -3250.25, -3259.07, -3055.46, -2574.08, 0.000, 0.000, 0.000, 14:01:40.740
145, -3596.73, -3356.09, -3254.96, -2760.34, 0.000, 0.000, 0.000, 14:01:40.769
146, -3759.70, -3448.35, -3360.23, -2827.73, 0.000, 0.000, 0.000, 14:01:40.769
147, -3498.99, -3363.88, -3200.10, -2692.64, 0.000, 0.000, 0.000, 14:01:40.769
148, -3234.25, -3262.28, -3041.10, -2561.39, 0.000, 0.000, 0.000, 14:01:40.769
149, -3594.65, -3360.55, -3236.03, -2743.27, 0.000, 0.000, 0.000, 14:01:40.771
150, -3743.48, -3449.06, -3359.82, -2804.46, 0.000, 0.000, 0.000, 14:01:40.771
151, -3510.45, -3385.77, -3205.18, -2699.07, 0.000, 0.000, 0.000, 14:01:40.784
152, -3247.50, -3275.44, -3053.50, -2565.15, 0.000, 0.000, 0.000, 14:01:40.784
153, -3601.12, -3417.01, -3269.62, -2789.80, 0.000, 0.000, 0.000, 14:01:40.800
154, -3708.10, -3429.55, -3355.56, -2831.54, 0.000, 0.000, 0.000, 14:01:40.800
155, -3444.70, -3370.93, -3192.58, -2663.74, 0.000, 0.000, 0.000, 14:01:40.800
156, -3232.88, -3294.94, -3027.41, -2537.70, 0.000, 0.000, 0.000, 14:01:40.800
157, -3540.19, -3402.64, -3257.65, -2756.47, 0.000, 0.000, 0.000, 14:01:40.814
158, -3679.48, -3460.83, -3348.83, -2817.32, 0.000, 0.000, 0.000, 14:01:40.814
159, -3393.70, -3387.24, -3177.39, -2683.45, 0.000, 0.000, 0.000, 14:01:40.859
160, -3099.59, -3319.01, -3038.87, -2544.94, 0.000, 0.000, 0.000, 14:01:40.859
161, -3487.12, -3458.59, -3286.63, -2742.70, 0.000, 0.000, 0.000, 14:01:40.859
162, -3611.11, -3529.66, -3334.98, -2792.41, 0.000, 0.000, 0.000, 14:01:40.859
163, -3334.65, -3438.56, -3169.05, -2671.80, 0.000, 0.000, 0.000, 14:01:40.861
164, -3104.32, -3330.32, -3040.94, -2536.82, 0.000, 0.000, 0.000, 14:01:40.861
165, -3469.17, -3430.28, -3278.04, -2743.05, 0.000, 0.000, 0.000, 14:01:40.874
166, -3645.75, -3490.21, -3342.18, -2814.77, 0.000, 0.000, 0.000, 14:01:40.874
167, -3420.66, -3403.24, -3187.87, -2667.63, 0.000, 0.000, 0.000, 14:01:40.904
168, -3191.11, -3294.08, -3057.47, -2568.07, 0.000, 0.000, 0.000, 14:01:40.904
169, -3617.68, -3397.16, -3294.38, -2782.16, 0.000, 0.000, 0.000, 14:01:40.904
170, -3753.02, -3451.63, -3357.52, -2822.49, 0.000, 0.000, 0.000, 14:01:40.904
171, -3476.39, -3358.04, -3191.21, -2681.59, 0.000, 0.000, 0.000, 14:01:40.905
172, -3286.25, -3253.97, -3056.08, -2575.87, 0.000, 0.000, 0.000, 14:01:40.905
173, -3684.85, -3369.87, -3307.70, -2789.32, 0.000, 0.000, 0.000, 14:01:40.905
174, -3770.90, -3428.60, -3367.21, -2812.62, 0.000, 0.000, 0.000, 14:01:40.905
175, -3505.40, -3326.99, -3190.91, -2695.11, 0.000, 0.000, 0.000, 14:01:40.906
176, -3299.00, -3234.96, -3057.16, -2574.59, 0.000, 0.000, 0.000, 14:01:40.906
177, -3703.54, -3357.03, -3308.38, -2801.76, 0.000, 0.000, 0.000, 14:01:40.907
178, -3816.70, -3408.30, -3363.23, -2841.20, 0.000, 0.000, 0.000, 14:01:40.907
179, -3533.59, -3319.37, -3199.70, -2677.54, 0.000, 0.000, 0.000, 14:01:40.919
180, -3313.38, -3234.19, -3065.60, -2558.19, 0.000, 0.000, 0.000, 14:01:40.919
181, -3710.96, -3355.35, -3307.94, -2783.01, 0.000, 0.000, 0.000, 14:01:40.934
182, -3792.46, -3415.20, -3355.01, -2822.07, 0.000, 0.000, 0.000, 14:01:40.934
183, -3493.28, -3318.30, -3180.28, -2665.59, 0.000, 0.000, 0.000, 14:01:40.964
184, -3291.59, -3227.37, -3060.15, -2576.88, 0.000, 0.000, 0.000, 14:01:40.964
185, -3719.30, -3361.01, -3310.05, -2801.69, 0.000, 0.000, 0.000, 14:01:40.965
186, -3795.95, -3413.54, -3339.21, -2812.48, 0.000, 0.000, 0.000, 14:01:40.965
187, -3483.95, -3309.64, -3168.80, -2633.02, 0.000, 0.000, 0.000, 14:01:40.966
188, -3294.88, -3225.47, -3048.85, -2552.08, 0.000, 0.000, 0.000, 14:01:40.966
189, -3724.69, -3375.58, -3329.66, -2814.80, 0.000, 0.000, 0.000, 14:01:40.966
190, -3764.15, -3423.42, -3345.12, -2825.72, 0.000, 0.000, 0.000, 14:01:40.966
191, -3481.76, -3334.17, -3169.12, -2656.45, 0.000, 0.000, 0.000, 14:01:40.979
192, -3308.93, -3245.12, -3061.81, -2577.31, 0.000, 0.000, 0.000, 14:01:40.980
193, -3709.97, -3376.65, -3326.62, -2792.95, 0.000, 0.000, 0.000, 14:01:41.033
194, -3762.16, -3415.29, -3346.15, -2824.63, 0.000, 0.000, 0.000, 14:01:41.033
195, -3454.12, -3313.30, -3154.18, -2653.92, 0.000, 0.000, 0.000, 14:01:41.033
196, -3286.64, -3245.95, -3063.25, -2580.68, 0.000, 0.000, 0.000, 14:01:41.033
197, -3697.67, -3377.96, -3315.78, -2804.49, 0.000, 0.000, 0.000, 14:01:41.034
198, -3725.98, -3417.87, -3330.11, -2806.45, 0.000, 0.000, 0.000, 14:01:41.034
199, -3441.97, -3322.58, -3159.05, -2658.45, 0.000, 0.000, 0.000, 14:01:41.034
200, -3274.11, -3241.05, -3059.44, -2552.54, 0.000, 0.000, 0.000, 14:01:41.034
0, -3694.42, -3380.43, -3327.17, -2802.74, 0.000, 0.000, 0.000, 14:01:41.034
1, -3751.47, -3420.97, -3334.40, -2807.05, 0.000, 0.000, 0.000, 14:01:41.056
2, -3441.05, -3324.72, -3160.32, -2652.39, 0.000, 0.000, 0.000, 14:01:41.057
3, -3284.05, -3236.59, -3049.98, -2564.85, 0.000, 0.000, 0.000, 14:01:41.089
4, -3712.04, -3391.49, -3326.72, -2800.74, 0.000, 0.000, 0.000, 14:01:41.089
5, -3738.89, -3434.69, -3337.05, -2807.40, 0.000, 0.000, 0.000, 14:01:41.089
6, -3432.05, -3319.94, -3146.66, -2649.52, 0.000, 0.000, 0.000, 14:01:41.089
7, -3285.22, -3244.34, -3069.02, -2574.14, 0.000, 0.000, 0.000, 14:01:41.089
8, -3706.64, -3396.07, -3342.58, -2811.92, 0.000, 0.000, 0.000, 14:01:41.089
9, -3730.46, -3423.02, -3333.85, -2803.47, 0.000, 0.000, 0.000, 14:01:41.090
10, -3433.91, -3313.08, -3143.91, -2627.01, 0.000, 0.000, 0.000, 14:01:41.090
11, -3264.55, -3245.82, -3059.83, -2560.83, 0.000, 0.000, 0.000, 14:01:41.093
12, -3744.85, -3405.51, -3337.98, -2813.27, 0.000, 0.000, 0.000, 14:01:41.093
13, -3700.78, -3432.76, -3337.14, -2806.99, 0.000, 0.000, 0.000, 14:01:41.100
14, -3403.81, -3330.69, -3161.90, -2619.54, 0.000, 0.000, 0.000, 14:01:41.100
15, -3268.66, -3250.66, -3072.11, -2573.74, 0.000, 0.000, 0.000, 14:01:41.130
16, -3756.21, -3399.86, -3339.49, -2807.48, 0.000, 0.000, 0.000, 14:01:41.130
17, -3664.82, -3424.55, -3340.25, -2808.03, 0.000, 0.000, 0.000, 14:01:41.131
18, -3405.03, -3317.92, -3146.79, -2632.38, 0.000, 0.000, 0.000, 14:01:41.131
19, -3283.87, -3249.88, -3071.02, -2565.39, 0.000, 0.000, 0.000, 14:01:41.132
20, -3694.64, -3400.30, -3335.42, -2809.84, 0.000, 0.000, 0.000, 14:01:41.132
21, -3705.61, -3425.19, -3332.75, -2789.97, 0.000, 0.000, 0.000, 14:01:41.132
22, -3362.90, -3332.41, -3138.92, -2645.80, 0.000, 0.000, 0.000, 14:01:41.132
23, -3284.25, -3266.64, -3083.30, -2585.10, 0.000, 0.000, 0.000, 14:01:41.144
24, -3715.32, -3408.51, -3349.65, -2830.18, 0.000, 0.000, 0.000, 14:01:41.144
25, -3706.92, -3424.01, -3331.42, -2811.70, 0.000, 0.000, 0.000, 14:01:41.173
26, -3379.28, -3314.94, -3127.50, -2628.96, 0.000, 0.000, 0.000, 14:01:41.174
27, -3253.46, -3245.73, -3049.61, -2566.17, 0.000, 0.000, 0.000, 14:01:41.174
28, -3775.60, -3423.62, -3368.32, -2837.48, 0.000, 0.000, 0.000, 14:01:41.174
29, -3679.45, -3436.45, -3340.77, -2787.14, 0.000, 0.000, 0.000, 14:01:41.175
30, -3387.46, -3317.00, -3143.23, -2627.89, 0.000, 0.000, 0.000, 14:01:41.175
31, -3283.03, -3260.55, -3070.81, -2590.22, 0.000, 0.000, 0.000, 14:01:41.204
32, -3763.81, -3418.44, -3354.45, -2821.69, 0.000, 0.000, 0.000, 14:01:41.204
33, -3712.18, -3422.04, -3324.42, -2768.79, 0.000, 0.000, 0.000, 14:01:41.205
34, -3374.74, -3312.64, -3128.99, -2648.80, 0.000, 0.000, 0.000, 14:01:41.205
35, -3307.06, -3268.35, -3081.21, -2579.97, 0.000, 0.000, 0.000, 14:01:41.205
36, -3718.86, -3410.45, -3344.77, -2816.13, 0.000, 0.000, 0.000, 14:01:41.206
37, -3719.59, -3419.36, -3323.88, -2790.72, 0.000, 0.000, 0.000, 14:01:41.219
38, -3382.21, -3320.72, -3125.64, -2618.18, 0.000, 0.000, 0.000, 14:01:41.219
39, -3280.28, -3254.25, -3074.44, -2563.04, 0.000, 0.000, 0.000, 14:01:41.235
40, -3779.67, -3415.38, -3355.64, -2845.53, 0.000, 0.000, 0.000, 14:01:41.238
41, -3690.19, -3424.88, -3321.89, -2788.06, 0.000, 0.000, 0.000, 14:01:41.238
42, -3337.02, -3313.80, -3122.12, -2603.97, 0.000, 0.000, 0.000, 14:01:41.238
43, -3308.44, -3276.63, -3108.60, -2638.40, 0.000, 0.000, 0.000, 14:01:41.250
44, -3770.96, -3441.87, -3368.41, -2849.61, 0.000, 0.000, 0.000, 14:01:41.250
45, -3699.81, -3434.60, -3315.15, -2800.15, 0.000, 0.000, 0.000, 14:01:41.264
46, -3406.93, -3311.52, -3125.22, -2625.42, 0.000, 0.000, 0.000, 14:01:41.264
47, -3311.61, -3267.85, -3089.76, -2585.97, 0.000, 0.000, 0.000, 14:01:41.265
48, -3735.54, -3410.02, -3355.91, -2830.86, 0.000, 0.000, 0.000, 14:01:41.265
49, -3687.44, -3427.36, -3321.67, -2782.17, 0.000, 0.000, 0.000, 14:01:41.294
50, -3360.70, -3321.15, -3122.49, -2612.14, 0.000, 0.000, 0.000, 14:01:41.294
51, -3322.47, -3277.06, -3091.62, -2593.44, 0.000, 0.000, 0.000, 14:01:41.295
52, -3760.28, -3426.45, -3354.12, -2825.94, 0.000, 0.000, 0.000, 14:01:41.295
53, -3685.73, -3431.20, -3329.21, -2799.89, 0.000, 0.000, 0.000, 14:01:41.295
54, -3372.71, -3316.22, -3132.53, -2617.15, 0.000, 0.000, 0.000, 14:01:41.296
55, -3303.20, -3272.29, -3086.46, -2601.64, 0.000, 0.000, 0.000, 14:01:41.309
56, -3749.26, -3433.27, -3361.19, -2845.57, 0.000, 0.000, 0.000, 14:01:41.309
57, -3696.45, -3429.10, -3312.55, -2774.12, 0.000, 0.000, 0.000, 14:01:41.325
58, -3352.22, -3302.69, -3110.65, -2605.18, 0.000, 0.000, 0.000, 14:01:41.325
59, -3323.62, -3280.43, -3114.02, -2621.47, 0.000, 0.000, 0.000, 14:01:41.339
60, -3768.71, -3440.30, -3375.97, -2848.52, 0.000, 0.000, 0.000, 14:01:41.340
61, -3667.97, -3420.15, -3299.69, -2749.25, 0.000, 0.000, 0.000, 14:01:41.340
62, -3345.09, -3297.54, -3108.25, -2564.66, 0.000, 0.000, 0.000, 14:01:41.340
63, -3332.73, -3286.11, -3097.57, -2616.74, 0.000, 0.000, 0.000, 14:01:41.369
64, -3754.60, -3436.03, -3365.25, -2853.27, 0.000, 0.000, 0.000, 14:01:41.369
65, -3670.87, -3417.98, -3302.51, -2767.13, 0.000, 0.000, 0.000, 14:01:41.369
66, -3338.15, -3305.39, -3116.77, -2608.49, 0.000, 0.000, 0.000, 14:01:41.369
67, -3312.21, -3272.52, -3096.58, -2614.40, 0.000, 0.000, 0.000, 14:01:41.370
68, -3786.71, -3430.68, -3364.22, -2849.59, 0.000, 0.000, 0.000, 14:01:41.370
69, -3653.90, -3418.29, -3300.28, -2783.71, 0.000, 0.000, 0.000, 14:01:41.371
70, -3338.46, -3296.15, -3104.08, -2595.30, 0.000, 0.000, 0.000, 14:01:41.371
71, -3315.68, -3272.63, -3102.11, -2607.93, 0.000, 0.000, 0.000, 14:01:41.385
72, -3766.69, -3435.71, -3372.29, -2852.96, 0.000, 0.000, 0.000, 14:01:41.385
73, -3665.62, -3419.01, -3310.63, -2765.37, 0.000, 0.000, 0.000, 14:01:41.414
74, -3323.22, -3293.43, -3098.36, -2579.09, 0.000, 0.000, 0.000, 14:01:41.414
75, -3343.86, -3275.15, -3104.58, -2614.81, 0.000, 0.000, 0.000, 14:01:41.415
76, -3782.26, -3442.12, -3382.04, -2846.27, 0.000, 0.000, 0.000, 14:01:41.415
77, -3660.95, -3416.27, -3295.44, -2784.89, 0.000, 0.000, 0.000, 14:01:41.415
78, -3336.28, -3303.86, -3109.29, -2595.87, 0.000, 0.000, 0.000, 14:01:41.415
79, -3336.78, -3275.09, -3098.82, -2614.72, 0.000, 0.000, 0.000, 14:01:41.429
80, -3768.56, -3427.74, -3364.51, -2828.10, 0.000, 0.000, 0.000, 14:01:41.429
81, -3629.64, -3418.24, -3303.48, -2766.09, 0.000, 0.000, 0.000, 14:01:41.444
82, -3292.54, -3290.48, -3109.27, -2588.25, 0.000, 0.000, 0.000, 14:01:41.444
83, -3364.66, -3279.73, -3105.50, -2607.12, 0.000, 0.000, 0.000, 14:01:41.444
84, -3749.68, -3444.38, -3357.85, -2845.69, 0.000, 0.000, 0.000, 14:01:41.444
85, -3664.85, -3423.90, -3297.45, -2762.76, 0.000, 0.000, 0.000, 14:01:41.459
86, -3318.01, -3304.84, -3095.78, -2596.19, 0.000, 0.000, 0.000, 14:01:41.459
87, -3331.88, -3307.41, -3101.36, -2601.66, 0.000, 0.000, 0.000, 14:01:41.474
88, -3790.21, -3456.13, -3386.40, -2851.51, 0.000, 0.000, 0.000, 14:01:41.474
89, -3621.74, -3434.23, -3282.52, -2776.87, 0.000, 0.000, 0.000, 14:01:41.475
90, -3320.16, -3307.52, -3082.64, -2595.88, 0.000, 0.000, 0.000, 14:01:41.475
91, -3354.44, -3300.07, -3103.99, -2602.85, 0.000, 0.000, 0.000, 14:01:41.489
92, -3726.60, -3485.52, -3355.87, -2808.06, 0.000, 0.000, 0.000, 14:01:41.489
93, -3569.70, -3425.62, -3291.04, -2776.95, 0.000, 0.000, 0.000, 14:01:41.519
94, -3263.05, -3315.36, -3102.17, -2600.20, 0.000, 0.000, 0.000, 14:01:41.519
95, -3233.35, -3328.93, -3106.37, -2596.08, 0.000, 0.000, 0.000, 14:01:41.519
96, -3677.87, -3538.08, -3358.90, -2837.55, 0.000, 0.000, 0.000, 14:01:41.519
97, -3487.51, -3473.82, -3277.27, -2760.16, 0.000, 0.000, 0.000, 14:01:41.520
98, -3106.18, -3368.51, -3076.81, -2556.88, 0.000, 0.000, 0.000, 14:01:41.520
99, -3139.88, -3379.89, -3105.97, -2599.87, 0.000, 0.000, 0.000, 14:01:41.521
100, -3597.76, -3553.99, -3374.87, -2835.32, 0.000, 0.000, 0.000, 14:01:41.521
101, -3485.06, -3504.60, -3280.82, -2757.20, 0.000, 0.000, 0.000, 14:01:41.535
102, -3170.93, -3367.84, -3069.24, -2557.51, 0.000, 0.000, 0.000, 14:01:41.535
103, -3269.74, -3351.08, -3121.08, -2600.78, 0.000, 0.000, 0.000, 14:01:41.565
104, -3679.56, -3495.29, -3370.85, -2845.91, 0.000, 0.000, 0.000, 14:01:41.565
105, -3577.23, -3459.03, -3294.66, -2757.65, 0.000, 0.000, 0.000, 14:01:41.566
106, -3243.30, -3311.26, -3082.59, -2597.97, 0.000, 0.000, 0.000, 14:01:41.567
107, -3387.69, -3299.96, -3137.04, -2622.09, 0.000, 0.000, 0.000, 14:01:41.572
108, -3767.38, -3443.98, -3398.16, -2858.98, 0.000, 0.000, 0.000, 14:01:41.572
109, -3654.93, -3403.60, -3296.37, -2793.82, 0.000, 0.000, 0.000, 14:01:41.579
110, -3352.70, -3269.39, -3087.71, -2605.12, 0.000, 0.000, 0.000, 14:01:41.579
111, -3428.83, -3251.51, -3127.50, -2625.96, 0.000, 0.000, 0.000, 14:01:41.594
112, -3846.77, -3418.71, -3392.94, -2857.48, 0.000, 0.000, 0.000, 14:01:41.594
113, -3660.94, -3360.85, -3283.64, -2762.30, 0.000, 0.000, 0.000, 14:01:41.595
114, -3386.87, -3254.38, -3103.09, -2592.52, 0.000, 0.000, 0.000, 14:01:41.595
115, -3455.04, -3246.46, -3134.81, -2641.36, 0.000, 0.000, 0.000, 14:01:41.609
116, -3877.45, -3409.85, -3395.48, -2864.08, 0.000, 0.000, 0.000, 14:01:41.609
117, -3735.51, -3366.29, -3298.56, -2776.43, 0.000, 0.000, 0.000, 14:01:41.624
118, -3383.06, -3246.58, -3092.91, -2581.31, 0.000, 0.000, 0.000, 14:01:41.624
119, -3486.18, -3259.01, -3156.40, -2648.29, 0.000, 0.000, 0.000, 14:01:41.639
120, -3872.59, -3392.76, -3370.13, -2849.02, 0.000, 0.000, 0.000, 14:01:41.639
121, -3699.79, -3367.80, -3286.77, -2763.82, 0.000, 0.000, 0.000, 14:01:41.639
122, -3314.54, -3259.37, -3100.31, -2577.09, 0.000, 0.000, 0.000, 14:01:41.639
123, -3471.57, -3269.58, -3147.18, -2672.28, 0.000, 0.000, 0.000, 14:01:41.654
124, -3834.97, -3412.56, -3390.83, -2880.92, 0.000, 0.000, 0.000, 14:01:41.654
125, -3665.28, -3367.88, -3274.74, -2764.18, 0.000, 0.000, 0.000, 14:01:41.655
126, -3355.97, -3238.58, -3071.60, -2592.20, 0.000, 0.000, 0.000, 14:01:41.655
127, -3502.21, -3278.19, -3174.20, -2669.69, 0.000, 0.000, 0.000, 14:01:41.684
128, -3801.03, -3415.05, -3388.91, -2850.04, 0.000, 0.000, 0.000, 14:01:41.684
129, -3680.34, -3379.12, -3273.58, -2744.53, 0.000, 0.000, 0.000, 14:01:41.685
130, -3339.20, -3255.37, -3064.84, -2574.68, 0.000, 0.000, 0.000, 14:01:41.685
131, -3454.42, -3280.84, -3159.95, -2651.12, 0.000, 0.000, 0.000, 14:01:41.685
132, -3832.82, -3432.01, -3384.37, -2850.40, 0.000, 0.000, 0.000, 14:01:41.685
133, -3630.38, -3387.90, -3273.07, -2751.57, 0.000, 0.000, 0.000, 14:01:41.699
134, -3319.83, -3269.72, -3074.42, -2598.74, 0.000, 0.000, 0.000, 14:01:41.699
135, -3461.64, -3289.47, -3167.61, -2667.52, 0.000, 0.000, 0.000, 14:01:41.729
136, -3806.57, -3427.18, -3392.50, -2844.72, 0.000, 0.000, 0.000, 14:01:41.729
137, -3645.98, -3376.68, -3272.17, -2711.01, 0.000, 0.000, 0.000, 14:01:41.730
138, -3332.27, -3269.45, -3079.69, -2569.32, 0.000, 0.000, 0.000, 14:01:41.730
139, -3476.27, -3287.70, -3168.73, -2678.03, 0.000, 0.000, 0.000, 14:01:41.730
140, -3815.17, -3446.19, -3392.33, -2867.32, 0.000, 0.000, 0.000, 14:01:41.730
141, -3636.13, -3393.73, -3273.84, -2740.63, 0.000, 0.000, 0.000, 14:01:41.731
142, -3324.68, -3264.97, -3073.92, -2566.71, 0.000, 0.000, 0.000, 14:01:41.731
143, -3473.19, -3288.30, -3173.88, -2663.75, 0.000, 0.000, 0.000, 14:01:41.760
144, -3785.15, -3436.55, -3384.95, -2844.25, 0.000, 0.000, 0.000, 14:01:41.760
145, -3596.93, -3384.82, -3249.72, -2748.31, 0.000, 0.000, 0.000, 14:01:41.760
146, -3291.02, -3262.13, -3058.85, -2567.09, 0.000, 0.000, 0.000, 14:01:41.760
147, -3465.84, -3304.63, -3181.53, -2684.68, 0.000, 0.000, 0.000, 14:01:41.789
148, -3789.09, -3435.94, -3383.61, -2845.67, 0.000, 0.000, 0.000, 14:01:41.789
149, -3601.10, -3385.83, -3264.73, -2736.58, 0.000, 0.000, 0.000, 14:01:41.790
150, -3287.45, -3266.03, -3068.55, -2558.46, 0.000, 0.000, 0.000, 14:01:41.790
151, -3450.95, -3302.74, -3183.95, -2667.17, 0.000, 0.000, 0.000, 14:01:41.790
152, -3776.99, -3442.63, -3384.73, -2851.55, 0.000, 0.000, 0.000, 14:01:41.790
153, -3554.91, -3376.36, -3247.71, -2743.75, 0.000, 0.000, 0.000, 14:01:41.791
154, -3313.45, -3269.45, -3065.43, -2586.89, 0.000, 0.000, 0.000, 14:01:41.791
155, -3468.92, -3304.29, -3184.37, -2678.34, 0.000, 0.000, 0.000, 14:01:41.804
156, -3830.48, -3444.38, -3388.26, -2866.05, 0.000, 0.000, 0.000, 14:01:41.804
157, -3623.25, -3384.10, -3251.36, -2718.87, 0.000, 0.000, 0.000, 14:01:41.819
158, -3269.39, -3261.30, -3052.66, -2552.49, 0.000, 0.000, 0.000, 14:01:41.819
159, -3441.28, -3316.04, -3185.57, -2697.15, 0.000, 0.000, 0.000, 14:01:41.850
160, -3786.70, -3452.21, -3390.43, -2843.97, 0.000, 0.000, 0.000, 14:01:41.850
161, -3579.85, -3392.95, -3264.89, -2737.32, 0.000, 0.000, 0.000, 14:01:41.850
162, -3254.49, -3264.35, -3056.31, -2569.20, 0.000, 0.000, 0.000, 14:01:41.850
163, -3482.27, -3317.07, -3194.51, -2688.81, 0.000, 0.000, 0.000, 14:01:41.850
164, -3808.25, -3449.87, -3389.33, -2828.24, 0.000, 0.000, 0.000, 14:01:41.850
165, -3584.15, -3388.82, -3247.71, -2726.72, 0.000, 0.000, 0.000, 14:01:41.851
166, -3255.33, -3260.95, -3054.94, -2562.61, 0.000, 0.000, 0.000, 14:01:41.851
167, -3473.76, -3333.29, -3215.78, -2691.97, 0.000, 0.000, 0.000, 14:01:41.864
168, -3789.15, -3454.27, -3390.45, -2859.40, 0.000, 0.000, 0.000, 14:01:41.864
169, -3576.41, -3394.67, -3261.20, -2729.07, 0.000, 0.000, 0.000, 14:01:41.894
170, -3266.69, -3267.89, -3067.32, -2556.06, 0.000, 0.000, 0.000, 14:01:41.894
171, -3467.78, -3311.94, -3197.91, -2686.76, 0.000, 0.000, 0.000, 14:01:41.895
172, -3766.22, -3434.17, -3377.46, -2835.07, 0.000, 0.000, 0.000, 14:01:41.896
173, -3599.71, -3384.55, -3245.02, -2728.61, 0.000, 0.000, 0.000, 14:01:41.896
174, -3248.09, -3276.64, -3061.81, -2584.80, 0.000, 0.000, 0.000, 14:01:41.897
175, -3519.80, -3325.49, -3211.79, -2709.29, 0.000, 0.000, 0.000, 14:01:41.924
176, -3783.98, -3451.17, -3391.13, -2853.63, 0.000, 0.000, 0.000, 14:01:41.924
177, -3559.92, -3386.68, -3248.95, -2727.31, 0.000, 0.000, 0.000, 14:01:41.924
178, -3243.70, -3254.23, -3051.78, -2538.15, 0.000, 0.000, 0.000, 14:01:41.924
179, -3513.44, -3316.03, -3216.15, -2681.54, 0.000, 0.000, 0.000, 14:01:41.925
180, -3807.13, -3451.88, -3378.65, -2836.45, 0.000, 0.000, 0.000, 14:01:41.925
181, -3545.91, -3383.50, -3239.04, -2722.58, 0.000, 0.000, 0.000, 14:01:41.939
182, -3284.34, -3268.85, -3056.05, -2570.45, 0.000, 0.000, 0.000, 14:01:41.939
183, -3545.33, -3337.11, -3213.41, -2711.79, 0.000, 0.000, 0.000, 14:01:41.969
184, -3799.35, -3432.87, -3356.75, -2846.04, 0.000, 0.000, 0.000, 14:01:41.969
185, -3586.07, -3392.29, -3238.12, -2702.01, 0.000, 0.000, 0.000, 14:01:41.970
186, -3264.65, -3264.09, -3051.50, -2542.52, 0.000, 0.000, 0.000, 14:01:41.970
187, -3511.46, -3342.27, -3224.69, -2712.62, 0.000, 0.000, 0.000, 14:01:41.970
188, -3783.23, -3451.56, -3374.44, -2825.87, 0.000, 0.000, 0.000, 14:01:41.970
189, -3510.22, -3360.66, -3215.07, -2691.70, 0.000, 0.000, 0.000, 14:01:41.971
190, -3243.78, -3264.68, -3052.10, -2581.39, 0.000, 0.000, 0.000, 14:01:41.971
191, -3541.05, -3331.98, -3230.76, -2734.17, 0.000, 0.000, 0.000, 14:01:41.984
192, -3765.85, -3449.03, -3379.63, -2845.74, 0.000, 0.000, 0.000, 14:01:41.985
193, -3556.68, -3372.93, -3233.07, -2695.22, 0.000, 0.000, 0.000, 14:01:42.000
194, -3264.74, -3256.51, -3058.63, -2577.79, 0.000, 0.000, 0.000, 14:01:42.000
195, -3542.55, -3348.00, -3227.55, -2730.80, 0.000, 0.000, 0.000, 14:01:42.014
196, -3786.07, -3454.33, -3380.21, -2842.52, 0.000, 0.000, 0.000, 14:01:42.014
197, -3505.00, -3368.72, -3234.13, -2702.89, 0.000, 0.000, 0.000, 14:01:42.016
198, -3306.41, -3257.16, -3060.30, -2557.97, 0.000, 0.000, 0.000, 14:01:42.016
199, -3490.27, -3341.50, -3237.42, -2710.90, 0.000, 0.000, 0.000, 14:01:42.029
200, -3790.04, -3445.32, -3372.40, -2810.55, 0.000, 0.000, 0.000, 14:01:42.029
0, -3550.59, -3356.66, -3206.08, -2672.73, 0.000, 0.000, 0.000, 14:01:42.030
1, -3258.13, -3275.23, -3060.18, -2562.25, 0.000, 0.000, 0.000, 14:01:42.044
2, -3499.31, -3347.36, -3231.45, -2748.25, 0.000, 0.000, 0.000, 14:01:42.045
3, -3775.92, -3448.59, -3374.15, -2889.94, 0.000, 0.000, 0.000, 14:01:42.060
4, -3551.17, -3381.19, -3238.83, -2709.75, 0.000, 0.000, 0.000, 14:01:42.060
5, -3264.51, -3261.01, -3044.97, -2552.52, 0.000, 0.000, 0.000, 14:01:42.060
6, -3539.96, -3349.64, -3254.83, -2770.79, 0.000, 0.000, 0.000, 14:01:42.061
7, -3793.41, -3441.73, -3377.77, -2812.37, 0.000, 0.000, 0.000, 14:01:42.074
8, -3505.69, -3374.85, -3226.30, -2735.17, 0.000, 0.000, 0.000, 14:01:42.074
9, -3225.87, -3261.22, -3046.29, -2542.23, 0.000, 0.000, 0.000, 14:01:42.089
10, -3549.60, -3338.11, -3244.52, -2780.50, 0.000, 0.000, 0.000, 14:01:42.089
11, -3777.30, -3461.16, -3384.61, -2879.51, 0.000, 0.000, 0.000, 14:01:42.090
12, -3543.74, -3369.02, -3214.11, -2672.07, 0.000, 0.000, 0.000, 14:01:42.090
13, -3247.66, -3256.46, -3049.56, -2556.52, 0.000, 0.000, 0.000, 14:01:42.104
14, -3580.26, -3342.08, -3250.90, -2682.56, 0.000, 0.000, 0.000, 14:01:42.104
15, -3774.02, -3443.79, -3365.65, -2794.04, 0.000, 0.000, 0.000, 14:01:42.119
16, -3518.35, -3344.97, -3196.82, -2629.71, 0.000, 0.000, 0.000, 14:01:42.119
17, -3265.57, -3267.24, -3062.06, -2572.32, 0.000, 0.000, 0.000, 14:01:42.120
18, -3585.63, -3348.84, -3244.72, -2742.34, 0.000, 0.000, 0.000, 14:01:42.120
19, -3774.37, -3431.23, -3351.55, -2838.70, 0.000, 0.000, 0.000, 14:01:42.134
20, -3506.39, -3376.36, -3224.48, -2711.43, 0.000, 0.000, 0.000, 14:01:42.134
21, -3231.94, -3259.18, -3043.27, -2544.13, 0.000, 0.000, 0.000, 14:01:42.149
22, -3582.46, -3360.39, -3251.20, -2750.75, 0.000, 0.000, 0.000, 14:01:42.149
23, -3774.34, -3454.86, -3369.94, -2803.15, 0.000, 0.000, 0.000, 14:01:42.149
24, -3483.97, -3362.86, -3202.19, -2681.13, 0.000, 0.000, 0.000, 14:01:42.149
25, -3240.24, -3255.35, -3040.87, -2533.64, 0.000, 0.000, 0.000, 14:01:42.194
26, -3579.84, -3351.00, -3270.88, -2769.87, 0.000, 0.000, 0.000, 14:01:42.195
27, -3784.23, -3449.52, -3360.95, -2824.21, 0.000, 0.000, 0.000, 14:01:42.195
28, -3508.24, -3364.24, -3209.43, -2701.35, 0.000, 0.000, 0.000, 14:01:42.195
29, -3270.27, -3259.36, -3043.49, -2561.39, 0.000, 0.000, 0.000, 14:01:42.195
30, -3580.08, -3363.75, -3277.63, -2758.66, 0.000, 0.000, 0.000, 14:01:42.195
31, -3767.52, -3451.36, -3365.50, -2825.99, 0.000, 0.000, 0.000, 14:01:42.196
32, -3544.67, -3366.78, -3197.04, -2697.69, 0.000, 0.000, 0.000, 14:01:42.196
33, -3235.20, -3255.66, -3045.51, -2556.63, 0.000, 0.000, 0.000, 14:01:42.196
34, -3610.20, -3369.34, -3282.15, -2744.67, 0.000, 0.000, 0.000, 14:01:42.196
35, -3782.95, -3459.46, -3373.62, -2853.21, 0.000, 0.000, 0.000, 14:01:42.209
36, -3524.35, -3365.87, -3209.00, -2668.43, 0.000, 0.000, 0.000, 14:01:42.209
37, -3290.19, -3257.50, -3054.32, -2561.05, 0.000, 0.000, 0.000, 14:01:42.239
38, -3579.74, -3368.10, -3271.73, -2755.75, 0.000, 0.000, 0.000, 14:01:42.239
39, -3787.99, -3438.92, -3364.36, -2843.88, 0.000, 0.000, 0.000, 14:01:42.240
40, -3484.59, -3342.93, -3188.36, -2668.60, 0.000, 0.000, 0.000, 14:01:42.240
41, -3242.93, -3264.63, -3053.24, -2573.84, 0.000, 0.000, 0.000, 14:01:42.241
42, -3600.36, -3371.82, -3292.96, -2757.54, 0.000, 0.000, 0.000, 14:01:42.241
43, -3736.77, -3455.97, -3373.79, -2817.74, 0.000, 0.000, 0.000, 14:01:42.254
44, -3513.82, -3360.06, -3206.88, -2648.20, 0.000, 0.000, 0.000, 14:01:42.254
45, -3233.48, -3253.16, -3054.13, -2588.08, 0.000, 0.000, 0.000, 14:01:42.284
46, -3630.90, -3374.27, -3288.22, -2783.69, 0.000, 0.000, 0.000, 14:01:42.284
47, -3749.19, -3441.40, -3356.29, -2800.74, 0.000, 0.000, 0.000, 14:01:42.285
48, -3496.08, -3355.17, -3196.15, -2689.02, 0.000, 0.000, 0.000, 14:01:42.285
49, -3223.49, -3239.34, -3031.57, -2550.45, 0.000, 0.000, 0.000, 14:01:42.285
50, -3598.54, -3371.49, -3280.89, -2772.74, 0.000, 0.000, 0.000, 14:01:42.285
51, -3746.03, -3451.85, -3360.14, -2834.03, 0.000, 0.000, 0.000, 14:01:42.286
52, -3469.65, -3345.90, -3188.89, -2670.59, 0.000, 0.000, 0.000, 14:01:42.286
53, -3230.75, -3255.11, -3052.35, -2580.17, 0.000, 0.000, 0.000, 14:01:42.299
54, -3659.02, -3375.98, -3293.43, -2775.59, 0.000, 0.000, 0.000, 14:01:42.299
55, -3749.67, -3442.40, -3350.79, -2807.20, 0.000, 0.000, 0.000, 14:01:42.314
56, -3464.78, -3347.39, -3166.35, -2643.93, 0.000, 0.000, 0.000, 14:01:42.314
57, -3246.64, -3248.25, -3051.70, -2569.63, 0.000, 0.000, 0.000, 14:01:42.330
58, -3623.10, -3386.07, -3304.14, -2785.72, 0.000, 0.000, 0.000, 14:01:42.330
59, -3735.17, -3440.11, -3351.99, -2837.89, 0.000, 0.000, 0.000, 14:01:42.359
60, -3456.36, -3357.38, -3189.27, -2668.41, 0.000, 0.000, 0.000, 14:01:42.359
61, -3271.00, -3262.58, -3064.99, -2539.77, 0.000, 0.000, 0.000, 14:01:42.359
62, -3642.89, -3396.62, -3311.08, -2786.55, 0.000, 0.000, 0.000, 14:01:42.360
63, -3758.30, -3438.57, -3350.38, -2815.41, 0.000, 0.000, 0.000, 14:01:42.360
64, -3476.54, -3353.04, -3183.43, -2651.36, 0.000, 0.000, 0.000, 14:01:42.360
65, -3225.57, -3240.32, -3047.02, -2550.69, 0.000, 0.000, 0.000, 14:01:42.361
66, -3646.67, -3383.61, -3295.15, -2768.45, 0.000, 0.000, 0.000, 14:01:42.361
67, -3727.36, -3463.27, -3370.83, -2823.99, 0.000, 0.000, 0.000, 14:01:42.374
68, -3474.21, -3349.33, -3190.75, -2684.41, 0.000, 0.000, 0.000, 14:01:42.375
69, -3260.50, -3254.48, -3058.00, -2559.45, 0.000, 0.000, 0.000, 14:01:42.404
70, -3667.07, -3386.14, -3322.24, -2780.18, 0.000, 0.000, 0.000, 14:01:42.404
71, -3740.77, -3436.37, -3356.78, -2840.39, 0.000, 0.000, 0.000, 14:01:42.405
72, -3459.15, -3334.19, -3169.60, -2649.60, 0.000, 0.000, 0.000, 14:01:42.405
73, -3228.56, -3243.96, -3051.40, -2525.63, 0.000, 0.000, 0.000, 14:01:42.406
74, -3650.85, -3386.20, -3315.10, -2788.22, 0.000, 0.000, 0.000, 14:01:42.406
75, -3751.77, -3434.09, -3343.38, -2810.28, 0.000, 0.000, 0.000, 14:01:42.406
76, -3447.48, -3343.50, -3162.20, -2661.20, 0.000, 0.000, 0.000, 14:01:42.406
77, -3274.46, -3267.67, -3065.31, -2577.29, 0.000, 0.000, 0.000, 14:01:42.420
78, -3692.44, -3382.36, -3319.33, -2799.06, 0.000, 0.000, 0.000, 14:01:42.420
79, -3751.98, -3454.78, -3356.94, -2812.86, 0.000, 0.000, 0.000, 14:01:42.434
80, -3479.89, -3351.05, -3173.61, -2688.39, 0.000, 0.000, 0.000, 14:01:42.434
81, -3249.67, -3245.96, -3053.86, -2554.73, 0.000, 0.000, 0.000, 14:01:42.449
82, -3671.73, -3384.24, -3309.35, -2795.33, 0.000, 0.000, 0.000, 14:01:42.449
83, -3711.54, -3439.06, -3349.45, -2815.22, 0.000, 0.000, 0.000, 14:01:42.449
84, -3450.40, -3340.94, -3174.20, -2675.35, 0.000, 0.000, 0.000, 14:01:42.449
85, -3275.76, -3257.08, -3061.39, -2544.73, 0.000, 0.000, 0.000, 14:01:42.479
86, -3666.24, -3393.15, -3324.71, -2778.77, 0.000, 0.000, 0.000, 14:01:42.479
87, -3714.49, -3438.14, -3348.84, -2798.81, 0.000, 0.000, 0.000, 14:01:42.480
88, -3442.56, -3339.34, -3169.26, -2650.38, 0.000, 0.000, 0.000, 14:01:42.480
89, -3250.01, -3249.06, -3056.81, -2566.13, 0.000, 0.000, 0.000, 14:01:42.480
90, -3702.79, -3398.66, -3320.48, -2801.34, 0.000, 0.000, 0.000, 14:01:42.480
91, -3712.20, -3443.13, -3342.07, -2816.77, 0.000, 0.000, 0.000, 14:01:42.524
92, -3446.53, -3345.15, -3169.85, -2675.51, 0.000, 0.000, 0.000, 14:01:42.524
93, -3263.47, -3258.31, -3060.88, -2549.64, 0.000, 0.000, 0.000, 14:01:42.525
94, -3700.41, -3406.97, -3337.32, -2809.90, 0.000, 0.000, 0.000, 14:01:42.525
95, -3768.20, -3426.43, -3346.90, -2795.42, 0.000, 0.000, 0.000, 14:01:42.525
96, -3448.10, -3327.96, -3155.06, -2644.10, 0.000, 0.000, 0.000, 14:01:42.525
97, -3265.36, -3262.48, -3060.17, -2585.27, 0.000, 0.000, 0.000, 14:01:42.526
98, -3685.95, -3398.25, -3333.60, -2810.57, 0.000, 0.000, 0.000, 14:01:42.526
99, -3725.09, -3437.85, -3359.32, -2814.32, 0.000, 0.000, 0.000, 14:01:42.527
100, -3400.94, -3333.61, -3157.44, -2653.45, 0.000, 0.000, 0.000, 14:01:42.527
101, -3278.04, -3257.69, -3070.56, -2586.89, 0.000, 0.000, 0.000, 14:01:42.569
102, -3700.10, -3391.81, -3327.23, -2818.21, 0.000, 0.000, 0.000, 14:01:42.569
103, -3725.37, -3430.52, -3343.82, -2809.73, 0.000, 0.000, 0.000, 14:01:42.570
104, -3422.75, -3330.18, -3143.46, -2629.19, 0.000, 0.000, 0.000, 14:01:42.570
105, -3247.52, -3256.48, -3055.15, -2567.49, 0.000, 0.000, 0.000, 14:01:42.570
106, -3703.84, -3408.43, -3350.69, -2804.26, 0.000, 0.000, 0.000, 14:01:42.570
107, -3692.30, -3430.58, -3338.07, -2799.63, 0.000, 0.000, 0.000, 14:01:42.571
108, -3396.63, -3316.68, -3147.24, -2642.32, 0.000, 0.000, 0.000, 14:01:42.571
109, -3261.17, -3247.22, -3051.27, -2563.88, 0.000, 0.000, 0.000, 14:01:42.584
110, -3718.89, -3414.13, -3345.45, -2809.84, 0.000, 0.000, 0.000, 14:01:42.584
111, -3722.54, -3433.67, -3339.27, -2784.43, 0.000, 0.000, 0.000, 14:01:42.599
112, -3396.80, -3321.75, -3142.67, -2608.80, 0.000, 0.000, 0.000, 14:01:42.599
113, -3294.49, -3266.66, -3069.44, -2573.42, 0.000, 0.000, 0.000, 14:01:42.599
114, -3735.17, -3405.56, -3337.96, -2841.61, 0.000, 0.000, 0.000, 14:01:42.599
115, -3688.53, -3417.80, -3321.06, -2789.34, 0.000, 0.000, 0.000, 14:01:42.629
116, -3409.15, -3309.90, -3136.52, -2601.98, 0.000, 0.000, 0.000, 14:01:42.629
117, -3276.82, -3263.68, -3075.92, -2594.97, 0.000, 0.000, 0.000, 14:01:42.629
118, -3707.30, -3407.51, -3349.36, -2788.62, 0.000, 0.000, 0.000, 14:01:42.630
119, -3713.10, -3432.96, -3331.56, -2812.81, 0.000, 0.000, 0.000, 14:01:42.630
120, -3430.05, -3325.40, -3138.55, -2657.62, 0.000, 0.000, 0.000, 14:01:42.630
121, -3259.71, -3251.60, -3068.50, -2567.94, 0.000, 0.000, 0.000, 14:01:42.644
122, -3712.50, -3409.65, -3344.57, -2829.84, 0.000, 0.000, 0.000, 14:01:42.645
123, -3705.78, -3439.91, -3330.62, -2806.50, 0.000, 0.000, 0.000, 14:01:42.659
124, -3408.46, -3321.28, -3138.57, -2638.65, 0.000, 0.000, 0.000, 14:01:42.659
125, -3282.37, -3258.82, -3085.16, -2593.59, 0.000, 0.000, 0.000, 14:01:42.674
126, -3726.76, -3428.90, -3363.40, -2824.60, 0.000, 0.000, 0.000, 14:01:42.674
127, -3700.57, -3428.88, -3324.93, -2781.90, 0.000, 0.000, 0.000, 14:01:42.675
128, -3381.58, -3315.64, -3132.43, -2624.70, 0.000, 0.000, 0.000, 14:01:42.675
129, -3284.79, -3273.01, -3089.17, -2589.05, 0.000, 0.000, 0.000, 14:01:42.688
130, -3753.52, -3433.86, -3355.06, -2819.04, 0.000, 0.000, 0.000, 14:01:42.688
131, -3706.29, -3448.27, -3326.30, -2787.55, 0.000, 0.000, 0.000, 14:01:42.689
132, -3395.98, -3335.82, -3128.09, -2615.04, 0.000, 0.000, 0.000, 14:01:42.689
133, -3279.10, -3286.17, -3074.44, -2581.12, 0.000, 0.000, 0.000, 14:01:42.704
134, -3744.96, -3428.35, -3369.39, -2820.84, 0.000, 0.000, 0.000, 14:01:42.704
135, -3685.95, -3465.09, -3319.79, -2760.02, 0.000, 0.000, 0.000, 14:01:42.718
136, -3330.94, -3329.76, -3125.04, -2623.83, 0.000, 0.000, 0.000, 14:01:42.719
137, -3228.61, -3240.71, -3065.24, -2573.38, 0.000, 0.000, 0.000, 14:01:42.749
138, -3696.93, -3481.97, -3353.02, -2826.03, 0.000, 0.000, 0.000, 14:01:42.749
139, -3601.76, -3453.92, -3306.90, -2793.06, 0.000, 0.000, 0.000, 14:01:42.749
140, -3297.75, -3338.22, -3113.03, -2576.82, 0.000, 0.000, 0.000, 14:01:42.749
141, -3194.90, -3326.69, -3070.46, -2567.13, 0.000, 0.000, 0.000, 14:01:42.750
142, -3579.07, -3514.96, -3353.88, -2820.13, 0.000, 0.000, 0.000, 14:01:42.750
143, -3496.58, -3522.05, -3305.68, -2756.74, 0.000, 0.000, 0.000, 14:01:42.751
144, -3219.77, -3400.36, -3099.53, -2584.91, 0.000, 0.000, 0.000, 14:01:42.751
145, -3154.89, -3358.90, -3087.37, -2580.08, 0.000, 0.000, 0.000, 14:01:42.764
146, -3594.36, -3504.46, -3350.20, -2829.64, 0.000, 0.000, 0.000, 14:01:42.765
147, -3575.69, -3489.78, -3323.61, -2795.16, 0.000, 0.000, 0.000, 14:01:42.795
148, -3306.44, -3370.42, -3119.56, -2605.15, 0.000, 0.000, 0.000, 14:01:42.795
149, -3245.82, -3308.08, -3092.23, -2575.44, 0.000, 0.000, 0.000, 14:01:42.795
150, -3682.37, -3456.67, -3372.71, -2844.61, 0.000, 0.000, 0.000, 14:01:42.796
151, -3670.44, -3431.90, -3324.42, -2800.55, 0.000, 0.000, 0.000, 14:01:42.796
152, -3366.06, -3315.11, -3133.00, -2627.15, 0.000, 0.000, 0.000, 14:01:42.796
153, -3331.64, -3260.22, -3099.29, -2603.03, 0.000, 0.000, 0.000, 14:01:42.796
154, -3802.55, -3412.73, -3379.77, -2834.79, 0.000, 0.000, 0.000, 14:01:42.796
155, -3708.87, -3412.25, -3324.76, -2786.48, 0.000, 0.000, 0.000, 14:01:42.810
156, -3412.52, -3295.28, -3116.17, -2609.63, 0.000, 0.000, 0.000, 14:01:42.810
157, -3382.79, -3248.27, -3103.73, -2604.98, 0.000, 0.000, 0.000, 14:01:42.838
158, -3839.05, -3405.01, -3368.14, -2832.11, 0.000, 0.000, 0.000, 14:01:42.839
159, -3711.77, -3403.51, -3307.92, -2784.02, 0.000, 0.000, 0.000, 14:01:42.839
160, -3409.21, -3306.41, -3112.09, -2627.06, 0.000, 0.000, 0.000, 14:01:42.839
161, -3357.60, -3262.31, -3106.10, -2602.61, 0.000, 0.000, 0.000, 14:01:42.840
162, -3794.89, -3419.17, -3374.57, -2852.20, 0.000, 0.000, 0.000, 14:01:42.840
163, -3693.65, -3386.48, -3318.96, -2778.70, 0.000, 0.000, 0.000, 14:01:42.869
164, -3353.93, -3271.97, -3108.32, -2611.81, 0.000, 0.000, 0.000, 14:01:42.869
165, -3346.54, -3322.62, -3110.90, -2654.61, 0.000, 0.000, 0.000, 14:01:42.870
166, -3774.98, -3443.49, -3371.68, -2846.52, 0.000, 0.000, 0.000, 14:01:42.870
167, -3641.20, -3402.92, -3310.77, -2752.27, 0.000, 0.000, 0.000, 14:01:42.870
168, -3252.53, -3305.77, -3097.61, -2607.16, 0.000, 0.000, 0.000, 14:01:42.871
169, -3270.20, -3323.00, -3097.30, -2596.21, 0.000, 0.000, 0.000, 14:01:42.884
170, -3603.82, -3494.09, -3359.06, -2818.35, 0.000, 0.000, 0.000, 14:01:42.884
171, -3524.96, -3496.28, -3314.98, -2747.36, 0.000, 0.000, 0.000, 14:01:42.914
172, -3213.16, -3372.34, -3097.41, -2577.88, 0.000, 0.000, 0.000, 14:01:42.914
173, -3211.96, -3328.51, -3095.52, -2589.14, 0.000, 0.000, 0.000, 14:01:42.915
174, -3671.40, -3488.80, -3378.20, -2844.09, 0.000, 0.000, 0.000, 14:01:42.916
175, -3610.94, -3459.72, -3303.49, -2768.41, 0.000, 0.000, 0.000, 14:01:42.916
176, -3296.09, -3329.70, -3108.26, -2602.76, 0.000, 0.000, 0.000, 14:01:42.916
177, -3349.26, -3295.09, -3110.80, -2624.80, 0.000, 0.000, 0.000, 14:01:42.917
178, -3775.72, -3441.09, -3375.51, -2851.28, 0.000, 0.000, 0.000, 14:01:42.917
179, -3713.70, -3408.82, -3308.52, -2782.23, 0.000, 0.000, 0.000, 14:01:42.930
180, -3346.76, -3284.14, -3108.56, -2593.45, 0.000, 0.000, 0.000, 14:01:42.930
181, -3405.18, -3255.15, -3138.42, -2639.38, 0.000, 0.000, 0.000, 14:01:42.944
182, -3821.77, -3426.03, -3401.26, -2846.26, 0.000, 0.000, 0.000, 14:01:42.945
183, -3730.63, -3385.19, -3312.78, -2770.25, 0.000, 0.000, 0.000, 14:01:42.959
184, -3411.98, -3263.23, -3106.64, -2621.14, 0.000, 0.000, 0.000, 14:01:42.959
185, -3437.00, -3241.84, -3127.49, -2625.84, 0.000, 0.000, 0.000, 14:01:42.959
186, -3834.53, -3402.18, -3390.41, -2847.83, 0.000, 0.000, 0.000, 14:01:42.960
187, -3707.85, -3371.16, -3296.75, -2769.17, 0.000, 0.000, 0.000, 14:01:42.974
188, -3390.19, -3242.86, -3089.31, -2587.70, 0.000, 0.000, 0.000, 14:01:42.974
189, -3444.86, -3253.61, -3138.13, -2624.93, 0.000, 0.000, 0.000, 14:01:42.988
190, -3852.54, -3410.22, -3401.43, -2852.40, 0.000, 0.000, 0.000, 14:01:42.989
191, -3718.53, -3376.92, -3311.78, -2766.25, 0.000, 0.000, 0.000, 14:01:42.989
192, -3345.44, -3259.80, -3102.87, -2602.51, 0.000, 0.000, 0.000, 14:01:42.989
193, -3414.08, -3241.05, -3122.18, -2626.60, 0.000, 0.000, 0.000, 14:01:43.004
194, -3799.01, -3426.41, -3374.77, -2831.69, 0.000, 0.000, 0.000, 14:01:43.004
195, -3687.98, -3446.61, -3280.47, -2765.47, 0.000, 0.000, 0.000, 14:01:43.033
196, -3365.36, -3250.15, -3108.80, -2596.63, 0.000, 0.000, 0.000, 14:01:43.034
197, -3403.37, -3269.74, -3143.09, -2638.54, 0.000, 0.000, 0.000, 14:01:43.034
198, -3813.09, -3432.86, -3380.34, -2842.69, 0.000, 0.000, 0.000, 14:01:43.034
199, -3657.43, -3425.43, -3282.67, -2754.63, 0.000, 0.000, 0.000, 14:01:43.035
200, -3306.02, -3267.43, -3079.22, -2567.79, 0.000, 0.000, 0.000, 14:01:43.035
0, -3341.19, -3279.57, -3134.94, -2629.87, 0.000, 0.000, 0.000, 14:01:43.035
1, -3719.95, -3464.21, -3375.68, -2833.04, 0.000, 0.000, 0.000, 14:01:43.066
2, -3536.16, -3463.94, -3274.61, -2746.07, 0.000, 0.000, 0.000, 14:01:43.066
3, -3184.08, -3354.32, -3070.30, -2566.62, 0.000, 0.000, 0.000, 14:01:43.066
4, -3278.40, -3366.94, -3140.50, -2654.66, 0.000, 0.000, 0.000, 14:01:43.066
5, -3661.60, -3506.90, -3379.06, -2838.10, 0.000, 0.000, 0.000, 14:01:43.067
6, -3526.75, -3463.07, -3285.56, -2736.52, 0.000, 0.000, 0.000, 14:01:43.067
7, -3263.37, -3332.83, -3088.70, -2565.93, 0.000, 0.000, 0.000, 14:01:43.080
8, -3365.63, -3335.18, -3157.52, -2635.31, 0.000, 0.000, 0.000, 14:01:43.080
9, -3786.73, -3455.94, -3389.54, -2848.07, 0.000, 0.000, 0.000, 14:01:43.094
10, -3637.32, -3409.92, -3287.53, -2765.77, 0.000, 0.000, 0.000, 14:01:43.094
11, -3343.88, -3281.62, -3089.19, -2594.39, 0.000, 0.000, 0.000, 14:01:43.095
12, -3430.92, -3282.86, -3162.76, -2653.36, 0.000, 0.000, 0.000, 14:01:43.095
13, -3837.71, -3426.38, -3396.93, -2853.81, 0.000, 0.000, 0.000, 14:01:43.109
14, -3652.81, -3374.95, -3281.43, -2758.42, 0.000, 0.000, 0.000, 14:01:43.109
15, -3361.81, -3255.38, -3076.02, -2582.39, 0.000, 0.000, 0.000, 14:01:43.124
16, -3479.57, -3259.02, -3156.03, -2651.94, 0.000, 0.000, 0.000, 14:01:43.124
17, -3857.66, -3419.77, -3402.30, -2858.15, 0.000, 0.000, 0.000, 14:01:43.125
18, -3683.02, -3367.64, -3287.83, -2742.41, 0.000, 0.000, 0.000, 14:01:43.125
19, -3360.38, -3260.22, -3077.90, -2581.30, 0.000, 0.000, 0.000, 14:01:43.139
20, -3453.12, -3263.86, -3147.91, -2662.61, 0.000, 0.000, 0.000, 14:01:43.139
21, -3836.80, -3407.61, -3379.48, -2838.51, 0.000, 0.000, 0.000, 14:01:43.154
22, -3672.97, -3370.77, -3282.49, -2762.68, 0.000, 0.000, 0.000, 14:01:43.154
23, -3373.62, -3260.81, -3085.61, -2605.26, 0.000, 0.000, 0.000, 14:01:43.155
24, -3470.98, -3277.48, -3166.68, -2638.51, 0.000, 0.000, 0.000, 14:01:43.155
25, -3836.96, -3421.01, -3393.01, -2861.84, 0.000, 0.000, 0.000, 14:01:43.184
26, -3645.43, -3368.45, -3271.48, -2746.49, 0.000, 0.000, 0.000, 14:01:43.184
27, -3315.53, -3238.84, -3066.35, -2576.10, 0.000, 0.000, 0.000, 14:01:43.184
28, -3478.77, -3291.73, -3179.63, -2681.41, 0.000, 0.000, 0.000, 14:01:43.184
29, -3805.74, -3427.92, -3394.41, -2854.87, 0.000, 0.000, 0.000, 14:01:43.192
30, -3622.71, -3380.49, -3265.72, -2745.33, 0.000, 0.000, 0.000, 14:01:43.192
31, -3326.15, -3256.47, -3062.82, -2572.86, 0.000, 0.000, 0.000, 14:01:43.199
32, -3486.82, -3294.25, -3178.83, -2673.57, 0.000, 0.000, 0.000, 14:01:43.199
33, -3835.07, -3434.06, -3389.44, -2847.68, 0.000, 0.000, 0.000, 14:01:43.230
34, -3599.41, -3392.51, -3285.35, -2759.48, 0.000, 0.000, 0.000, 14:01:43.230
35, -3313.85, -3260.83, -3079.33, -2583.41, 0.000, 0.000, 0.000, 14:01:43.230
36, -3482.54, -3301.03, -3179.75, -2686.71, 0.000, 0.000, 0.000, 14:01:43.230
37, -3849.11, -3457.35, -3400.62, -2873.12, 0.000, 0.000, 0.000, 14:01:43.230
38, -3635.35, -3394.91, -3277.11, -2767.16, 0.000, 0.000, 0.000, 14:01:43.230
39, -3309.40, -3269.70, -3079.08, -2575.52, 0.000, 0.000, 0.000, 14:01:43.232
40, -3486.14, -3293.69, -3182.41, -2676.23, 0.000, 0.000, 0.000, 14:01:43.232
41, -3803.89, -3436.64, -3385.11, -2854.44, 0.000, 0.000, 0.000, 14:01:43.244
42, -3601.66, -3385.93, -3255.87, -2734.21, 0.000, 0.000, 0.000, 14:01:43.245
43, -3292.88, -3275.31, -3073.10, -2564.33, 0.000, 0.000, 0.000, 14:01:43.259
44, -3466.95, -3304.96, -3197.55, -2684.54, 0.000, 0.000, 0.000, 14:01:43.259
45, -3812.60, -3450.81, -3397.87, -2857.10, 0.000, 0.000, 0.000, 14:01:43.304
46, -3604.43, -3386.07, -3253.65, -2739.48, 0.000, 0.000, 0.000, 14:01:43.304
47, -3268.53, -3256.29, -3059.36, -2569.11, 0.000, 0.000, 0.000, 14:01:43.305
48, -3470.92, -3305.93, -3195.74, -2689.12, 0.000, 0.000, 0.000, 14:01:43.305
49, -3781.48, -3441.47, -3395.63, -2836.29, 0.000, 0.000, 0.000, 14:01:43.305
50, -3581.85, -3381.41, -3243.92, -2713.39, 0.000, 0.000, 0.000, 14:01:43.306
51, -3269.17, -3260.44, -3059.31, -2565.09, 0.000, 0.000, 0.000, 14:01:43.306
52, -3493.20, -3316.72, -3205.01, -2691.40, 0.000, 0.000, 0.000, 14:01:43.306
53, -3802.75, -3447.53, -3392.65, -2851.06, 0.000, 0.000, 0.000, 14:01:43.307
54, -3559.51, -3379.90, -3255.90, -2736.85, 0.000, 0.000, 0.000, 14:01:43.307
55, -3273.55, -3273.13, -3056.74, -2557.05, 0.000, 0.000, 0.000, 14:01:43.319
56, -3503.53, -3315.63, -3196.58, -2689.33, 0.000, 0.000, 0.000, 14:01:43.319
57, -3819.57, -3448.18, -3388.08, -2843.66, 0.000, 0.000, 0.000, 14:01:43.350
58, -3590.00, -3378.93, -3258.65, -2713.00, 0.000, 0.000, 0.000, 14:01:43.350
59, -3262.63, -3272.07, -3059.60, -2502.59, 0.000, 0.000, 0.000, 14:01:43.350
60, -3474.02, -3323.08, -3200.92, -2642.64, 0.000, 0.000, 0.000, 14:01:43.350
61, -3790.67, -3466.04, -3386.52, -2798.25, 0.000, 0.000, 0.000, 14:01:43.350
62, -3604.81, -3388.96, -3248.02, -2668.66, 0.000, 0.000, 0.000, 14:01:43.351
63, -3281.96, -3273.51, -3068.65, -2507.32, 0.000, 0.000, 0.000, 14:01:43.351
64, -3510.00, -3324.64, -3215.19, -2672.87, 0.000, 0.000, 0.000, 14:01:43.351
65, -3797.44, -3450.74, -3388.00, -2811.45, 0.000, 0.000, 0.000, 14:01:43.364
66, -3584.22, -3379.97, -3238.70, -2700.80, 0.000, 0.000, 0.000, 14:01:43.365
67, -3274.28, -3269.25, -3062.11, -2541.45, 0.000, 0.000, 0.000, 14:01:43.394
68, -3502.91, -3329.57, -3229.55, -2682.61, 0.000, 0.000, 0.000, 14:01:43.394
69, -3802.42, -3444.65, -3389.31, -2865.38, 0.000, 0.000, 0.000, 14:01:43.395
70, -3555.35, -3386.49, -3250.86, -2716.97, 0.000, 0.000, 0.000, 14:01:43.395
71, -3264.05, -3271.02, -3063.44, -2559.64, 0.000, 0.000, 0.000, 14:01:43.395
72, -3510.14, -3329.06, -3210.73, -2703.40, 0.000, 0.000, 0.000, 14:01:43.395
73, -3798.33, -3467.66, -3384.05, -2849.35, 0.000, 0.000, 0.000, 14:01:43.424
74, -3546.33, -3368.85, -3239.00, -2699.67, 0.000, 0.000, 0.000, 14:01:43.424
75, -3243.70, -3263.98, -3064.35, -2570.62, 0.000, 0.000, 0.000, 14:01:43.425
76, -3521.46, -3323.89, -3218.51, -2714.48, 0.000, 0.000, 0.000, 14:01:43.425
77, -3775.69, -3449.59, -3379.46, -2837.75, 0.000, 0.000, 0.000, 14:01:43.426
78, -3557.39, -3382.84, -3238.04, -2724.31, 0.000, 0.000, 0.000, 14:01:43.426
79, -3264.26, -3271.78, -3057.42, -2562.13, 0.000, 0.000, 0.000, 14:01:43.469
80, -3497.25, -3331.06, -3235.17, -2707.38, 0.000, 0.000, 0.000, 14:01:43.469
81, -3795.73, -3453.11, -3371.11, -2870.77, 0.000, 0.000, 0.000, 14:01:43.469
82, -3549.42, -3370.32, -3243.37, -2717.13, 0.000, 0.000, 0.000, 14:01:43.469
83, -3253.63, -3260.90, -3061.59, -2543.71, 0.000, 0.000, 0.000, 14:01:43.470
84, -3525.92, -3335.33, -3229.84, -2683.24, 0.000, 0.000, 0.000, 14:01:43.470
85, -3794.97, -3457.77, -3387.16, -2851.86, 0.000, 0.000, 0.000, 14:01:43.470
86, -3563.86, -3386.03, -3231.40, -2714.60, 0.000, 0.000, 0.000, 14:01:43.470
87, -3256.49, -3257.55, -3056.71, -2572.85, 0.000, 0.000, 0.000, 14:01:43.472
88, -3533.40, -3337.14, -3235.18, -2745.40, 0.000, 0.000, 0.000, 14:01:43.472
89, -3785.09, -3450.76, -3387.14, -2892.04, 0.000, 0.000, 0.000, 14:01:43.484
90, -3528.41, -3371.58, -3218.06, -2725.93, 0.000, 0.000, 0.000, 14:01:43.484
91, -3241.60, -3265.92, -3047.94, -2577.10, 0.000, 0.000, 0.000, 14:01:43.515
92, -3541.90, -3342.17, -3247.54, -2768.95, 0.000, 0.000, 0.000, 14:01:43.515
93, -3784.94, -3464.54, -3378.25, -2858.28, 0.000, 0.000, 0.000, 14:01:43.516
94, -3535.85, -3372.32, -3232.04, -2733.50, 0.000, 0.000, 0.000, 14:01:43.516
95, -3256.21, -3254.50, -3049.53, -2571.46, 0.000, 0.000, 0.000, 14:01:43.516
96, -3526.34, -3343.29, -3237.83, -2742.47, 0.000, 0.000, 0.000, 14:01:43.516
97, -3750.04, -3445.43, -3359.49, -2850.71, 0.000, 0.000, 0.000, 14:01:43.529
98, -3506.62, -3365.48, -3220.60, -2719.69, 0.000, 0.000, 0.000, 14:01:43.529
99, -3248.29, -3256.41, -3063.50, -2581.77, 0.000, 0.000, 0.000, 14:01:43.544
100, -3574.76, -3354.28, -3258.00, -2759.23, 0.000, 0.000, 0.000, 14:01:43.544
101, -3770.60, -3450.74, -3379.14, -2845.70, 0.000, 0.000, 0.000, 14:01:43.545
102, -3558.68, -3381.13, -3218.91, -2718.36, 0.000, 0.000, 0.000, 14:01:43.545
103, -3245.90, -3266.94, -3041.50, -2562.41, 0.000, 0.000, 0.000, 14:01:43.571
104, -3562.65, -3358.59, -3237.89, -2741.71, 0.000, 0.000, 0.000, 14:01:43.571
105, -3779.53, -3439.88, -3366.75, -2836.44, 0.000, 0.000, 0.000, 14:01:43.591
106, -3529.92, -3378.06, -3221.16, -2694.11, 0.000, 0.000, 0.000, 14:01:43.591
107, -3231.91, -3258.92, -3055.41, -2562.42, 0.000, 0.000, 0.000, 14:01:43.592
108, -3551.81, -3362.04, -3260.24, -2738.40, 0.000, 0.000, 0.000, 14:01:43.592
109, -3752.84, -3452.40, -3377.49, -2853.39, 0.000, 0.000, 0.000, 14:01:43.592
110, -3520.07, -3374.33, -3206.06, -2718.91, 0.000, 0.000, 0.000, 14:01:43.592
111, -3266.97, -3268.77, -3053.43, -2563.84, 0.000, 0.000, 0.000, 14:01:43.592
112, -3575.87, -3351.37, -3263.17, -2749.63, 0.000, 0.000, 0.000, 14:01:43.592
113, -3763.22, -3446.70, -3376.35, -2836.91, 0.000, 0.000, 0.000, 14:01:43.619
114, -3533.24, -3368.30, -3211.67, -2681.81, 0.000, 0.000, 0.000, 14:01:43.619
115, -3241.07, -3258.43, -3053.84, -2550.01, 0.000, 0.000, 0.000, 14:01:43.634
116, -3587.50, -3359.69, -3263.57, -2741.24, 0.000, 0.000, 0.000, 14:01:43.634
117, -3756.73, -3455.50, -3373.39, -2837.67, 0.000, 0.000, 0.000, 14:01:43.635
118, -3509.14, -3366.06, -3208.73, -2701.03, 0.000, 0.000, 0.000, 14:01:43.635
119, -3247.83, -3262.95, -3057.44, -2570.97, 0.000, 0.000, 0.000, 14:01:43.635
120, -3576.86, -3373.77, -3270.22, -2768.60, 0.000, 0.000, 0.000, 14:01:43.636
121, -3715.32, -3444.40, -3365.05, -2824.46, 0.000, 0.000, 0.000, 14:01:43.649
122, -3506.42, -3351.59, -3191.40, -2682.46, 0.000, 0.000, 0.000, 14:01:43.649
123, -3234.96, -3246.10, -3036.45, -2537.95, 0.000, 0.000, 0.000, 14:01:43.679
124, -3579.56, -3362.36, -3266.61, -2746.88, 0.000, 0.000, 0.000, 14:01:43.679
125, -3747.81, -3463.73, -3382.90, -2826.45, 0.000, 0.000, 0.000, 14:01:43.680
126, -3504.72, -3370.95, -3216.84, -2675.59, 0.000, 0.000, 0.000, 14:01:43.680
127, -3277.74, -3257.27, -3051.11, -2551.74, 0.000, 0.000, 0.000, 14:01:43.680
128, -3608.68, -3371.81, -3285.24, -2761.65, 0.000, 0.000, 0.000, 14:01:43.680
129, -3782.78, -3450.54, -3364.56, -2833.33, 0.000, 0.000, 0.000, 14:01:43.682
130, -3505.57, -3357.92, -3201.91, -2708.84, 0.000, 0.000, 0.000, 14:01:43.682
131, -3243.51, -3252.21, -3045.30, -2575.97, 0.000, 0.000, 0.000, 14:01:43.694
132, -3617.10, -3363.85, -3271.42, -2766.84, 0.000, 0.000, 0.000, 14:01:43.694
133, -3756.19, -3453.68, -3381.18, -2829.33, 0.000, 0.000, 0.000, 14:01:43.710
134, -3497.10, -3360.88, -3203.16, -2669.25, 0.000, 0.000, 0.000, 14:01:43.710
135, -3259.55, -3258.79, -3049.07, -2555.52, 0.000, 0.000, 0.000, 14:01:43.739
136, -3608.22, -3367.27, -3291.90, -2763.31, 0.000, 0.000, 0.000, 14:01:43.739
137, -3740.37, -3441.83, -3356.86, -2807.11, 0.000, 0.000, 0.000, 14:01:43.739
138, -3490.53, -3357.29, -3193.72, -2678.30, 0.000, 0.000, 0.000, 14:01:43.739
139, -3243.23, -3249.47, -3052.41, -2553.90, 0.000, 0.000, 0.000, 14:01:43.740
140, -3599.35, -3373.33, -3294.45, -2761.70, 0.000, 0.000, 0.000, 14:01:43.740
141, -3778.17, -3445.06, -3363.64, -2793.54, 0.000, 0.000, 0.000, 14:01:43.741
142, -3506.93, -3362.46, -3197.98, -2662.78, 0.000, 0.000, 0.000, 14:01:43.741
143, -3274.75, -3264.97, -3057.67, -2554.58, 0.000, 0.000, 0.000, 14:01:43.754
144, -3631.14, -3385.47, -3307.85, -2746.33, 0.000, 0.000, 0.000, 14:01:43.754
145, -3761.67, -3445.67, -3375.88, -2813.17, 0.000, 0.000, 0.000, 14:01:43.784
146, -3472.01, -3351.39, -3187.02, -2664.41, 0.000, 0.000, 0.000, 14:01:43.784
147, -3242.34, -3252.65, -3046.89, -2549.43, 0.000, 0.000, 0.000, 14:01:43.784
148, -3657.08, -3378.73, -3303.97, -2781.56, 0.000, 0.000, 0.000, 14:01:43.785
149, -3740.73, -3439.36, -3364.42, -2830.71, 0.000, 0.000, 0.000, 14:01:43.785
150, -3472.79, -3360.72, -3187.96, -2673.82, 0.000, 0.000, 0.000, 14:01:43.786
151, -3255.70, -3263.88, -3047.50, -2548.12, 0.000, 0.000, 0.000, 14:01:43.799
152, -3664.92, -3384.04, -3305.61, -2779.62, 0.000, 0.000, 0.000, 14:01:43.799
153, -3737.66, -3450.38, -3359.98, -2836.74, 0.000, 0.000, 0.000, 14:01:43.815
154, -3470.31, -3347.24, -3184.33, -2653.74, 0.000, 0.000, 0.000, 14:01:43.815
155, -3245.99, -3257.63, -3054.70, -2567.07, 0.000, 0.000, 0.000, 14:01:43.821
156, -3666.93, -3396.82, -3320.52, -2802.54, 0.000, 0.000, 0.000, 14:01:43.821
157, -3729.20, -3436.12, -3351.27, -2798.78, 0.000, 0.000, 0.000, 14:01:43.844
158, -3505.97, -3355.20, -3192.17, -2659.97, 0.000, 0.000, 0.000, 14:01:43.844
159, -3249.25, -3251.77, -3058.02, -2563.30, 0.000, 0.000, 0.000, 14:01:43.859
160, -3653.83, -3378.57, -3312.37, -2766.58, 0.000, 0.000, 0.000, 14:01:43.859
161, -3713.47, -3427.12, -3338.99, -2806.76, 0.000, 0.000, 0.000, 14:01:43.860
162, -3443.35, -3346.68, -3174.04, -2665.53, 0.000, 0.000, 0.000, 14:01:43.860
163, -3252.22, -3254.13, -3048.62, -2555.51, 0.000, 0.000, 0.000, 14:01:43.860
164, -3666.56, -3394.55, -3319.39, -2804.82, 0.000, 0.000, 0.000, 14:01:43.860
165, -3761.91, -3446.30, -3356.09, -2833.76, 0.000, 0.000, 0.000, 14:01:43.862
166, -3451.62, -3344.40, -3177.44, -2659.97, 0.000, 0.000, 0.000, 14:01:43.862
167, -3257.79, -3259.08, -3060.75, -2560.84, 0.000, 0.000, 0.000, 14:01:43.874
168, -3641.14, -3399.02, -3324.65, -2815.88, 0.000, 0.000, 0.000, 14:01:43.875
169, -3733.08, -3437.12, -3356.97, -2795.51, 0.000, 0.000, 0.000, 14:01:43.889
170, -3468.11, -3332.48, -3167.57, -2658.20, 0.000, 0.000, 0.000, 14:01:43.889
171, -3248.23, -3257.07, -3062.30, -2570.43, 0.000, 0.000, 0.000, 14:01:43.904
172, -3668.98, -3394.43, -3342.12, -2819.95, 0.000, 0.000, 0.000, 14:01:43.904
173, -3747.49, -3440.00, -3365.86, -2810.07, 0.000, 0.000, 0.000, 14:01:43.904
174, -3454.95, -3340.05, -3161.87, -2649.00, 0.000, 0.000, 0.000, 14:01:43.904
175, -3285.01, -3260.71, -3064.40, -2549.91, 0.000, 0.000, 0.000, 14:01:43.919
176, -3667.44, -3387.45, -3318.30, -2790.33, 0.000, 0.000, 0.000, 14:01:43.919
177, -3730.38, -3443.40, -3357.66, -2834.28, 0.000, 0.000, 0.000, 14:01:43.949
178, -3361.77, -3347.92, -3173.68, -2673.97, 0.000, 0.000, 0.000, 14:01:43.949
179, -3289.88, -3254.01, -3060.96, -2559.11, 0.000, 0.000, 0.000, 14:01:43.949
180, -3689.77, -3406.32, -3333.99, -2795.65, 0.000, 0.000, 0.000, 14:01:43.949
181, -3739.38, -3448.06, -3352.06, -2817.95, 0.000, 0.000, 0.000, 14:01:43.950
182, -3431.00, -3308.71, -3150.43, -2651.31, 0.000, 0.000, 0.000, 14:01:43.950
183, -3258.20, -3258.93, -3059.21, -2582.20, 0.000, 0.000, 0.000, 14:01:43.951
184, -3694.31, -3398.16, -3320.81, -2838.07, 0.000, 0.000, 0.000, 14:01:43.951
185, -3702.80, -3424.63, -3330.12, -2830.79, 0.000, 0.000, 0.000, 14:01:43.979
186, -3402.96, -3336.22, -3154.65, -2689.96, 0.000, 0.000, 0.000, 14:01:43.979
187, -3268.33, -3262.20, -3051.05, -2579.45, 0.000, 0.000, 0.000, 14:01:43.980
188, -3750.75, -3405.13, -3332.11, -2823.00, 0.000, 0.000, 0.000, 14:01:43.980
189, -3711.06, -3433.16, -3344.85, -2824.27, 0.000, 0.000, 0.000, 14:01:43.995
190, -3428.08, -3324.60, -3144.18, -2649.41, 0.000, 0.000, 0.000, 14:01:43.995
191, -3302.44, -3263.20, -3073.71, -2576.46, 0.000, 0.000, 0.000, 14:01:43.995
192, -3694.71, -3399.16, -3340.07, -2818.29, 0.000, 0.000, 0.000, 14:01:43.995
193, -3703.60, -3434.90, -3335.16, -2799.02, 0.000, 0.000, 0.000, 14:01:44.024
194, -3407.75, -3327.84, -3137.37, -2638.70, 0.000, 0.000, 0.000, 14:01:44.024
195, -3266.33, -3264.44, -3067.68, -2593.28, 0.000, 0.000, 0.000, 14:01:44.025
196, -3720.84, -3410.15, -3347.66, -2821.16, 0.000, 0.000, 0.000, 14:01:44.025
197, -3731.51, -3443.18, -3358.63, -2805.41, 0.000, 0.000, 0.000, 14:01:44.026
198, -3421.53, -3343.54, -3156.30, -2649.24, 0.000, 0.000, 0.000, 14:01:44.026
199, -3288.18, -3261.10, -3065.63, -2579.60, 0.000, 0.000, 0.000, 14:01:44.039
200, -3697.08, -3410.84, -3344.62, -2801.17, 0.000, 0.000, 0.000, 14:01:44.039
0, -3721.76, -3437.70, -3338.65, -2812.80, 0.000, 0.000, 0.000, 14:01:44.039
1, -3429.91, -3337.11, -3150.46, -2620.23, 0.000, 0.000, 0.000, 14:01:44.069
2, -3236.60, -3264.92, -3068.14, -2588.00, 0.000, 0.000, 0.000, 14:01:44.069
3, -3729.28, -3422.69, -3357.00, -2835.99, 0.000, 0.000, 0.000, 14:01:44.070
4, -3724.33, -3439.45, -3341.85, -2808.63, 0.000, 0.000, 0.000, 14:01:44.070
5, -3407.82, -3317.82, -3142.71, -2640.27, 0.000, 0.000, 0.000, 14:01:44.071
6, -3300.29, -3262.25, -3067.10, -2575.50, 0.000, 0.000, 0.000, 14:01:44.071
7, -3726.78, -3420.54, -3355.77, -2826.79, 0.000, 0.000, 0.000, 14:01:44.091
8, -3672.96, -3432.91, -3351.01, -2807.27, 0.000, 0.000, 0.000, 14:01:44.091
9, -3438.63, -3331.55, -3145.84, -2624.12, 0.000, 0.000, 0.000, 14:01:44.114
10, -3265.50, -3261.29, -3071.82, -2574.79, 0.000, 0.000, 0.000, 14:01:44.114
11, -3745.08, -3431.43, -3360.51, -2849.81, 0.000, 0.000, 0.000, 14:01:44.115
12, -3708.83, -3426.25, -3328.87, -2796.64, 0.000, 0.000, 0.000, 14:01:44.115
13, -3392.35, -3330.37, -3158.73, -2638.78, 0.000, 0.000, 0.000, 14:01:44.115
14, -3277.61, -3265.55, -3075.30, -2584.35, 0.000, 0.000, 0.000, 14:01:44.115
15, -3786.11, -3414.98, -3348.85, -2829.17, 0.000, 0.000, 0.000, 14:01:44.115
16, -3718.32, -3437.77, -3331.69, -2789.89, 0.000, 0.000, 0.000, 14:01:44.115
17, -3351.07, -3322.47, -3128.63, -2626.68, 0.000, 0.000, 0.000, 14:01:44.144
18, -3266.67, -3262.23, -3075.72, -2581.08, 0.000, 0.000, 0.000, 14:01:44.145
19, -3734.91, -3414.55, -3355.12, -2848.01, 0.000, 0.000, 0.000, 14:01:44.145
20, -3703.72, -3450.65, -3334.89, -2788.82, 0.000, 0.000, 0.000, 14:01:44.145
21, -3390.69, -3317.42, -3127.96, -2598.05, 0.000, 0.000, 0.000, 14:01:44.174
22, -3270.68, -3255.24, -3097.92, -2581.76, 0.000, 0.000, 0.000, 14:01:44.174
23, -3736.21, -3428.55, -3380.80, -2832.94, 0.000, 0.000, 0.000, 14:01:44.174
24, -3713.69, -3434.01, -3337.01, -2772.61, 0.000, 0.000, 0.000, 14:01:44.175
25, -3407.35, -3318.30, -3139.83, -2600.45, 0.000, 0.000, 0.000, 14:01:44.175
26, -3267.24, -3272.14, -3097.31, -2575.69, 0.000, 0.000, 0.000, 14:01:44.175
27, -3731.91, -3418.38, -3369.93, -2816.94, 0.000, 0.000, 0.000, 14:01:44.189
28, -3692.05, -3427.32, -3334.01, -2771.43, 0.000, 0.000, 0.000, 14:01:44.189
29, -3402.46, -3319.69, -3123.84, -2612.37, 0.000, 0.000, 0.000, 14:01:44.189
30, -3294.05, -3265.74, -3107.08, -2591.55, 0.000, 0.000, 0.000, 14:01:44.189
31, -3670.38, -3418.67, -3371.70, -2827.30, 0.000, 0.000, 0.000, 14:01:44.204
32, -3666.29, -3422.99, -3314.10, -2781.91, 0.000, 0.000, 0.000, 14:01:44.204
33, -3361.82, -3318.69, -3125.77, -2615.68, 0.000, 0.000, 0.000, 14:01:44.218
34, -3302.79, -3277.94, -3083.63, -2592.69, 0.000, 0.000, 0.000, 14:01:44.219
35, -3786.91, -3427.91, -3364.37, -2836.20, 0.000, 0.000, 0.000, 14:01:44.219
36, -3681.55, -3423.29, -3320.67, -2765.32, 0.000, 0.000, 0.000, 14:01:44.219
37, -3376.09, -3316.47, -3139.14, -2616.22, 0.000, 0.000, 0.000, 14:01:44.234
38, -3304.38, -3269.21, -3091.96, -2594.78, 0.000, 0.000, 0.000, 14:01:44.234
39, -3750.30, -3430.10, -3371.99, -2851.57, 0.000, 0.000, 0.000, 14:01:44.249
40, -3675.93, -3426.81, -3330.57, -2785.61, 0.000, 0.000, 0.000, 14:01:44.249
41, -3389.33, -3306.74, -3123.36, -2633.84, 0.000, 0.000, 0.000, 14:01:44.250
42, -3343.72, -3267.79, -3103.15, -2586.22, 0.000, 0.000, 0.000, 14:01:44.250
43, -3712.95, -3433.35, -3383.38, -2840.53, 0.000, 0.000, 0.000, 14:01:44.264
44, -3643.59, -3426.98, -3314.16, -2782.65, 0.000, 0.000, 0.000, 14:01:44.264
45, -3358.65, -3314.12, -3113.26, -2612.02, 0.000, 0.000, 0.000, 14:01:44.279
46, -3333.29, -3285.41, -3103.65, -2609.75, 0.000, 0.000, 0.000, 14:01:44.279
47, -3780.50, -3442.18, -3383.49, -2864.19, 0.000, 0.000, 0.000, 14:01:44.279
48, -3659.92, -3419.72, -3310.56, -2786.95, 0.000, 0.000, 0.000, 14:01:44.279
49, -3360.79, -3319.20, -3123.34, -2633.11, 0.000, 0.000, 0.000, 14:01:44.295
50, -3359.34, -3281.33, -3109.16, -2608.72, 0.000, 0.000, 0.000, 14:01:44.295
51, -3771.21, -3432.20, -3384.94, -2838.23, 0.000, 0.000, 0.000, 14:01:44.309
52, -3667.23, -3417.88, -3308.02, -2764.53, 0.000, 0.000, 0.000, 14:01:44.309
53, -3340.95, -3311.11, -3117.52, -2598.10, 0.000, 0.000, 0.000, 14:01:44.310
54, -3334.77, -3271.54, -3110.85, -2607.62, 0.000, 0.000, 0.000, 14:01:44.314
55, -3759.49, -3438.99, -3391.04, -2851.07, 0.000, 0.000, 0.000, 14:01:44.339
56, -3671.11, -3425.67, -3298.48, -2766.82, 0.000, 0.000, 0.000, 14:01:44.339
57, -3347.30, -3307.41, -3103.29, -2609.02, 0.000, 0.000, 0.000, 14:01:44.339
58, -3333.68, -3274.51, -3106.32, -2613.36, 0.000, 0.000, 0.000, 14:01:44.339
59, -3781.02, -3444.99, -3373.39, -2818.81, 0.000, 0.000, 0.000, 14:01:44.340
60, -3648.34, -3418.05, -3306.17, -2763.81, 0.000, 0.000, 0.000, 14:01:44.340
61, -3328.44, -3297.34, -3103.10, -2588.28, 0.000, 0.000, 0.000, 14:01:44.354
62, -3317.04, -3273.24, -3107.02, -2614.68, 0.000, 0.000, 0.000, 14:01:44.354
63, -3763.08, -3429.52, -3382.48, -2836.44, 0.000, 0.000, 0.000, 14:01:44.369
64, -3668.42, -3412.58, -3304.41, -2781.51, 0.000, 0.000, 0.000, 14:01:44.369
65, -3335.91, -3299.89, -3113.85, -2595.34, 0.000, 0.000, 0.000, 14:01:44.369
66, -3358.93, -3286.56, -3120.99, -2602.98, 0.000, 0.000, 0.000, 14:01:44.369
67, -3778.90, -3440.87, -3382.54, -2847.57, 0.000, 0.000, 0.000, 14:01:44.414
68, -3658.56, -3418.06, -3308.63, -2761.33, 0.000, 0.000, 0.000, 14:01:44.415
69, -3334.85, -3296.58, -3096.58, -2602.28, 0.000, 0.000, 0.000, 14:01:44.415
70, -3369.05, -3273.23, -3126.51, -2609.81, 0.000, 0.000, 0.000, 14:01:44.415
71, -3752.17, -3439.13, -3380.90, -2851.60, 0.000, 0.000, 0.000, 14:01:44.415
72, -3633.39, -3418.59, -3306.73, -2772.17, 0.000, 0.000, 0.000, 14:01:44.415
73, -3337.97, -3308.39, -3108.13, -2583.97, 0.000, 0.000, 0.000, 14:01:44.415
74, -3377.33, -3299.18, -3132.80, -2618.52, 0.000, 0.000, 0.000, 14:01:44.416
75, -3789.95, -3445.51, -3393.13, -2847.74, 0.000, 0.000, 0.000, 14:01:44.416
76, -3644.02, -3403.43, -3300.63, -2760.61, 0.000, 0.000, 0.000, 14:01:44.416
77, -3333.83, -3299.97, -3101.39, -2578.07, 0.000, 0.000, 0.000, 14:01:44.430
78, -3362.61, -3289.94, -3125.00, -2636.99, 0.000, 0.000, 0.000, 14:01:44.430
79, -3754.92, -3436.32, -3379.02, -2850.03, 0.000, 0.000, 0.000, 14:01:44.459
80, -3630.30, -3415.68, -3294.96, -2765.21, 0.000, 0.000, 0.000, 14:01:44.459
81, -3321.15, -3302.57, -3096.61, -2575.05, 0.000, 0.000, 0.000, 14:01:44.459
82, -3376.10, -3294.32, -3144.25, -2643.83, 0.000, 0.000, 0.000, 14:01:44.459
83, -3786.85, -3434.74, -3384.31, -2844.82, 0.000, 0.000, 0.000, 14:01:44.460
84, -3636.03, -3406.57, -3289.91, -2762.66, 0.000, 0.000, 0.000, 14:01:44.460
85, -3305.23, -3296.66, -3093.47, -2574.36, 0.000, 0.000, 0.000, 14:01:44.474
86, -3376.44, -3296.29, -3149.25, -2634.16, 0.000, 0.000, 0.000, 14:01:44.474
87, -3761.53, -3441.87, -3383.72, -2815.81, 0.000, 0.000, 0.000, 14:01:44.504
88, -3622.39, -3414.68, -3291.61, -2735.42, 0.000, 0.000, 0.000, 14:01:44.504
89, -3316.82, -3300.44, -3095.43, -2604.15, 0.000, 0.000, 0.000, 14:01:44.505
90, -3402.50, -3297.77, -3151.19, -2648.70, 0.000, 0.000, 0.000, 14:01:44.505
91, -3800.57, -3440.03, -3400.22, -2865.97, 0.000, 0.000, 0.000, 14:01:44.505
92, -3652.45, -3404.37, -3299.75, -2770.94, 0.000, 0.000, 0.000, 14:01:44.505
93, -3326.42, -3291.06, -3088.64, -2610.49, 0.000, 0.000, 0.000, 14:01:44.506
94, -3390.50, -3289.94, -3146.28, -2638.99, 0.000, 0.000, 0.000, 14:01:44.506
95, -3803.38, -3443.81, -3395.54, -2851.30, 0.000, 0.000, 0.000, 14:01:44.519
96, -3610.19, -3402.70, -3278.69, -2760.78, 0.000, 0.000, 0.000, 14:01:44.519
97, -3288.80, -3292.75, -3089.81, -2574.25, 0.000, 0.000, 0.000, 14:01:44.534
98, -3366.15, -3303.67, -3161.81, -2653.15, 0.000, 0.000, 0.000, 14:01:44.534
99, -3793.11, -3435.98, -3387.60, -2836.61, 0.000, 0.000, 0.000, 14:01:44.549
100, -3611.00, -3401.27, -3280.15, -2752.60, 0.000, 0.000, 0.000, 14:01:44.549
101, -3320.98, -3292.09, -3089.35, -2579.00, 0.000, 0.000, 0.000, 14:01:44.550
102, -3393.96, -3298.59, -3154.47, -2645.78, 0.000, 0.000, 0.000, 14:01:44.550
103, -3784.36, -3442.49, -3377.58, -2843.75, 0.000, 0.000, 0.000, 14:01:44.579
104, -3586.89, -3416.05, -3282.65, -2752.96, 0.000, 0.000, 0.000, 14:01:44.579
105, -3287.68, -3288.42, -3084.72, -2566.89, 0.000, 0.000, 0.000, 14:01:44.579
106, -3399.37, -3305.48, -3166.07, -2671.31, 0.000, 0.000, 0.000, 14:01:44.579
107, -3804.55, -3453.66, -3406.35, -2849.30, 0.000, 0.000, 0.000, 14:01:44.581
108, -3628.76, -3407.49, -3289.33, -2740.08, 0.000, 0.000, 0.000, 14:01:44.581
109, -3305.36, -3276.49, -3074.27, -2566.63, 0.000, 0.000, 0.000, 14:01:44.595
110, -3435.51, -3300.07, -3157.58, -2653.02, 0.000, 0.000, 0.000, 14:01:44.595
111, -3781.66, -3448.29, -3392.61, -2837.55, 0.000, 0.000, 0.000, 14:01:44.624
112, -3616.36, -3398.61, -3271.71, -2757.42, 0.000, 0.000, 0.000, 14:01:44.624
113, -3282.08, -3281.08, -3068.40, -2559.16, 0.000, 0.000, 0.000, 14:01:44.624
114, -3400.48, -3300.78, -3166.41, -2655.34, 0.000, 0.000, 0.000, 14:01:44.624
115, -3791.22, -3455.45, -3403.60, -2829.35, 0.000, 0.000, 0.000, 14:01:44.625
116, -3626.80, -3407.76, -3279.98, -2743.52, 0.000, 0.000, 0.000, 14:01:44.625
117, -3296.42, -3280.28, -3077.33, -2587.77, 0.000, 0.000, 0.000, 14:01:44.627
118, -3438.52, -3308.99, -3171.88, -2675.31, 0.000, 0.000, 0.000, 14:01:44.627
119, -3788.58, -3447.92, -3392.22, -2860.20, 0.000, 0.000, 0.000, 14:01:44.639
120, -3614.42, -3393.23, -3274.59, -2732.58, 0.000, 0.000, 0.000, 14:01:44.639
121, -3259.88, -3270.71, -3066.56, -2580.79, 0.000, 0.000, 0.000, 14:01:44.654
122, -3424.77, -3327.33, -3198.02, -2686.70, 0.000, 0.000, 0.000, 14:01:44.654
123, -3784.46, -3464.90, -3401.36, -2851.48, 0.000, 0.000, 0.000, 14:01:44.669
124, -3616.23, -3404.19, -3277.30, -2736.43, 0.000, 0.000, 0.000, 14:01:44.669
125, -3291.04, -3276.61, -3075.96, -2562.53, 0.000, 0.000, 0.000, 14:01:44.669
126, -3443.30, -3310.40, -3182.88, -2677.84, 0.000, 0.000, 0.000, 14:01:44.669
127, -3798.68, -3447.68, -3390.74, -2834.80, 0.000, 0.000, 0.000, 14:01:44.690
128, -3611.11, -3405.07, -3276.70, -2749.53, 0.000, 0.000, 0.000, 14:01:44.690
129, -3278.63, -3273.37, -3062.95, -2564.31, 0.000, 0.000, 0.000, 14:01:44.699
130, -3453.49, -3318.71, -3186.60, -2674.85, 0.000, 0.000, 0.000, 14:01:44.699
131, -3774.30, -3452.50, -3396.91, -2863.28, 0.000, 0.000, 0.000, 14:01:44.700
132, -3586.62, -3396.48, -3265.48, -2738.74, 0.000, 0.000, 0.000, 14:01:44.700
133, -3282.58, -3275.61, -3078.87, -2583.20, 0.000, 0.000, 0.000, 14:01:44.745
134, -3442.89, -3308.60, -3198.00, -2671.24, 0.000, 0.000, 0.000, 14:01:44.745
135, -3784.13, -3451.61, -3398.32, -2843.87, 0.000, 0.000, 0.000, 14:01:44.745
136, -3603.16, -3398.45, -3258.31, -2750.95, 0.000, 0.000, 0.000, 14:01:44.745
137, -3309.71, -3279.07, -3074.09, -2567.55, 0.000, 0.000, 0.000, 14:01:44.745
138, -3484.44, -3328.59, -3199.42, -2686.83, 0.000, 0.000, 0.000, 14:01:44.745
139, -3797.02, -3453.05, -3387.43, -2849.63, 0.000, 0.000, 0.000, 14:01:44.746
140, -3607.95, -3412.01, -3269.76, -2715.96, 0.000, 0.000, 0.000, 14:01:44.746
141, -3255.58, -3262.41, -3062.73, -2532.47, 0.000, 0.000, 0.000, 14:01:44.747
142, -3434.82, -3297.91, -3195.73, -2704.68, 0.000, 0.000, 0.000, 14:01:44.747
143, -3779.70, -3451.15, -3391.31, -2860.07, 0.000, 0.000, 0.000, 14:01:44.760
144, -3573.20, -3390.39, -3251.10, -2739.68, 0.000, 0.000, 0.000, 14:01:44.760
145, -3280.80, -3269.34, -3062.62, -2577.20, 0.000, 0.000, 0.000, 14:01:44.789
146, -3470.26, -3325.33, -3203.33, -2693.23, 0.000, 0.000, 0.000, 14:01:44.789
147, -3730.11, -3457.83, -3391.71, -2830.97, 0.000, 0.000, 0.000, 14:01:44.789
148, -3581.93, -3398.27, -3250.95, -2709.65, 0.000, 0.000, 0.000, 14:01:44.789
149, -3271.21, -3255.29, -3047.39, -2550.10, 0.000, 0.000, 0.000, 14:01:44.790
150, -3514.60, -3328.36, -3214.57, -2680.51, 0.000, 0.000, 0.000, 14:01:44.790
151, -3767.97, -3457.76, -3390.28, -2844.61, 0.000, 0.000, 0.000, 14:01:44.804
152, -3598.06, -3390.64, -3256.02, -2737.62, 0.000, 0.000, 0.000, 14:01:44.804
153, -3247.71, -3265.83, -3062.04, -2551.52, 0.000, 0.000, 0.000, 14:01:44.819
154, -3512.44, -3338.79, -3217.03, -2713.21, 0.000, 0.000, 0.000, 14:01:44.819
155, -3775.04, -3457.23, -3394.41, -2828.39, 0.000, 0.000, 0.000, 14:01:44.820
156, -3588.07, -3381.88, -3252.18, -2702.90, 0.000, 0.000, 0.000, 14:01:44.820
157, -3266.84, -3272.49, -3056.72, -2574.21, 0.000, 0.000, 0.000, 14:01:44.834
158, -3490.98, -3334.88, -3216.65, -2695.37, 0.000, 0.000, 0.000, 14:01:44.834
159, -3818.67, -3454.92, -3381.48, -2847.31, 0.000, 0.000, 0.000, 14:01:44.849
160, -3556.88, -3387.99, -3245.93, -2721.55, 0.000, 0.000, 0.000, 14:01:44.849
161, -3281.04, -3267.47, -3066.43, -2577.14, 0.000, 0.000, 0.000, 14:01:44.850
162, -3494.48, -3340.54, -3230.35, -2717.19, 0.000, 0.000, 0.000, 14:01:44.850
163, -3779.69, -3450.49, -3380.46, -2841.32, 0.000, 0.000, 0.000, 14:01:44.865
164, -3558.64, -3385.33, -3235.61, -2714.06, 0.000, 0.000, 0.000, 14:01:44.865
165, -3282.38, -3265.85, -3055.17, -2564.12, 0.000, 0.000, 0.000, 14:01:44.895
166, -3499.78, -3340.50, -3236.03, -2703.44, 0.000, 0.000, 0.000, 14:01:44.895
167, -3698.76, -3460.82, -3378.79, -2821.94, 0.000, 0.000, 0.000, 14:01:44.909
168, -3579.99, -3375.23, -3224.11, -2706.09, 0.000, 0.000, 0.000, 14:01:44.909
169, -3251.45, -3275.89, -3059.67, -2573.32, 0.000, 0.000, 0.000, 14:01:44.910
170, -3577.00, -3345.24, -3237.88, -2711.67, 0.000, 0.000, 0.000, 14:01:44.910
171, -3784.07, -3459.34, -3385.76, -2832.03, 0.000, 0.000, 0.000, 14:01:44.910
172, -3554.31, -3378.79, -3238.37, -2717.82, 0.000, 0.000, 0.000, 14:01:44.910
173, -3243.60, -3255.22, -3049.67, -2571.67, 0.000, 0.000, 0.000, 14:01:44.911
174, -3523.63, -3333.40, -3233.06, -2729.68, 0.000, 0.000, 0.000, 14:01:44.911
175, -3763.65, -3438.47, -3375.93, -2851.03, 0.000, 0.000, 0.000, 14:01:44.924
176, -3540.85, -3377.17, -3222.29, -2699.04, 0.000, 0.000, 0.000, 14:01:44.924
177, -3245.26, -3251.47, -3043.31, -2517.16, 0.000, 0.000, 0.000, 14:01:44.969
178, -3512.23, -3367.73, -3241.65, -2725.66, 0.000, 0.000, 0.000, 14:01:44.969
179, -3773.69, -3460.87, -3392.68, -2859.14, 0.000, 0.000, 0.000, 14:01:44.970
180, -3558.20, -3382.91, -3247.42, -2705.30, 0.000, 0.000, 0.000, 14:01:44.970
181, -3263.05, -3262.83, -3058.12, -2561.24, 0.000, 0.000, 0.000, 14:01:44.970
182, -3507.44, -3344.86, -3246.11, -2720.16, 0.000, 0.000, 0.000, 14:01:44.970
183, -3765.45, -3457.06, -3391.03, -2837.07, 0.000, 0.000, 0.000, 14:01:44.971
184, -3545.73, -3383.49, -3233.90, -2710.69, 0.000, 0.000, 0.000, 14:01:44.971
185, -3227.52, -3252.59, -3040.98, -2543.53, 0.000, 0.000, 0.000, 14:01:44.972
186, -3565.73, -3361.91, -3261.31, -2752.40, 0.000, 0.000, 0.000, 14:01:44.972
187, -3794.87, -3471.26, -3402.38, -2870.14, 0.000, 0.000, 0.000, 14:01:44.984
188, -3501.54, -3394.09, -3226.29, -2719.51, 0.000, 0.000, 0.000, 14:01:44.984
189, -3274.61, -3261.77, -3054.08, -2563.98, 0.000, 0.000, 0.000, 14:01:45.014
190, -3577.17, -3343.23, -3255.15, -2726.85, 0.000, 0.000, 0.000, 14:01:45.015
191, -3785.31, -3444.52, -3372.56, -2842.06, 0.000, 0.000, 0.000, 14:01:45.015
192, -3532.03, -3370.67, -3217.36, -2709.37, 0.000, 0.000, 0.000, 14:01:45.015
193, -3274.40, -3267.85, -3060.89, -2550.51, 0.000, 0.000, 0.000, 14:01:45.015
194, -3577.27, -3360.93, -3252.88, -2717.53, 0.000, 0.000, 0.000, 14:01:45.015
195, -3782.15, -3440.60, -3371.07, -2821.80, 0.000, 0.000, 0.000, 14:01:45.016
196, -3511.51, -3363.16, -3224.66, -2709.05, 0.000, 0.000, 0.000, 14:01:45.016
197, -3236.72, -3252.19, -3063.75, -2555.13, 0.000, 0.000, 0.000, 14:01:45.029
198, -3567.05, -3349.15, -3258.54, -2741.23, 0.000, 0.000, 0.000, 14:01:45.029
199, -3782.86, -3464.25, -3390.05, -2827.50, 0.000, 0.000, 0.000, 14:01:45.059
200, -3507.40, -3365.44, -3226.12, -2693.22, 0.000, 0.000, 0.000, 14:01:45.059
0, -3269.57, -3262.70, -3051.64, -2550.13, 0.000, 0.000, 0.000, 14:01:45.059
1, -3611.06, -3355.78, -3267.80, -2721.97, 0.000, 0.000, 0.000, 14:01:45.060
2, -3791.59, -3453.88, -3383.51, -2830.71, 0.000, 0.000, 0.000, 14:01:45.060
3, -3513.01, -3363.47, -3219.31, -2707.96, 0.000, 0.000, 0.000, 14:01:45.061
4, -3240.28, -3257.16, -3050.17, -2551.53, 0.000, 0.000, 0.000, 14:01:45.061
5, -3580.17, -3365.54, -3277.81, -2761.75, 0.000, 0.000, 0.000, 14:01:45.082
6, -3776.43, -3450.80, -3387.88, -2839.64, 0.000, 0.000, 0.000, 14:01:45.082
7, -3503.90, -3359.98, -3212.04, -2681.06, 0.000, 0.000, 0.000, 14:01:45.089
8, -3248.94, -3249.35, -3054.56, -2544.55, 0.000, 0.000, 0.000, 14:01:45.089
9, -3591.98, -3345.63, -3270.01, -2727.70, 0.000, 0.000, 0.000, 14:01:45.103
10, -3757.76, -3444.02, -3367.73, -2828.48, 0.000, 0.000, 0.000, 14:01:45.104
11, -3516.99, -3370.94, -3218.00, -2693.75, 0.000, 0.000, 0.000, 14:01:45.134
12, -3255.54, -3269.47, -3051.87, -2565.52, 0.000, 0.000, 0.000, 14:01:45.134
13, -3621.85, -3357.41, -3274.33, -2750.33, 0.000, 0.000, 0.000, 14:01:45.134
14, -3740.15, -3442.59, -3366.69, -2831.30, 0.000, 0.000, 0.000, 14:01:45.134
15, -3475.65, -3354.40, -3207.27, -2673.90, 0.000, 0.000, 0.000, 14:01:45.135
16, -3260.59, -3260.00, -3056.50, -2544.50, 0.000, 0.000, 0.000, 14:01:45.135
17, -3616.18, -3371.88, -3288.01, -2759.85, 0.000, 0.000, 0.000, 14:01:45.136
18, -3746.56, -3440.16, -3363.23, -2834.38, 0.000, 0.000, 0.000, 14:01:45.136
19, -3498.63, -3377.78, -3222.67, -2692.68, 0.000, 0.000, 0.000, 14:01:45.149
20, -3239.35, -3257.10, -3062.99, -2544.42, 0.000, 0.000, 0.000, 14:01:45.149
21, -3595.72, -3374.57, -3279.83, -2766.60, 0.000, 0.000, 0.000, 14:01:45.179
22, -3762.03, -3447.46, -3368.26, -2828.90, 0.000, 0.000, 0.000, 14:01:45.179
23, -3500.23, -3356.43, -3202.51, -2692.43, 0.000, 0.000, 0.000, 14:01:45.180
24, -3273.64, -3258.54, -3070.57, -2540.54, 0.000, 0.000, 0.000, 14:01:45.180
25, -3599.98, -3361.40, -3285.30, -2750.25, 0.000, 0.000, 0.000, 14:01:45.181
26, -3736.36, -3461.07, -3359.61, -2812.84, 0.000, 0.000, 0.000, 14:01:45.182
27, -3497.78, -3376.82, -3197.33, -2722.96, 0.000, 0.000, 0.000, 14:01:45.182
28, -3265.28, -3260.56, -3052.09, -2532.73, 0.000, 0.000, 0.000, 14:01:45.182
29, -3604.10, -3382.87, -3290.44, -2763.08, 0.000, 0.000, 0.000, 14:01:45.194
30, -3739.42, -3490.79, -3369.83, -2822.49, 0.000, 0.000, 0.000, 14:01:45.194
31, -3453.04, -3366.08, -3189.35, -2666.34, 0.000, 0.000, 0.000, 14:01:45.209
32, -3219.71, -3265.45, -3041.71, -2567.18, 0.000, 0.000, 0.000, 14:01:45.209
33, -3582.61, -3368.26, -3289.25, -2754.74, 0.000, 0.000, 0.000, 14:01:45.224
34, -3664.58, -3469.53, -3371.10, -2801.33, 0.000, 0.000, 0.000, 14:01:45.224
35, -3413.21, -3388.35, -3185.98, -2676.56, 0.000, 0.000, 0.000, 14:01:45.225
36, -3165.80, -3296.02, -3049.58, -2532.22, 0.000, 0.000, 0.000, 14:01:45.225
37, -3564.03, -3430.78, -3301.96, -2751.44, 0.000, 0.000, 0.000, 14:01:45.254
38, -3623.99, -3520.74, -3359.25, -2800.68, 0.000, 0.000, 0.000, 14:01:45.256
39, -3411.90, -3421.10, -3179.39, -2650.88, 0.000, 0.000, 0.000, 14:01:45.256
40, -3118.90, -3330.61, -3051.60, -2552.63, 0.000, 0.000, 0.000, 14:01:45.256
41, -3500.25, -3445.43, -3308.48, -2758.79, 0.000, 0.000, 0.000, 14:01:45.256
42, -3580.20, -3501.66, -3366.74, -2840.71, 0.000, 0.000, 0.000, 14:01:45.256
43, -3415.00, -3393.10, -3187.77, -2674.42, 0.000, 0.000, 0.000, 14:01:45.269
44, -3251.89, -3290.64, -3053.96, -2548.77, 0.000, 0.000, 0.000, 14:01:45.269
45, -3577.07, -3407.42, -3307.83, -2753.46, 0.000, 0.000, 0.000, 14:01:45.284
46, -3795.77, -3453.81, -3366.89, -2827.70, 0.000, 0.000, 0.000, 14:01:45.284
47, -3446.66, -3358.98, -3207.44, -2674.48, 0.000, 0.000, 0.000, 14:01:45.284
48, -3290.66, -3264.67, -3074.47, -2576.83, 0.000, 0.000, 0.000, 14:01:45.284
49, -3653.58, -3382.29, -3322.55, -2805.29, 0.000, 0.000, 0.000, 14:01:45.299
50, -3770.26, -3440.23, -3363.75, -2829.68, 0.000, 0.000, 0.000, 14:01:45.299
51, -3523.97, -3342.04, -3181.18, -2676.98, 0.000, 0.000, 0.000, 14:01:45.315
52, -3339.71, -3244.04, -3056.88, -2582.92, 0.000, 0.000, 0.000, 14:01:45.315
53, -3728.61, -3362.03, -3316.65, -2776.18, 0.000, 0.000, 0.000, 14:01:45.315
54, -3816.41, -3419.31, -3371.77, -2815.51, 0.000, 0.000, 0.000, 14:01:45.315
55, -3464.54, -3335.07, -3183.26, -2676.72, 0.000, 0.000, 0.000, 14:01:45.345
56, -3298.88, -3236.18, -3073.10, -2565.47, 0.000, 0.000, 0.000, 14:01:45.345
57, -3711.42, -3369.79, -3335.21, -2794.06, 0.000, 0.000, 0.000, 14:01:45.345
58, -3712.57, -3422.60, -3358.61, -2825.71, 0.000, 0.000, 0.000, 14:01:45.345
59, -3516.04, -3326.68, -3175.67, -2666.15, 0.000, 0.000, 0.000, 14:01:45.345
60, -3254.05, -3232.40, -3058.46, -2564.51, 0.000, 0.000, 0.000, 14:01:45.345
61, -3790.58, -3374.70, -3323.55, -2820.32, 0.000, 0.000, 0.000, 14:01:45.359
62, -3851.22, -3432.84, -3365.85, -2826.02, 0.000, 0.000, 0.000, 14:01:45.359
63, -3511.03, -3339.09, -3185.96, -2672.60, 0.000, 0.000, 0.000, 14:01:45.374
64, -3218.97, -3250.55, -3061.35, -2552.68, 0.000, 0.000, 0.000, 14:01:45.374
65, -3769.60, -3363.72, -3317.39, -2782.17, 0.000, 0.000, 0.000, 14:01:45.375
66, -3763.91, -3436.54, -3361.88, -2823.14, 0.000, 0.000, 0.000, 14:01:45.375
67, -3459.74, -3335.90, -3175.17, -2645.28, 0.000, 0.000, 0.000, 14:01:45.404
68, -3366.11, -3257.08, -3083.02, -2583.01, 0.000, 0.000, 0.000, 14:01:45.404
69, -3736.35, -3407.39, -3350.47, -2806.71, 0.000, 0.000, 0.000, 14:01:45.404
70, -3728.22, -3440.02, -3358.06, -2806.85, 0.000, 0.000, 0.000, 14:01:45.405
71, -3482.11, -3327.46, -3175.05, -2631.81, 0.000, 0.000, 0.000, 14:01:45.412
72, -3219.87, -3253.49, -3079.12, -2596.62, 0.000, 0.000, 0.000, 14:01:45.412
73, -3713.20, -3397.53, -3341.96, -2813.22, 0.000, 0.000, 0.000, 14:01:45.419
74, -3792.75, -3421.34, -3346.03, -2804.15, 0.000, 0.000, 0.000, 14:01:45.419
75, -3433.39, -3340.41, -3173.47, -2667.01, 0.000, 0.000, 0.000, 14:01:45.450
76, -3278.83, -3254.75, -3073.80, -2583.74, 0.000, 0.000, 0.000, 14:01:45.450
77, -3717.29, -3395.11, -3347.53, -2825.62, 0.000, 0.000, 0.000, 14:01:45.451
78, -3753.09, -3429.22, -3349.28, -2833.91, 0.000, 0.000, 0.000, 14:01:45.451
79, -3416.64, -3331.39, -3169.45, -2624.56, 0.000, 0.000, 0.000, 14:01:45.452
80, -3294.25, -3261.37, -3073.26, -2588.15, 0.000, 0.000, 0.000, 14:01:45.452
81, -3726.87, -3407.77, -3351.45, -2820.05, 0.000, 0.000, 0.000, 14:01:45.465
82, -3738.19, -3432.40, -3342.18, -2798.33, 0.000, 0.000, 0.000, 14:01:45.465
83, -3378.19, -3308.76, -3148.68, -2627.09, 0.000, 0.000, 0.000, 14:01:45.465
84, -3285.54, -3259.22, -3075.11, -2580.00, 0.000, 0.000, 0.000, 14:01:45.465
85, -3719.37, -3403.59, -3353.70, -2821.67, 0.000, 0.000, 0.000, 14:01:45.479
86, -3746.73, -3431.24, -3353.74, -2817.32, 0.000, 0.000, 0.000, 14:01:45.479
87, -3381.78, -3324.61, -3154.62, -2644.14, 0.000, 0.000, 0.000, 14:01:45.495
88, -3328.35, -3248.76, -3061.76, -2573.47, 0.000, 0.000, 0.000, 14:01:45.495
89, -3725.21, -3395.50, -3340.65, -2811.42, 0.000, 0.000, 0.000, 14:01:45.509
90, -3708.08, -3428.51, -3339.13, -2809.51, 0.000, 0.000, 0.000, 14:01:45.509
91, -3455.51, -3323.29, -3157.17, -2649.09, 0.000, 0.000, 0.000, 14:01:45.524
92, -3263.57, -3261.81, -3070.97, -2581.08, 0.000, 0.000, 0.000, 14:01:45.524
93, -3689.77, -3400.79, -3342.20, -2785.71, 0.000, 0.000, 0.000, 14:01:45.525
94, -3727.30, -3431.08, -3340.15, -2774.96, 0.000, 0.000, 0.000, 14:01:45.525
95, -3398.93, -3332.22, -3142.43, -2637.85, 0.000, 0.000, 0.000, 14:01:45.525
96, -3291.84, -3250.38, -3066.27, -2584.07, 0.000, 0.000, 0.000, 14:01:45.525
97, -3659.75, -3409.98, -3352.33, -2818.98, 0.000, 0.000, 0.000, 14:01:45.539
98, -3704.43, -3430.60, -3334.00, -2820.07, 0.000, 0.000, 0.000, 14:01:45.539
99, -3464.53, -3321.44, -3156.60, -2635.34, 0.000, 0.000, 0.000, 14:01:45.569
100, -3294.93, -3253.01, -3086.59, -2572.87, 0.000, 0.000, 0.000, 14:01:45.569
101, -3725.43, -3416.41, -3373.49, -2760.89, 0.000, 0.000, 0.000, 14:01:45.570
102, -3702.93, -3430.90, -3330.64, -2721.52, 0.000, 0.000, 0.000, 14:01:45.570
103, -3383.77, -3315.39, -3142.55, -2568.84, 0.000, 0.000, 0.000, 14:01:45.570
104, -3300.75, -3269.43, -3090.02, -2510.98, 0.000, 0.000, 0.000, 14:01:45.571
105, -3730.21, -3413.49, -3357.61, -2763.15, 0.000, 0.000, 0.000, 14:01:45.571
106, -3696.01, -3438.12, -3343.39, -2751.82, 0.000, 0.000, 0.000, 14:01:45.571
107, -3413.30, -3329.14, -3158.79, -2586.45, 0.000, 0.000, 0.000, 14:01:45.584
108, -3315.55, -3263.30, -3098.94, -2549.98, 0.000, 0.000, 0.000, 14:01:45.584
109, -3724.20, -3423.37, -3379.10, -2806.20, 0.000, 0.000, 0.000, 14:01:45.615
110, -3714.68, -3423.28, -3327.98, -2800.30, 0.000, 0.000, 0.000, 14:01:45.615
111, -3415.44, -3314.03, -3133.65, -2593.07, 0.000, 0.000, 0.000, 14:01:45.615
112, -3366.24, -3282.84, -3096.27, -2571.56, 0.000, 0.000, 0.000, 14:01:45.615
113, -3790.62, -3426.49, -3381.83, -2799.34, 0.000, 0.000, 0.000, 14:01:45.615
114, -3688.38, -3436.03, -3339.80, -2773.30, 0.000, 0.000, 0.000, 14:01:45.616
115, -3381.94, -3321.26, -3135.10, -2610.20, 0.000, 0.000, 0.000, 14:01:45.644
116, -3194.67, -3265.46, -3092.95, -2549.89, 0.000, 0.000, 0.000, 14:01:45.644
117, -3765.30, -3421.90, -3363.50, -2828.04, 0.000, 0.000, 0.000, 14:01:45.645
118, -3695.22, -3426.28, -3337.25, -2788.75, 0.000, 0.000, 0.000, 14:01:45.645
119, -3379.71, -3318.19, -3124.20, -2622.78, 0.000, 0.000, 0.000, 14:01:45.645
120, -3324.30, -3266.96, -3092.52, -2568.20, 0.000, 0.000, 0.000, 14:01:45.645
121, -3760.32, -3425.41, -3382.17, -2831.10, 0.000, 0.000, 0.000, 14:01:45.660
122, -3701.94, -3429.68, -3326.58, -2797.54, 0.000, 0.000, 0.000, 14:01:45.660
123, -3400.81, -3319.61, -3134.32, -2602.32, 0.000, 0.000, 0.000, 14:01:45.674
124, -3312.93, -3266.83, -3092.39, -2594.76, 0.000, 0.000, 0.000, 14:01:45.674
125, -3762.78, -3417.03, -3373.04, -2833.98, 0.000, 0.000, 0.000, 14:01:45.674
126, -3661.86, -3417.52, -3318.77, -2771.34, 0.000, 0.000, 0.000, 14:01:45.674
127, -3361.41, -3314.03, -3117.44, -2605.07, 0.000, 0.000, 0.000, 14:01:45.689
128, -3308.73, -3268.21, -3109.10, -2589.80, 0.000, 0.000, 0.000, 14:01:45.689
129, -3766.10, -3431.13, -3391.66, -2834.46, 0.000, 0.000, 0.000, 14:01:45.704
130, -3681.41, -3425.03, -3324.47, -2775.21, 0.000, 0.000, 0.000, 14:01:45.704
131, -3368.43, -3317.14, -3127.02, -2608.23, 0.000, 0.000, 0.000, 14:01:45.705
132, -3284.18, -3268.23, -3098.40, -2600.20, 0.000, 0.000, 0.000, 14:01:45.705
133, -3742.15, -3428.24, -3369.01, -2827.75, 0.000, 0.000, 0.000, 14:01:45.719
134, -3672.65, -3422.44, -3317.78, -2796.78, 0.000, 0.000, 0.000, 14:01:45.719
135, -3364.78, -3316.28, -3135.29, -2601.48, 0.000, 0.000, 0.000, 14:01:45.733
136, -3336.32, -3278.34, -3111.63, -2604.28, 0.000, 0.000, 0.000, 14:01:45.733
137, -3847.77, -3435.04, -3389.04, -2864.51, 0.000, 0.000, 0.000, 14:01:45.734
138, -3727.54, -3422.52, -3326.46, -2784.79, 0.000, 0.000, 0.000, 14:01:45.734
139, -3302.46, -3307.15, -3120.60, -2559.44, 0.000, 0.000, 0.000, 14:01:45.749
140, -3338.62, -3276.39, -3104.85, -2593.04, 0.000, 0.000, 0.000, 14:01:45.749
141, -3746.41, -3421.39, -3379.51, -2833.03, 0.000, 0.000, 0.000, 14:01:45.766
142, -3634.11, -3423.46, -3317.00, -2781.57, 0.000, 0.000, 0.000, 14:01:45.766
143, -3333.83, -3316.51, -3124.58, -2586.87, 0.000, 0.000, 0.000, 14:01:45.766
144, -3342.55, -3283.27, -3118.32, -2614.21, 0.000, 0.000, 0.000, 14:01:45.766
145, -3771.97, -3439.33, -3380.12, -2856.60, 0.000, 0.000, 0.000, 14:01:45.787
146, -3671.19, -3431.86, -3317.05, -2787.80, 0.000, 0.000, 0.000, 14:01:45.787
147, -3313.67, -3295.26, -3113.90, -2603.79, 0.000, 0.000, 0.000, 14:01:45.809
148, -3349.55, -3279.77, -3116.07, -2617.50, 0.000, 0.000, 0.000, 14:01:45.809
149, -3758.88, -3427.00, -3381.87, -2837.66, 0.000, 0.000, 0.000, 14:01:45.811
150, -3700.52, -3419.52, -3309.20, -2804.40, 0.000, 0.000, 0.000, 14:01:45.812
151, -3316.85, -3299.03, -3097.19, -2579.47, 0.000, 0.000, 0.000, 14:01:45.812
152, -3324.51, -3289.95, -3122.66, -2612.50, 0.000, 0.000, 0.000, 14:01:45.812
153, -3736.71, -3448.64, -3386.40, -2861.20, 0.000, 0.000, 0.000, 14:01:45.812
154, -3674.37, -3414.41, -3313.04, -2776.59, 0.000, 0.000, 0.000, 14:01:45.812
155, -3368.24, -3304.06, -3119.54, -2600.34, 0.000, 0.000, 0.000, 14:01:45.824
156, -3355.11, -3281.95, -3118.50, -2627.68, 0.000, 0.000, 0.000, 14:01:45.824
157, -3773.71, -3442.96, -3382.94, -2837.44, 0.000, 0.000, 0.000, 14:01:45.853
158, -3652.34, -3413.07, -3299.44, -2775.47, 0.000, 0.000, 0.000, 14:01:45.854
159, -3349.23, -3306.14, -3101.99, -2603.03, 0.000, 0.000, 0.000, 14:01:45.854
160, -3352.21, -3281.55, -3124.96, -2617.59, 0.000, 0.000, 0.000, 14:01:45.854
161, -3779.71, -3436.03, -3381.18, -2855.49, 0.000, 0.000, 0.000, 14:01:45.855
162, -3664.98, -3420.31, -3301.82, -2771.80, 0.000, 0.000, 0.000, 14:01:45.855
163, -3378.11, -3307.48, -3114.19, -2617.26, 0.000, 0.000, 0.000, 14:01:45.869
164, -3320.72, -3289.10, -3136.55, -2617.22, 0.000, 0.000, 0.000, 14:01:45.869
165, -3758.90, -3442.26, -3392.63, -2852.12, 0.000, 0.000, 0.000, 14:01:45.884
166, -3700.30, -3421.58, -3300.63, -2758.39, 0.000, 0.000, 0.000, 14:01:45.884
167, -3311.53, -3295.60, -3103.58, -2603.30, 0.000, 0.000, 0.000, 14:01:45.898
168, -3332.72, -3274.75, -3123.49, -2614.85, 0.000, 0.000, 0.000, 14:01:45.898
169, -3758.31, -3434.74, -3374.04, -2831.86, 0.000, 0.000, 0.000, 14:01:45.899
170, -3639.50, -3409.88, -3294.88, -2777.46, 0.000, 0.000, 0.000, 14:01:45.899
171, -3313.54, -3286.90, -3094.07, -2575.08, 0.000, 0.000, 0.000, 14:01:45.915
172, -3392.32, -3297.76, -3141.47, -2635.55, 0.000, 0.000, 0.000, 14:01:45.915
173, -3794.81, -3450.43, -3391.02, -2849.18, 0.000, 0.000, 0.000, 14:01:45.915
174, -3647.86, -3416.35, -3299.32, -2761.10, 0.000, 0.000, 0.000, 14:01:45.915
175, -3325.30, -3284.16, -3090.73, -2569.07, 0.000, 0.000, 0.000, 14:01:45.930
176, -3379.13, -3285.88, -3141.87, -2645.43, 0.000, 0.000, 0.000, 14:01:45.930
177, -3797.87, -3439.16, -3396.09, -2847.57, 0.000, 0.000, 0.000, 14:01:45.944
178, -3653.53, -3415.99, -3299.91, -2762.58, 0.000, 0.000, 0.000, 14:01:45.944
179, -3302.09, -3287.87, -3086.04, -2579.62, 0.000, 0.000, 0.000, 14:01:45.945
180, -3380.35, -3292.18, -3147.34, -2645.20, 0.000, 0.000, 0.000, 14:01:45.945
181, -3779.94, -3445.61, -3395.77, -2850.55, 0.000, 0.000, 0.000, 14:01:45.960
182, -3626.16, -3413.57, -3293.97, -2754.44, 0.000, 0.000, 0.000, 14:01:45.960
183, -3292.29, -3295.64, -3092.35, -2568.63, 0.000, 0.000, 0.000, 14:01:45.974
184, -3384.08, -3281.95, -3148.16, -2607.34, 0.000, 0.000, 0.000, 14:01:45.974
185, -3752.17, -3437.63, -3385.32, -2859.85, 0.000, 0.000, 0.000, 14:01:45.975
186, -3634.05, -3423.48, -3299.43, -2781.69, 0.000, 0.000, 0.000, 14:01:45.975
187, -3323.44, -3294.84, -3094.12, -2580.28, 0.000, 0.000, 0.000, 14:01:46.003
188, -3418.24, -3293.62, -3154.67, -2639.69, 0.000, 0.000, 0.000, 14:01:46.004
189, -3789.65, -3444.63, -3395.75, -2854.96, 0.000, 0.000, 0.000, 14:01:46.019
190, -3615.59, -3398.10, -3283.11, -2756.25, 0.000, 0.000, 0.000, 14:01:46.019
191, -3291.91, -3281.81, -3076.40, -2568.67, 0.000, 0.000, 0.000, 14:01:46.020
192, -3385.41, -3310.33, -3161.56, -2651.68, 0.000, 0.000, 0.000, 14:01:46.020
193, -3792.89, -3455.19, -3390.76, -2855.63, 0.000, 0.000, 0.000, 14:01:46.020
194, -3546.56, -3405.32, -3298.59, -2755.33, 0.000, 0.000, 0.000, 14:01:46.020
195, -3299.17, -3275.54, -3093.82, -2566.23, 0.000, 0.000, 0.000, 14:01:46.021
196, -3400.43, -3308.61, -3171.51, -2650.47, 0.000, 0.000, 0.000, 14:01:46.021
197, -3840.75, -3452.68, -3390.44, -2857.56, 0.000, 0.000, 0.000, 14:01:46.034
198, -3626.72, -3413.44, -3277.97, -2752.17, 0.000, 0.000, 0.000, 14:01:46.034
199, -3261.79, -3276.88, -3078.13, -2579.25, 0.000, 0.000, 0.000, 14:01:46.079
200, -3426.13, -3300.03, -3174.88, -2673.42, 0.000, 0.000, 0.000, 14:01:46.079
0, -3798.75, -3443.30, -3403.83, -2845.41, 0.000, 0.000, 0.000, 14:01:46.079
1, -3613.29, -3409.93, -3284.83, -2749.33, 0.000, 0.000, 0.000, 14:01:46.081
2, -3287.86, -3287.98, -3077.44, -2573.26, 0.000, 0.000, 0.000, 14:01:46.081
3, -3434.23, -3312.42, -3165.87, -2649.77, 0.000, 0.000, 0.000, 14:01:46.081
4, -3785.31, -3457.49, -3397.58, -2851.65, 0.000, 0.000, 0.000, 14:01:46.082
5, -3610.51, -3408.62, -3287.44, -2760.34, 0.000, 0.000, 0.000, 14:01:46.082
6, -3302.51, -3275.65, -3071.86, -2571.66, 0.000, 0.000, 0.000, 14:01:46.082
7, -3434.10, -3312.39, -3180.07, -2658.05, 0.000, 0.000, 0.000, 14:01:46.094
8, -3791.48, -3454.02, -3405.02, -2858.93, 0.000, 0.000, 0.000, 14:01:46.094
9, -3589.69, -3399.06, -3274.09, -2732.26, 0.000, 0.000, 0.000, 14:01:46.124
10, -3282.18, -3273.10, -3073.40, -2583.02, 0.000, 0.000, 0.000, 14:01:46.124
11, -3441.41, -3303.79, -3172.64, -2661.69, 0.000, 0.000, 0.000, 14:01:46.125
12, -3777.24, -3446.11, -3394.90, -2843.92, 0.000, 0.000, 0.000, 14:01:46.125
13, -3616.89, -3394.89, -3277.45, -2736.69, 0.000, 0.000, 0.000, 14:01:46.125
14, -3295.67, -3293.15, -3082.68, -2571.83, 0.000, 0.000, 0.000, 14:01:46.125
15, -3457.12, -3330.23, -3192.92, -2672.08, 0.000, 0.000, 0.000, 14:01:46.126
16, -3804.27, -3463.23, -3399.98, -2875.21, 0.000, 0.000, 0.000, 14:01:46.126
17, -3616.81, -3396.59, -3278.55, -2738.12, 0.000, 0.000, 0.000, 14:01:46.146
18, -3279.25, -3277.21, -3077.82, -2584.34, 0.000, 0.000, 0.000, 14:01:46.146
19, -3463.32, -3310.68, -3188.24, -2669.25, 0.000, 0.000, 0.000, 14:01:46.169
20, -3785.30, -3438.09, -3381.48, -2839.52, 0.000, 0.000, 0.000, 14:01:46.169
21, -3574.77, -3397.30, -3253.22, -2741.23, 0.000, 0.000, 0.000, 14:01:46.169
22, -3282.68, -3282.34, -3079.05, -2587.09, 0.000, 0.000, 0.000, 14:01:46.169
23, -3481.99, -3324.62, -3205.75, -2686.67, 0.000, 0.000, 0.000, 14:01:46.170
24, -3771.66, -3459.65, -3404.07, -2856.79, 0.000, 0.000, 0.000, 14:01:46.170
25, -3582.37, -3390.69, -3273.09, -2729.05, 0.000, 0.000, 0.000, 14:01:46.200
26, -3271.57, -3268.83, -3066.13, -2564.30, 0.000, 0.000, 0.000, 14:01:46.200
27, -3452.75, -3313.95, -3192.37, -2679.08, 0.000, 0.000, 0.000, 14:01:46.200
28, -3785.66, -3463.79, -3401.61, -2830.51, 0.000, 0.000, 0.000, 14:01:46.200
29, -3596.38, -3392.98, -3270.92, -2750.86, 0.000, 0.000, 0.000, 14:01:46.201
30, -3290.70, -3277.12, -3072.21, -2580.88, 0.000, 0.000, 0.000, 14:01:46.201
31, -3467.66, -3317.46, -3194.43, -2708.11, 0.000, 0.000, 0.000, 14:01:46.215
32, -3807.28, -3461.35, -3399.44, -2849.58, 0.000, 0.000, 0.000, 14:01:46.215
33, -3603.72, -3397.43, -3258.93, -2741.46, 0.000, 0.000, 0.000, 14:01:46.230
34, -3271.66, -3272.01, -3063.49, -2564.60, 0.000, 0.000, 0.000, 14:01:46.230
35, -3495.54, -3335.34, -3220.34, -2684.99, 0.000, 0.000, 0.000, 14:01:46.230
36, -3813.73, -3455.93, -3401.67, -2863.69, 0.000, 0.000, 0.000, 14:01:46.230
37, -3576.57, -3387.47, -3248.97, -2744.42, 0.000, 0.000, 0.000, 14:01:46.244
38, -3265.60, -3282.32, -3069.54, -2570.61, 0.000, 0.000, 0.000, 14:01:46.245
39, -3503.74, -3318.33, -3215.54, -2704.90, 0.000, 0.000, 0.000, 14:01:46.260
40, -3784.62, -3440.80, -3390.03, -2845.46, 0.000, 0.000, 0.000, 14:01:46.260
41, -3578.67, -3391.29, -3259.54, -2707.74, 0.000, 0.000, 0.000, 14:01:46.260
42, -3275.03, -3268.40, -3064.26, -2561.95, 0.000, 0.000, 0.000, 14:01:46.261
43, -3500.60, -3334.92, -3214.24, -2709.04, 0.000, 0.000, 0.000, 14:01:46.289
44, -3779.47, -3466.14, -3399.82, -2828.26, 0.000, 0.000, 0.000, 14:01:46.289
45, -3569.42, -3392.66, -3258.93, -2720.95, 0.000, 0.000, 0.000, 14:01:46.289
46, -3253.40, -3262.95, -3063.15, -2562.44, 0.000, 0.000, 0.000, 14:01:46.289
47, -3507.15, -3328.97, -3219.19, -2678.61, 0.000, 0.000, 0.000, 14:01:46.290
48, -3778.69, -3441.00, -3379.42, -2823.84, 0.000, 0.000, 0.000, 14:01:46.290
49, -3570.88, -3394.48, -3256.26, -2748.91, 0.000, 0.000, 0.000, 14:01:46.304
50, -3275.44, -3270.37, -3070.07, -2568.69, 0.000, 0.000, 0.000, 14:01:46.304
51, -3513.57, -3329.70, -3221.37, -2720.56, 0.000, 0.000, 0.000, 14:01:46.333
52, -3801.19, -3457.22, -3391.62, -2838.09, 0.000, 0.000, 0.000, 14:01:46.333
53, -3565.60, -3386.55, -3259.80, -2719.01, 0.000, 0.000, 0.000, 14:01:46.334
54, -3249.76, -3258.50, -3060.70, -2561.68, 0.000, 0.000, 0.000, 14:01:46.334
55, -3498.82, -3342.42, -3234.63, -2709.08, 0.000, 0.000, 0.000, 14:01:46.335
56, -3748.48, -3445.58, -3384.02, -2866.04, 0.000, 0.000, 0.000, 14:01:46.335
57, -3558.88, -3382.49, -3243.49, -2681.49, 0.000, 0.000, 0.000, 14:01:46.335
58, -3231.62, -3264.78, -3062.16, -2545.45, 0.000, 0.000, 0.000, 14:01:46.335
59, -3524.85, -3341.50, -3245.58, -2725.83, 0.000, 0.000, 0.000, 14:01:46.365
60, -3789.67, -3442.77, -3377.61, -2845.03, 0.000, 0.000, 0.000, 14:01:46.365
61, -3551.26, -3381.36, -3235.75, -2719.56, 0.000, 0.000, 0.000, 14:01:46.365
62, -3246.71, -3259.11, -3055.50, -2515.17, 0.000, 0.000, 0.000, 14:01:46.365
63, -3530.15, -3348.10, -3245.57, -2729.73, 0.000, 0.000, 0.000, 14:01:46.394
64, -3787.59, -3451.25, -3389.15, -2831.15, 0.000, 0.000, 0.000, 14:01:46.394
65, -3560.61, -3397.79, -3247.89, -2725.01, 0.000, 0.000, 0.000, 14:01:46.394
66, -3253.62, -3259.33, -3064.08, -2560.20, 0.000, 0.000, 0.000, 14:01:46.394
67, -3520.86, -3352.23, -3237.24, -2720.23, 0.000, 0.000, 0.000, 14:01:46.395
68, -3779.88, -3457.73, -3378.81, -2847.36, 0.000, 0.000, 0.000, 14:01:46.395
69, -3527.42, -3381.29, -3241.78, -2716.57, 0.000, 0.000, 0.000, 14:01:46.409
70, -3257.90, -3268.18, -3063.63, -2553.44, 0.000, 0.000, 0.000, 14:01:46.409
71, -3538.00, -3351.41, -3249.34, -2729.39, 0.000, 0.000, 0.000, 14:01:46.410
72, -3793.39, -3457.39, -3384.73, -2863.73, 0.000, 0.000, 0.000, 14:01:46.410
73, -3544.24, -3381.16, -3238.72, -2690.80, 0.000, 0.000, 0.000, 14:01:46.424
74, -3251.14, -3261.90, -3064.90, -2571.13, 0.000, 0.000, 0.000, 14:01:46.424
75, -3563.45, -3341.27, -3248.58, -2722.50, 0.000, 0.000, 0.000, 14:01:46.439
76, -3787.97, -3451.49, -3384.56, -2875.98, 0.000, 0.000, 0.000, 14:01:46.439
77, -3532.07, -3368.49, -3228.97, -2703.55, 0.000, 0.000, 0.000, 14:01:46.440
78, -3230.83, -3257.87, -3050.05, -2567.46, 0.000, 0.000, 0.000, 14:01:46.440
79, -3593.73, -3358.08, -3264.36, -2725.93, 0.000, 0.000, 0.000, 14:01:46.454
80, -3784.44, -3457.27, -3392.47, -2837.24, 0.000, 0.000, 0.000, 14:01:46.454
81, -3499.95, -3380.13, -3237.10, -2693.90, 0.000, 0.000, 0.000, 14:01:46.469
82, -3238.31, -3264.12, -3051.38, -2549.34, 0.000, 0.000, 0.000, 14:01:46.469
83, -3556.86, -3347.67, -3254.30, -2749.34, 0.000, 0.000, 0.000, 14:01:46.469
84, -3785.47, -3438.86, -3374.63, -2838.96, 0.000, 0.000, 0.000, 14:01:46.470
85, -3546.45, -3380.71, -3230.22, -2707.63, 0.000, 0.000, 0.000, 14:01:46.484
86, -3258.72, -3268.36, -3055.25, -2566.51, 0.000, 0.000, 0.000, 14:01:46.484
87, -3578.35, -3358.04, -3259.75, -2762.66, 0.000, 0.000, 0.000, 14:01:46.499
88, -3748.76, -3452.56, -3381.52, -2837.16, 0.000, 0.000, 0.000, 14:01:46.499
89, -3505.09, -3375.50, -3224.83, -2680.01, 0.000, 0.000, 0.000, 14:01:46.499
90, -3264.29, -3258.79, -3053.47, -2518.03, 0.000, 0.000, 0.000, 14:01:46.499
91, -3564.81, -3347.50, -3249.83, -2733.91, 0.000, 0.000, 0.000, 14:01:46.515
92, -3756.51, -3438.18, -3371.63, -2837.51, 0.000, 0.000, 0.000, 14:01:46.515
93, -3506.61, -3374.98, -3217.78, -2705.96, 0.000, 0.000, 0.000, 14:01:46.529
94, -3250.27, -3261.43, -3059.18, -2560.71, 0.000, 0.000, 0.000, 14:01:46.529
95, -3606.73, -3368.02, -3278.45, -2771.14, 0.000, 0.000, 0.000, 14:01:46.530
96, -3753.48, -3453.80, -3378.85, -2847.22, 0.000, 0.000, 0.000, 14:01:46.530
97, -3518.17, -3371.00, -3230.63, -2695.62, 0.000, 0.000, 0.000, 14:01:46.559
98, -3242.17, -3249.26, -3051.11, -2529.66, 0.000, 0.000, 0.000, 14:01:46.559
99, -3548.57, -3367.02, -3281.51, -2751.74, 0.000, 0.000, 0.000, 14:01:46.560
100, -3765.74, -3452.11, -3395.53, -2839.23, 0.000, 0.000, 0.000, 14:01:46.560
101, -3538.25, -3354.08, -3202.93, -2694.45, 0.000, 0.000, 0.000, 14:01:46.561
102, -3242.41, -3255.39, -3054.28, -2551.25, 0.000, 0.000, 0.000, 14:01:46.561
103, -3587.46, -3365.30, -3290.70, -2763.62, 0.000, 0.000, 0.000, 14:01:46.574
104, -3779.10, -3448.83, -3380.43, -2824.13, 0.000, 0.000, 0.000, 14:01:46.574
105, -3471.30, -3355.48, -3206.95, -2666.42, 0.000, 0.000, 0.000, 14:01:46.589
106, -3256.01, -3239.88, -3045.44, -2540.89, 0.000, 0.000, 0.000, 14:01:46.589
107, -3625.14, -3381.91, -3291.73, -2775.91, 0.000, 0.000, 0.000, 14:01:46.590
108, -3769.86, -3464.56, -3384.63, -2838.71, 0.000, 0.000, 0.000, 14:01:46.590
109, -3478.93, -3365.21, -3215.77, -2675.65, 0.000, 0.000, 0.000, 14:01:46.634
110, -3261.15, -3261.96, -3064.34, -2578.53, 0.000, 0.000, 0.000, 14:01:46.634
111, -3604.90, -3369.07, -3287.21, -2772.10, 0.000, 0.000, 0.000, 14:01:46.634
112, -3776.00, -3445.79, -3364.88, -2820.82, 0.000, 0.000, 0.000, 14:01:46.635
113, -3498.01, -3362.14, -3203.65, -2679.27, 0.000, 0.000, 0.000, 14:01:46.635
114, -3264.51, -3265.09, -3064.18, -2551.80, 0.000, 0.000, 0.000, 14:01:46.635
115, -3649.49, -3380.42, -3299.70, -2788.63, 0.000, 0.000, 0.000, 14:01:46.636
116, -3723.60, -3448.69, -3372.98, -2832.67, 0.000, 0.000, 0.000, 14:01:46.636
117, -3488.91, -3358.62, -3197.66, -2690.00, 0.000, 0.000, 0.000, 14:01:46.637
118, -3255.78, -3256.16, -3052.80, -2558.93, 0.000, 0.000, 0.000, 14:01:46.637
119, -3632.42, -3378.38, -3299.89, -2763.56, 0.000, 0.000, 0.000, 14:01:46.649
120, -3760.42, -3450.86, -3376.93, -2807.93, 0.000, 0.000, 0.000, 14:01:46.649
121, -3488.37, -3354.53, -3201.11, -2683.26, 0.000, 0.000, 0.000, 14:01:46.679
122, -3270.04, -3260.21, -3058.79, -2547.48, 0.000, 0.000, 0.000, 14:01:46.679
123, -3628.76, -3380.33, -3298.14, -2759.67, 0.000, 0.000, 0.000, 14:01:46.679
124, -3745.23, -3447.48, -3363.97, -2807.24, 0.000, 0.000, 0.000, 14:01:46.679
125, -3507.64, -3355.56, -3203.56, -2683.48, 0.000, 0.000, 0.000, 14:01:46.680
126, -3258.45, -3251.80, -3060.06, -2558.14, 0.000, 0.000, 0.000, 14:01:46.680
127, -3611.61, -3382.67, -3323.72, -2766.07, 0.000, 0.000, 0.000, 14:01:46.695
128, -3753.01, -3448.30, -3359.83, -2804.85, 0.000, 0.000, 0.000, 14:01:46.695
129, -3456.39, -3355.69, -3186.68, -2661.85, 0.000, 0.000, 0.000, 14:01:46.724
130, -3255.66, -3254.43, -3055.14, -2537.97, 0.000, 0.000, 0.000, 14:01:46.724
131, -3623.43, -3392.49, -3314.54, -2787.77, 0.000, 0.000, 0.000, 14:01:46.725
132, -3760.34, -3443.17, -3369.88, -2820.66, 0.000, 0.000, 0.000, 14:01:46.725
133, -3467.64, -3354.10, -3200.04, -2671.21, 0.000, 0.000, 0.000, 14:01:46.725
134, -3270.29, -3257.48, -3059.01, -2552.31, 0.000, 0.000, 0.000, 14:01:46.725
135, -3644.57, -3394.99, -3319.66, -2806.31, 0.000, 0.000, 0.000, 14:01:46.727
136, -3716.88, -3453.30, -3362.84, -2781.06, 0.000, 0.000, 0.000, 14:01:46.727
137, -3475.13, -3356.54, -3196.82, -2652.24, 0.000, 0.000, 0.000, 14:01:46.739
138, -3273.29, -3269.19, -3064.11, -2560.02, 0.000, 0.000, 0.000, 14:01:46.739
139, -3660.03, -3389.78, -3314.86, -2762.56, 0.000, 0.000, 0.000, 14:01:46.754
140, -3753.38, -3433.37, -3365.55, -2822.62, 0.000, 0.000, 0.000, 14:01:46.755
141, -3451.50, -3359.96, -3201.96, -2675.47, 0.000, 0.000, 0.000, 14:01:46.769
142, -3247.34, -3264.32, -3067.02, -2572.72, 0.000, 0.000, 0.000, 14:01:46.769
143, -3662.25, -3385.00, -3318.83, -2791.21, 0.000, 0.000, 0.000, 14:01:46.769
144, -3757.52, -3447.26, -3359.38, -2810.93, 0.000, 0.000, 0.000, 14:01:46.770
145, -3457.58, -3345.87, -3174.23, -2640.35, 0.000, 0.000, 0.000, 14:01:46.799
146, -3262.97, -3260.25, -3058.28, -2548.85, 0.000, 0.000, 0.000, 14:01:46.799
147, -3642.95, -3391.29, -3322.92, -2777.71, 0.000, 0.000, 0.000, 14:01:46.799
148, -3716.93, -3440.29, -3368.67, -2819.56, 0.000, 0.000, 0.000, 14:01:46.799
149, -3446.55, -3343.46, -3172.95, -2652.61, 0.000, 0.000, 0.000, 14:01:46.800
150, -3255.50, -3254.41, -3057.21, -2559.72, 0.000, 0.000, 0.000, 14:01:46.800
151, -3673.14, -3407.04, -3337.08, -2797.19, 0.000, 0.000, 0.000, 14:01:46.815
152, -3747.39, -3451.23, -3363.21, -2811.20, 0.000, 0.000, 0.000, 14:01:46.815
153, -3462.50, -3356.19, -3187.87, -2686.80, 0.000, 0.000, 0.000, 14:01:46.844
154, -3260.04, -3260.23, -3070.19, -2585.03, 0.000, 0.000, 0.000, 14:01:46.844
155, -3678.18, -3396.15, -3338.38, -2801.28, 0.000, 0.000, 0.000, 14:01:46.844
156, -3746.47, -3435.38, -3364.84, -2792.99, 0.000, 0.000, 0.000, 14:01:46.844
157, -3455.87, -3342.07, -3175.12, -2652.81, 0.000, 0.000, 0.000, 14:01:46.845
158, -3253.54, -3254.30, -3066.44, -2568.41, 0.000, 0.000, 0.000, 14:01:46.845
159, -3693.90, -3407.17, -3337.60, -2799.11, 0.000, 0.000, 0.000, 14:01:46.846
160, -3726.06, -3439.51, -3364.88, -2821.72, 0.000, 0.000, 0.000, 14:01:46.846
161, -3447.37, -3337.18, -3173.84, -2669.61, 0.000, 0.000, 0.000, 14:01:46.859
162, -3277.35, -3257.76, -3075.99, -2578.53, 0.000, 0.000, 0.000, 14:01:46.860
163, -3701.44, -3393.27, -3337.37, -2823.16, 0.000, 0.000, 0.000, 14:01:46.875
164, -3727.90, -3439.99, -3348.04, -2771.47, 0.000, 0.000, 0.000, 14:01:46.875
165, -3442.33, -3354.33, -3166.59, -2662.57, 0.000, 0.000, 0.000, 14:01:46.889
166, -3258.77, -3260.95, -3067.12, -2596.02, 0.000, 0.000, 0.000, 14:01:46.889
167, -3685.91, -3396.41, -3345.95, -2792.34, 0.000, 0.000, 0.000, 14:01:46.890
168, -3724.23, -3431.47, -3351.57, -2792.36, 0.000, 0.000, 0.000, 14:01:46.890
169, -3423.09, -3342.73, -3168.59, -2645.37, 0.000, 0.000, 0.000, 14:01:46.919
170, -3273.17, -3257.90, -3070.46, -2572.67, 0.000, 0.000, 0.000, 14:01:46.919
171, -3700.96, -3408.69, -3342.97, -2807.42, 0.000, 0.000, 0.000, 14:01:46.919
172, -3712.20, -3438.92, -3348.40, -2801.63, 0.000, 0.000, 0.000, 14:01:46.919
173, -3426.44, -3330.30, -3156.65, -2642.39, 0.000, 0.000, 0.000, 14:01:46.933
174, -3263.19, -3250.62, -3070.26, -2574.04, 0.000, 0.000, 0.000, 14:01:46.933
175, -3701.26, -3409.35, -3352.83, -2818.15, 0.000, 0.000, 0.000, 14:01:46.965
176, -3702.84, -3430.41, -3344.21, -2804.91, 0.000, 0.000, 0.000, 14:01:46.965
177, -3428.97, -3354.17, -3170.92, -2645.75, 0.000, 0.000, 0.000, 14:01:46.965
178, -3282.07, -3269.47, -3071.83, -2566.13, 0.000, 0.000, 0.000, 14:01:46.965
179, -3705.86, -3409.31, -3356.82, -2817.84, 0.000, 0.000, 0.000, 14:01:46.965
180, -3705.50, -3436.30, -3350.48, -2772.96, 0.000, 0.000, 0.000, 14:01:46.965
181, -3401.40, -3320.75, -3150.82, -2637.34, 0.000, 0.000, 0.000, 14:01:46.966
182, -3281.03, -3258.10, -3073.35, -2580.70, 0.000, 0.000, 0.000, 14:01:46.966
183, -3718.45, -3411.44, -3362.31, -2829.00, 0.000, 0.000, 0.000, 14:01:46.967
184, -3735.16, -3453.67, -3363.70, -2814.25, 0.000, 0.000, 0.000, 14:01:46.967
185, -3423.65, -3334.77, -3149.74, -2663.03, 0.000, 0.000, 0.000, 14:01:46.979
186, -3272.88, -3248.76, -3055.62, -2590.19, 0.000, 0.000, 0.000, 14:01:46.979
187, -3711.21, -3400.86, -3349.58, -2853.11, 0.000, 0.000, 0.000, 14:01:47.009
188, -3713.92, -3421.71, -3328.09, -2812.29, 0.000, 0.000, 0.000, 14:01:47.009
189, -3411.01, -3301.79, -3117.66, -2659.43, 0.000, 0.000, 0.000, 14:01:47.009
190, -3292.00, -3247.11, -3052.72, -2616.77, 0.000, 0.000, 0.000, 14:01:47.010
191, -3717.65, -3392.28, -3322.27, -2861.24, 0.000, 0.000, 0.000, 14:01:47.011
192, -3701.03, -3404.33, -3294.30, -2841.40, 0.000, 0.000, 0.000, 14:01:47.011
193, -3375.27, -3276.37, -3092.01, -2677.23, 0.000, 0.000, 0.000, 14:01:47.024
194, -3266.25, -3212.14, -3027.29, -2635.45, 0.000, 0.000, 0.000, 14:01:47.024
195, -3726.94, -3376.27, -3299.28, -2885.20, 0.000, 0.000, 0.000, 14:01:47.038
196, -3707.26, -3390.06, -3275.81, -2843.66, 0.000, 0.000, 0.000, 14:01:47.039
197, -3388.98, -3281.14, -3081.85, -2686.45, 0.000, 0.000, 0.000, 14:01:47.039
198, -3285.78, -3226.39, -3013.12, -2689.99, 0.000, 0.000, 0.000, 14:01:47.039
199, -3724.24, -3373.50, -3305.69, -2917.24, 0.000, 0.000, 0.000, 14:01:47.054
200, -3711.43, -3392.04, -3288.51, -2873.89, 0.000, 0.000, 0.000, 14:01:47.055
0, -3387.87, -3272.53, -3071.45, -2700.65, 0.000, 0.000, 0.000, 14:01:47.055
1, -3304.65, -3225.20, -3020.79, -2664.83, 0.000, 0.000, 0.000, 14:01:47.069
2, -3760.76, -3415.73, -3329.94, -2854.66, 0.000, 0.000, 0.000, 14:01:47.069
3, -3705.18, -3393.31, -3278.04, -2853.58, 0.000, 0.000, 0.000, 14:01:47.084
4, -3374.86, -3289.56, -3082.67, -2719.63, 0.000, 0.000, 0.000, 14:01:47.084
5, -3304.84, -3236.39, -3032.62, -2643.95, 0.000, 0.000, 0.000, 14:01:47.084
6, -3756.67, -3389.59, -3312.92, -2875.24, 0.000, 0.000, 0.000, 14:01:47.084
7, -3731.59, -3407.23, -3286.13, -2859.69, 0.000, 0.000, 0.000, 14:01:47.099
8, -3395.73, -3287.95, -3083.24, -2707.54, 0.000, 0.000, 0.000, 14:01:47.099
9, -3315.26, -3254.81, -3042.79, -2613.82, 0.000, 0.000, 0.000, 14:01:47.115
10, -3763.46, -3389.93, -3330.36, -2851.30, 0.000, 0.000, 0.000, 14:01:47.115
11, -3711.24, -3400.82, -3284.51, -2829.39, 0.000, 0.000, 0.000, 14:01:47.116
12, -3392.36, -3302.62, -3096.21, -2666.87, 0.000, 0.000, 0.000, 14:01:47.116
13, -3328.80, -3268.45, -3065.50, -2655.41, 0.000, 0.000, 0.000, 14:01:47.130
14, -3776.38, -3409.44, -3341.55, -2850.70, 0.000, 0.000, 0.000, 14:01:47.130
15, -3710.67, -3394.28, -3292.40, -2825.71, 0.000, 0.000, 0.000, 14:01:47.144
16, -3368.77, -3297.73, -3097.71, -2678.72, 0.000, 0.000, 0.000, 14:01:47.144
17, -3344.92, -3269.63, -3083.23, -2631.21, 0.000, 0.000, 0.000, 14:01:47.145
18, -3761.10, -3417.24, -3353.63, -2868.64, 0.000, 0.000, 0.000, 14:01:47.145
19, -3681.32, -3422.49, -3307.63, -2799.94, 0.000, 0.000, 0.000, 14:01:47.174
20, -3364.40, -3315.66, -3110.59, -2619.78, 0.000, 0.000, 0.000, 14:01:47.174
21, -3343.48, -3262.19, -3086.45, -2605.87, 0.000, 0.000, 0.000, 14:01:47.175
22, -3771.06, -3430.02, -3367.61, -2860.66, 0.000, 0.000, 0.000, 14:01:47.175
23, -3687.18, -3418.26, -3303.76, -2812.07, 0.000, 0.000, 0.000, 14:01:47.175
24, -3366.06, -3308.37, -3102.34, -2644.17, 0.000, 0.000, 0.000, 14:01:47.175
25, -3307.89, -3260.17, -3086.84, -2630.92, 0.000, 0.000, 0.000, 14:01:47.189
26, -3759.21, -3440.19, -3384.95, -2864.73, 0.000, 0.000, 0.000, 14:01:47.189
27, -3692.44, -3428.45, -3327.19, -2784.37, 0.000, 0.000, 0.000, 14:01:47.203
28, -3382.14, -3296.68, -3103.97, -2636.22, 0.000, 0.000, 0.000, 14:01:47.203
29, -3342.15, -3258.46, -3088.03, -2625.93, 0.000, 0.000, 0.000, 14:01:47.204
30, -3781.08, -3421.75, -3367.15, -2870.04, 0.000, 0.000, 0.000, 14:01:47.204
31, -3666.46, -3395.44, -3288.39, -2790.66, 0.000, 0.000, 0.000, 14:01:47.234
32, -3354.45, -3291.92, -3097.70, -2624.69, 0.000, 0.000, 0.000, 14:01:47.234
33, -3351.64, -3267.73, -3095.21, -2649.52, 0.000, 0.000, 0.000, 14:01:47.234
34, -3778.03, -3411.12, -3351.51, -2853.30, 0.000, 0.000, 0.000, 14:01:47.234
35, -3694.35, -3417.79, -3297.57, -2811.71, 0.000, 0.000, 0.000, 14:01:47.235
36, -3374.58, -3303.61, -3105.27, -2606.53, 0.000, 0.000, 0.000, 14:01:47.235
37, -3361.37, -3274.96, -3101.65, -2624.03, 0.000, 0.000, 0.000, 14:01:47.249
38, -3789.56, -3428.77, -3384.12, -2852.55, 0.000, 0.000, 0.000, 14:01:47.249
39, -3687.30, -3404.79, -3298.86, -2798.74, 0.000, 0.000, 0.000, 14:01:47.265
40, -3357.15, -3295.81, -3107.57, -2642.63, 0.000, 0.000, 0.000, 14:01:47.265
41, -3362.54, -3274.18, -3111.04, -2626.35, 0.000, 0.000, 0.000, 14:01:47.279
42, -3785.32, -3438.80, -3377.21, -2849.07, 0.000, 0.000, 0.000, 14:01:47.279
43, -3695.00, -3416.05, -3300.80, -2807.54, 0.000, 0.000, 0.000, 14:01:47.280
44, -3354.74, -3286.30, -3101.95, -2629.03, 0.000, 0.000, 0.000, 14:01:47.281
45, -3362.01, -3275.39, -3104.69, -2621.40, 0.000, 0.000, 0.000, 14:01:47.295
46, -3782.13, -3436.61, -3372.81, -2874.83, 0.000, 0.000, 0.000, 14:01:47.295
47, -3667.00, -3400.16, -3302.37, -2775.96, 0.000, 0.000, 0.000, 14:01:47.295
48, -3348.90, -3291.76, -3099.21, -2620.15, 0.000, 0.000, 0.000, 14:01:47.295
49, -3393.26, -3280.10, -3114.82, -2624.01, 0.000, 0.000, 0.000, 14:01:47.310
50, -3809.00, -3449.46, -3396.50, -2862.85, 0.000, 0.000, 0.000, 14:01:47.310
51, -3632.82, -3420.92, -3312.09, -2775.75, 0.000, 0.000, 0.000, 14:01:47.324
52, -3331.07, -3296.92, -3092.68, -2571.38, 0.000, 0.000, 0.000, 14:01:47.324
53, -3382.92, -3287.39, -3138.26, -2625.88, 0.000, 0.000, 0.000, 14:01:47.325
54, -3760.97, -3431.12, -3391.33, -2844.74, 0.000, 0.000, 0.000, 14:01:47.325
55, -3640.83, -3410.59, -3308.06, -2787.10, 0.000, 0.000, 0.000, 14:01:47.339
56, -3331.24, -3294.94, -3101.48, -2609.43, 0.000, 0.000, 0.000, 14:01:47.339
57, -3384.40, -3283.30, -3110.01, -2619.92, 0.000, 0.000, 0.000, 14:01:47.354
58, -3768.89, -3463.85, -3376.66, -2855.36, 0.000, 0.000, 0.000, 14:01:47.354
59, -3639.98, -3420.47, -3298.35, -2774.31, 0.000, 0.000, 0.000, 14:01:47.355
60, -3313.66, -3297.41, -3098.10, -2581.93, 0.000, 0.000, 0.000, 14:01:47.355
61, -3403.77, -3301.27, -3129.44, -2644.87, 0.000, 0.000, 0.000, 14:01:47.369
62, -3813.06, -3453.46, -3397.53, -2869.96, 0.000, 0.000, 0.000, 14:01:47.369
63, -3630.66, -3413.36, -3293.46, -2742.68, 0.000, 0.000, 0.000, 14:01:47.399
64, -3305.65, -3314.82, -3101.88, -2583.79, 0.000, 0.000, 0.000, 14:01:47.399
65, -3377.46, -3289.34, -3134.11, -2628.04, 0.000, 0.000, 0.000, 14:01:47.400
66, -3825.66, -3440.92, -3389.15, -2836.85, 0.000, 0.000, 0.000, 14:01:47.400
67, -3658.93, -3406.59, -3307.88, -2768.62, 0.000, 0.000, 0.000, 14:01:47.400
68, -3323.88, -3282.14, -3083.84, -2575.31, 0.000, 0.000, 0.000, 14:01:47.400
69, -3392.36, -3293.70, -3144.12, -2632.43, 0.000, 0.000, 0.000, 14:01:47.401
70, -3808.43, -3460.01, -3399.60, -2842.10, 0.000, 0.000, 0.000, 14:01:47.401
71, -3645.03, -3416.45, -3292.88, -2769.52, 0.000, 0.000, 0.000, 14:01:47.415
72, -3309.20, -3303.88, -3091.32, -2595.06, 0.000, 0.000, 0.000, 14:01:47.415
73, -3393.26, -3282.88, -3146.33, -2666.69, 0.000, 0.000, 0.000, 14:01:47.436
74, -3759.34, -3426.81, -3388.72, -2855.99, 0.000, 0.000, 0.000, 14:01:47.436
75, -3647.87, -3400.59, -3300.77, -2776.52, 0.000, 0.000, 0.000, 14:01:47.445
76, -3321.72, -3293.10, -3093.73, -2610.78, 0.000, 0.000, 0.000, 14:01:47.445
77, -3386.52, -3277.52, -3133.39, -2633.59, 0.000, 0.000, 0.000, 14:01:47.445
78, -3816.65, -3435.49, -3391.55, -2851.08, 0.000, 0.000, 0.000, 14:01:47.445
79, -3633.54, -3407.27, -3294.89, -2759.10, 0.000, 0.000, 0.000, 14:01:47.475
80, -3334.32, -3286.39, -3088.98, -2595.54, 0.000, 0.000, 0.000, 14:01:47.475
81, -3422.89, -3289.26, -3169.02, -2640.86, 0.000, 0.000, 0.000, 14:01:47.475
82, -3824.93, -3426.14, -3407.20, -2845.30, 0.000, 0.000, 0.000, 14:01:47.475
83, -3697.96, -3387.23, -3303.01, -2749.28, 0.000, 0.000, 0.000, 14:01:47.476
84, -3325.86, -3263.37, -3091.30, -2559.46, 0.000, 0.000, 0.000, 14:01:47.476
85, -3448.08, -3268.88, -3169.46, -2644.67, 0.000, 0.000, 0.000, 14:01:47.489
86, -3807.54, -3428.88, -3403.52, -2851.65, 0.000, 0.000, 0.000, 14:01:47.489
87, -3628.26, -3382.03, -3286.38, -2752.72, 0.000, 0.000, 0.000, 14:01:47.518
88, -3326.63, -3275.11, -3101.94, -2580.33, 0.000, 0.000, 0.000, 14:01:47.519
89, -3441.98, -3270.87, -3162.95, -2645.98, 0.000, 0.000, 0.000, 14:01:47.519
90, -3817.04, -3446.24, -3406.07, -2833.85, 0.000, 0.000, 0.000, 14:01:47.519
91, -3621.71, -3385.76, -3286.39, -2750.92, 0.000, 0.000, 0.000, 14:01:47.520
92, -3315.93, -3269.94, -3082.70, -2581.99, 0.000, 0.000, 0.000, 14:01:47.520
93, -3441.16, -3298.74, -3179.23, -2663.91, 0.000, 0.000, 0.000, 14:01:47.521
94, -3782.98, -3437.57, -3408.83, -2835.56, 0.000, 0.000, 0.000, 14:01:47.521
95, -3612.13, -3401.45, -3286.23, -2751.18, 0.000, 0.000, 0.000, 14:01:47.534
96, -3315.52, -3296.18, -3088.36, -2588.88, 0.000, 0.000, 0.000, 14:01:47.534
97, -3439.36, -3292.87, -3171.36, -2682.02, 0.000, 0.000, 0.000, 14:01:47.565
98, -3809.57, -3445.41, -3409.01, -2866.24, 0.000, 0.000, 0.000, 14:01:47.565
99, -3607.49, -3405.78, -3296.44, -2751.28, 0.000, 0.000, 0.000, 14:01:47.565
100, -3296.82, -3270.08, -3075.54, -2570.76, 0.000, 0.000, 0.000, 14:01:47.565
