%OpenBCI Raw EEG Data
%
%Sample Rate = 200.0 Hz
%First Column = SampleIndex
%Last Column = Timestamp 
%Other Columns = EEG data in microvolts followed by Accel Data (in G) interleaved with Aux Data
0, -3528.08, -3445.89, -3356.28, -2778.74, 0.000, 0.000, 0.000, 14:03:35.100
1, -3452.79, -3421.02, -3335.12, -2780.56, 0.000, 0.000, 0.000, 14:03:35.115
2, -3845.95, -3602.53, -3585.92, -3104.59, 0.000, 0.000, 0.000, 14:03:35.115
3, -3811.08, -3597.23, -3641.18, -2967.28, 0.000, 0.000, 0.000, 14:03:35.129
4, -3512.10, -3473.71, -3342.16, -2864.38, 0.000, 0.000, 0.000, 14:03:35.129
5, -3409.48, -3366.46, -3268.68, -2715.84, 0.000, 0.000, 0.000, 14:03:35.130
6, -3936.85, -3603.84, -3586.34, -3036.68, 0.000, 0.000, 0.000, 14:03:35.130
7, -3881.63, -3589.82, -3572.08, -3008.47, 0.000, 0.000, 0.000, 14:03:35.159
8, -3550.84, -3468.62, -3353.78, -2829.65, 0.000, 0.000, 0.000, 14:03:35.159
9, -3463.01, -3402.55, -3307.42, -2722.62, 0.000, 0.000, 0.000, 14:03:35.159
10, -3874.21, -3576.84, -3575.01, -2985.39, 0.000, 0.000, 0.000, 14:03:35.159
11, -3801.00, -3594.39, -3563.46, -2970.41, 0.000, 0.000, 0.000, 14:03:35.160
12, -3450.13, -3448.43, -3351.76, -2743.90, 0.000, 0.000, 0.000, 14:03:35.160
13, -3478.21, -3394.90, -3316.32, -2664.40, 0.000, 0.000, 0.000, 14:03:35.174
14, -3772.99, -3552.64, -3579.51, -2918.25, 0.000, 0.000, 0.000, 14:03:35.174
15, -3764.54, -3566.35, -3554.38, -2928.05, 0.000, 0.000, 0.000, 14:03:35.189
16, -3450.48, -3434.33, -3366.64, -2705.12, 0.000, 0.000, 0.000, 14:03:35.190
17, -3437.52, -3368.21, -3256.44, -2759.30, 0.000, 0.000, 0.000, 14:03:35.190
18, -3908.25, -3593.54, -3623.71, -3015.66, 0.000, 0.000, 0.000, 14:03:35.190
19, -3752.73, -3567.44, -3518.25, -2932.14, 0.000, 0.000, 0.000, 14:03:35.204
20, -3534.03, -3408.71, -3349.32, -2722.47, 0.000, 0.000, 0.000, 14:03:35.204
21, -3377.00, -3362.44, -3235.41, -2721.80, 0.000, 0.000, 0.000, 14:03:35.221
22, -3964.72, -3587.76, -3611.23, -3023.05, 0.000, 0.000, 0.000, 14:03:35.221
23, -3839.09, -3575.54, -3553.59, -2970.90, 0.000, 0.000, 0.000, 14:03:35.227
24, -3399.10, -3386.92, -3323.71, -2721.40, 0.000, 0.000, 0.000, 14:03:35.227
25, -3319.27, -3393.62, -3237.17, -2747.31, 0.000, 0.000, 0.000, 14:03:35.235
26, -3876.11, -3584.56, -3603.15, -2991.85, 0.000, 0.000, 0.000, 14:03:35.235
27, -3771.56, -3573.82, -3540.76, -2943.94, 0.000, 0.000, 0.000, 14:03:35.250
28, -3481.98, -3431.12, -3328.36, -2752.48, 0.000, 0.000, 0.000, 14:03:35.251
29, -3306.74, -3342.62, -3291.40, -2724.31, 0.000, 0.000, 0.000, 14:03:35.251
30, -3916.14, -3564.63, -3545.43, -3027.00, 0.000, 0.000, 0.000, 14:03:35.251
31, -3709.88, -3591.47, -3536.80, -3019.61, 0.000, 0.000, 0.000, 14:03:35.265
32, -3373.69, -3418.17, -3324.88, -2746.96, 0.000, 0.000, 0.000, 14:03:35.265
33, -3373.56, -3361.50, -3241.26, -2798.95, 0.000, 0.000, 0.000, 14:03:35.309
34, -3969.53, -3576.88, -3632.14, -3112.39, 0.000, 0.000, 0.000, 14:03:35.310
35, -3783.14, -3588.45, -3540.77, -3041.34, 0.000, 0.000, 0.000, 14:03:35.310
36, -3422.77, -3394.85, -3314.20, -2771.15, 0.000, 0.000, 0.000, 14:03:35.310
37, -3492.59, -3396.88, -3258.17, -2785.45, 0.000, 0.000, 0.000, 14:03:35.311
38, -3882.31, -3545.17, -3591.80, -2994.47, 0.000, 0.000, 0.000, 14:03:35.311
39, -3858.94, -3573.83, -3530.06, -2997.04, 0.000, 0.000, 0.000, 14:03:35.311
40, -3359.58, -3411.87, -3276.64, -2682.56, 0.000, 0.000, 0.000, 14:03:35.311
41, -3328.21, -3375.44, -3329.21, -2745.43, 0.000, 0.000, 0.000, 14:03:35.312
42, -3784.48, -3579.39, -3580.79, -3001.11, 0.000, 0.000, 0.000, 14:03:35.312
43, -3837.52, -3573.70, -3530.80, -2952.38, 0.000, 0.000, 0.000, 14:03:35.324
44, -3434.97, -3422.75, -3311.36, -2711.35, 0.000, 0.000, 0.000, 14:03:35.324
45, -3388.47, -3360.73, -3281.62, -2691.86, 0.000, 0.000, 0.000, 14:03:35.354
46, -3921.31, -3612.21, -3602.04, -3048.98, 0.000, 0.000, 0.000, 14:03:35.354
47, -3685.35, -3551.81, -3519.94, -2896.01, 0.000, 0.000, 0.000, 14:03:35.354
48, -3444.73, -3411.17, -3295.57, -2762.66, 0.000, 0.000, 0.000, 14:03:35.355
49, -3410.73, -3386.82, -3315.87, -2790.57, 0.000, 0.000, 0.000, 14:03:35.355
50, -3867.54, -3556.50, -3593.29, -3075.10, 0.000, 0.000, 0.000, 14:03:35.355
51, -3759.18, -3557.01, -3544.49, -2945.89, 0.000, 0.000, 0.000, 14:03:35.356
52, -3525.39, -3420.63, -3313.46, -2807.68, 0.000, 0.000, 0.000, 14:03:35.356
53, -3452.25, -3385.49, -3290.24, -2712.53, 0.000, 0.000, 0.000, 14:03:35.370
54, -3825.62, -3581.60, -3624.75, -2980.45, 0.000, 0.000, 0.000, 14:03:35.370
55, -3802.35, -3573.92, -3515.12, -2959.76, 0.000, 0.000, 0.000, 14:03:35.384
56, -3448.55, -3401.55, -3299.03, -2739.92, 0.000, 0.000, 0.000, 14:03:35.384
57, -3454.32, -3380.08, -3298.24, -2778.07, 0.000, 0.000, 0.000, 14:03:35.415
58, -3905.82, -3593.65, -3609.53, -3005.73, 0.000, 0.000, 0.000, 14:03:35.415
59, -3768.02, -3550.98, -3530.99, -2934.12, 0.000, 0.000, 0.000, 14:03:35.429
60, -3435.57, -3413.47, -3284.21, -2733.93, 0.000, 0.000, 0.000, 14:03:35.430
61, -3417.49, -3380.90, -3314.28, -2794.45, 0.000, 0.000, 0.000, 14:03:35.430
62, -3874.53, -3579.69, -3596.99, -3046.24, 0.000, 0.000, 0.000, 14:03:35.430
63, -3736.14, -3554.79, -3533.21, -2878.14, 0.000, 0.000, 0.000, 14:03:35.431
64, -3429.51, -3421.52, -3306.23, -2749.02, 0.000, 0.000, 0.000, 14:03:35.431
65, -3418.16, -3391.80, -3313.05, -2728.24, 0.000, 0.000, 0.000, 14:03:35.431
66, -3877.72, -3585.99, -3601.42, -3075.04, 0.000, 0.000, 0.000, 14:03:35.431
67, -3779.53, -3554.76, -3522.59, -2964.77, 0.000, 0.000, 0.000, 14:03:35.445
68, -3436.26, -3412.42, -3300.68, -2744.11, 0.000, 0.000, 0.000, 14:03:35.445
69, -3414.58, -3374.29, -3306.08, -2743.09, 0.000, 0.000, 0.000, 14:03:35.459
70, -3869.89, -3575.29, -3619.99, -3027.78, 0.000, 0.000, 0.000, 14:03:35.459
71, -3782.91, -3552.15, -3525.69, -2874.83, 0.000, 0.000, 0.000, 14:03:35.460
72, -3427.28, -3415.53, -3296.89, -2708.19, 0.000, 0.000, 0.000, 14:03:35.460
73, -3427.44, -3395.56, -3303.41, -2707.66, 0.000, 0.000, 0.000, 14:03:35.474
74, -3866.04, -3606.33, -3617.28, -3055.83, 0.000, 0.000, 0.000, 14:03:35.475
75, -3745.84, -3559.78, -3537.05, -2948.13, 0.000, 0.000, 0.000, 14:03:35.489
76, -3442.67, -3406.93, -3294.17, -2713.20, 0.000, 0.000, 0.000, 14:03:35.490
77, -3401.78, -3391.91, -3313.83, -2728.13, 0.000, 0.000, 0.000, 14:03:35.490
78, -3974.87, -3583.53, -3605.12, -3023.60, 0.000, 0.000, 0.000, 14:03:35.490
79, -3737.21, -3546.88, -3513.63, -2959.49, 0.000, 0.000, 0.000, 14:03:35.504
80, -3404.73, -3409.59, -3297.98, -2718.44, 0.000, 0.000, 0.000, 14:03:35.504
81, -3365.46, -3381.71, -3299.05, -2753.06, 0.000, 0.000, 0.000, 14:03:35.534
82, -3950.94, -3594.81, -3609.41, -3044.03, 0.000, 0.000, 0.000, 14:03:35.534
83, -3739.69, -3560.46, -3516.26, -2971.97, 0.000, 0.000, 0.000, 14:03:35.535
84, -3439.16, -3401.12, -3298.24, -2699.39, 0.000, 0.000, 0.000, 14:03:35.535
85, -3441.00, -3396.83, -3328.32, -2763.28, 0.000, 0.000, 0.000, 14:03:35.536
86, -3877.84, -3589.97, -3604.74, -3032.80, 0.000, 0.000, 0.000, 14:03:35.536
87, -3747.95, -3549.39, -3510.62, -2913.40, 0.000, 0.000, 0.000, 14:03:35.537
88, -3415.49, -3398.63, -3284.49, -2742.98, 0.000, 0.000, 0.000, 14:03:35.537
89, -3451.49, -3399.18, -3312.65, -2769.40, 0.000, 0.000, 0.000, 14:03:35.550
90, -3868.91, -3591.22, -3605.69, -2999.95, 0.000, 0.000, 0.000, 14:03:35.550
91, -3748.88, -3542.13, -3501.50, -2998.80, 0.000, 0.000, 0.000, 14:03:35.565
92, -3447.99, -3410.85, -3293.42, -2797.56, 0.000, 0.000, 0.000, 14:03:35.565
93, -3461.52, -3403.39, -3326.12, -2762.54, 0.000, 0.000, 0.000, 14:03:35.594
94, -3868.72, -3596.70, -3604.66, -2986.33, 0.000, 0.000, 0.000, 14:03:35.594
95, -3754.56, -3562.65, -3524.49, -2901.60, 0.000, 0.000, 0.000, 14:03:35.595
96, -3409.90, -3399.52, -3284.23, -2739.96, 0.000, 0.000, 0.000, 14:03:35.595
97, -3407.04, -3392.02, -3313.75, -2774.19, 0.000, 0.000, 0.000, 14:03:35.596
98, -3921.07, -3580.70, -3593.14, -3025.18, 0.000, 0.000, 0.000, 14:03:35.596
99, -3741.34, -3524.79, -3498.10, -2913.28, 0.000, 0.000, 0.000, 14:03:35.597
100, -3418.48, -3398.97, -3282.09, -2729.36, 0.000, 0.000, 0.000, 14:03:35.597
101, -3440.06, -3372.23, -3294.51, -2699.09, 0.000, 0.000, 0.000, 14:03:35.609
102, -3874.08, -3585.52, -3601.79, -3002.31, 0.000, 0.000, 0.000, 14:03:35.609
103, -3772.68, -3547.08, -3521.96, -2951.65, 0.000, 0.000, 0.000, 14:03:35.625
104, -3396.59, -3396.25, -3282.98, -2722.55, 0.000, 0.000, 0.000, 14:03:35.625
105, -3420.73, -3387.96, -3307.05, -2799.95, 0.000, 0.000, 0.000, 14:03:35.654
106, -3912.31, -3590.58, -3606.80, -3033.63, 0.000, 0.000, 0.000, 14:03:35.655
107, -3769.58, -3537.22, -3492.20, -2904.52, 0.000, 0.000, 0.000, 14:03:35.655
108, -3416.13, -3384.05, -3275.29, -2783.40, 0.000, 0.000, 0.000, 14:03:35.655
109, -3429.49, -3397.94, -3315.37, -2756.08, 0.000, 0.000, 0.000, 14:03:35.655
110, -3911.94, -3586.58, -3595.98, -2962.93, 0.000, 0.000, 0.000, 14:03:35.656
111, -3776.28, -3546.15, -3509.89, -2903.50, 0.000, 0.000, 0.000, 14:03:35.656
112, -3423.38, -3391.82, -3278.59, -2756.45, 0.000, 0.000, 0.000, 14:03:35.656
113, -3475.96, -3377.35, -3317.72, -2785.34, 0.000, 0.000, 0.000, 14:03:35.670
114, -3897.19, -3588.82, -3616.93, -3046.69, 0.000, 0.000, 0.000, 14:03:35.670
115, -3690.86, -3537.21, -3498.61, -2918.64, 0.000, 0.000, 0.000, 14:03:35.685
116, -3434.81, -3396.52, -3277.42, -2680.69, 0.000, 0.000, 0.000, 14:03:35.685
117, -3448.59, -3424.24, -3339.81, -2792.27, 0.000, 0.000, 0.000, 14:03:35.715
118, -3904.17, -3585.23, -3602.29, -3016.20, 0.000, 0.000, 0.000, 14:03:35.715
119, -3768.32, -3537.85, -3493.99, -2874.86, 0.000, 0.000, 0.000, 14:03:35.715
120, -3369.93, -3382.04, -3266.17, -2752.34, 0.000, 0.000, 0.000, 14:03:35.716
121, -3448.90, -3392.88, -3341.96, -2776.05, 0.000, 0.000, 0.000, 14:03:35.716
122, -3897.02, -3587.50, -3600.98, -3052.97, 0.000, 0.000, 0.000, 14:03:35.716
123, -3759.34, -3538.15, -3510.86, -2836.33, 0.000, 0.000, 0.000, 14:03:35.716
124, -3383.19, -3387.61, -3266.37, -2688.14, 0.000, 0.000, 0.000, 14:03:35.716
125, -3479.62, -3394.49, -3316.61, -2816.64, 0.000, 0.000, 0.000, 14:03:35.729
126, -3862.01, -3608.28, -3601.28, -3083.55, 0.000, 0.000, 0.000, 14:03:35.729
127, -3704.06, -3540.36, -3497.78, -2961.30, 0.000, 0.000, 0.000, 14:03:35.745
128, -3438.35, -3388.42, -3272.15, -2652.90, 0.000, 0.000, 0.000, 14:03:35.745
129, -3450.01, -3414.81, -3334.91, -2789.86, 0.000, 0.000, 0.000, 14:03:35.789
130, -3900.87, -3599.29, -3616.89, -2985.69, 0.000, 0.000, 0.000, 14:03:35.789
131, -3759.16, -3536.90, -3488.84, -2876.64, 0.000, 0.000, 0.000, 14:03:35.789
132, -3387.55, -3385.35, -3272.43, -2752.97, 0.000, 0.000, 0.000, 14:03:35.789
133, -3478.92, -3407.55, -3336.70, -2828.41, 0.000, 0.000, 0.000, 14:03:35.790
134, -3881.60, -3594.98, -3614.59, -3064.25, 0.000, 0.000, 0.000, 14:03:35.790
135, -3732.36, -3539.24, -3490.12, -2924.86, 0.000, 0.000, 0.000, 14:03:35.792
136, -3374.53, -3403.00, -3272.35, -2759.13, 0.000, 0.000, 0.000, 14:03:35.792
137, -3462.76, -3403.72, -3327.39, -2787.36, 0.000, 0.000, 0.000, 14:03:35.792
138, -3896.14, -3593.84, -3600.09, -2970.25, 0.000, 0.000, 0.000, 14:03:35.792
139, -3753.58, -3534.76, -3490.98, -2889.32, 0.000, 0.000, 0.000, 14:03:35.805
140, -3379.03, -3391.68, -3263.54, -2704.69, 0.000, 0.000, 0.000, 14:03:35.807
141, -3469.33, -3417.58, -3353.09, -2746.02, 0.000, 0.000, 0.000, 14:03:35.850
142, -3899.79, -3579.48, -3622.31, -3034.42, 0.000, 0.000, 0.000, 14:03:35.850
143, -3739.53, -3533.29, -3502.48, -2912.76, 0.000, 0.000, 0.000, 14:03:35.851
144, -3390.76, -3393.21, -3261.80, -2705.98, 0.000, 0.000, 0.000, 14:03:35.851
145, -3496.91, -3407.43, -3339.95, -2772.56, 0.000, 0.000, 0.000, 14:03:35.851
146, -3981.67, -3598.51, -3617.84, -3048.23, 0.000, 0.000, 0.000, 14:03:35.851
147, -3761.86, -3530.33, -3491.63, -2910.26, 0.000, 0.000, 0.000, 14:03:35.865
148, -3356.51, -3381.67, -3263.12, -2689.67, 0.000, 0.000, 0.000, 14:03:35.865
149, -3478.66, -3410.27, -3350.13, -2777.83, 0.000, 0.000, 0.000, 14:03:35.865
150, -3928.19, -3591.39, -3607.80, -2967.32, 0.000, 0.000, 0.000, 14:03:35.865
151, -3747.28, -3541.06, -3497.07, -2928.28, 0.000, 0.000, 0.000, 14:03:35.866
152, -3345.38, -3382.01, -3256.64, -2703.50, 0.000, 0.000, 0.000, 14:03:35.866
153, -3516.38, -3404.01, -3340.03, -2805.67, 0.000, 0.000, 0.000, 14:03:35.867
154, -3868.31, -3601.57, -3604.68, -2967.89, 0.000, 0.000, 0.000, 14:03:35.867
155, -3644.69, -3539.23, -3481.66, -2895.57, 0.000, 0.000, 0.000, 14:03:35.879
156, -3370.37, -3377.33, -3265.81, -2703.87, 0.000, 0.000, 0.000, 14:03:35.879
157, -3503.37, -3410.03, -3337.73, -2789.17, 0.000, 0.000, 0.000, 14:03:35.925
158, -3884.48, -3605.91, -3619.11, -3053.60, 0.000, 0.000, 0.000, 14:03:35.925
159, -3710.74, -3528.23, -3490.08, -2896.12, 0.000, 0.000, 0.000, 14:03:35.925
160, -3408.48, -3378.29, -3271.31, -2709.30, 0.000, 0.000, 0.000, 14:03:35.925
161, -3510.04, -3418.50, -3357.15, -2805.27, 0.000, 0.000, 0.000, 14:03:35.926
162, -3944.28, -3598.20, -3618.42, -3031.79, 0.000, 0.000, 0.000, 14:03:35.926
163, -3649.35, -3536.69, -3492.04, -2890.24, 0.000, 0.000, 0.000, 14:03:35.927
164, -3432.37, -3398.33, -3275.69, -2701.24, 0.000, 0.000, 0.000, 14:03:35.927
165, -3562.59, -3414.63, -3355.36, -2803.91, 0.000, 0.000, 0.000, 14:03:35.927
166, -3824.88, -3594.51, -3618.27, -3040.31, 0.000, 0.000, 0.000, 14:03:35.927
167, -3743.08, -3526.54, -3480.98, -2906.75, 0.000, 0.000, 0.000, 14:03:35.940
168, -3352.84, -3369.00, -3259.30, -2749.19, 0.000, 0.000, 0.000, 14:03:35.940
169, -3445.86, -3405.68, -3362.06, -2792.37, 0.000, 0.000, 0.000, 14:03:35.971
170, -3906.69, -3596.14, -3614.17, -3045.07, 0.000, 0.000, 0.000, 14:03:35.971
171, -3710.01, -3536.05, -3488.69, -2944.28, 0.000, 0.000, 0.000, 14:03:35.971
172, -3369.37, -3374.72, -3253.17, -2717.63, 0.000, 0.000, 0.000, 14:03:35.971
173, -3474.44, -3420.01, -3355.29, -2806.39, 0.000, 0.000, 0.000, 14:03:35.971
174, -3988.45, -3598.89, -3618.36, -3069.01, 0.000, 0.000, 0.000, 14:03:35.971
175, -3790.36, -3529.89, -3488.92, -2951.40, 0.000, 0.000, 0.000, 14:03:35.985
176, -3386.28, -3374.67, -3257.15, -2726.30, 0.000, 0.000, 0.000, 14:03:35.985
177, -3556.28, -3429.15, -3363.12, -2777.75, 0.000, 0.000, 0.000, 14:03:36.000
178, -3910.59, -3601.32, -3603.51, -2968.75, 0.000, 0.000, 0.000, 14:03:36.000
179, -3760.75, -3528.85, -3483.29, -2850.10, 0.000, 0.000, 0.000, 14:03:36.000
180, -3423.85, -3363.97, -3262.02, -2702.21, 0.000, 0.000, 0.000, 14:03:36.001
181, -3562.11, -3413.18, -3379.29, -2791.54, 0.000, 0.000, 0.000, 14:03:36.015
182, -3886.85, -3594.18, -3605.82, -3055.78, 0.000, 0.000, 0.000, 14:03:36.015
183, -3676.49, -3523.65, -3468.11, -2858.31, 0.000, 0.000, 0.000, 14:03:36.029
184, -3333.54, -3376.86, -3249.33, -2725.16, 0.000, 0.000, 0.000, 14:03:36.029
185, -3517.76, -3432.45, -3370.09, -2846.02, 0.000, 0.000, 0.000, 14:03:36.030
186, -3840.14, -3597.00, -3620.91, -3012.70, 0.000, 0.000, 0.000, 14:03:36.030
187, -3622.60, -3514.06, -3476.33, -2907.33, 0.000, 0.000, 0.000, 14:03:36.044
188, -3371.96, -3379.17, -3254.54, -2679.58, 0.000, 0.000, 0.000, 14:03:36.044
189, -3531.66, -3428.30, -3376.10, -2780.28, 0.000, 0.000, 0.000, 14:03:36.059
190, -3970.84, -3582.75, -3605.14, -2983.59, 0.000, 0.000, 0.000, 14:03:36.059
191, -3669.91, -3515.10, -3471.16, -2938.87, 0.000, 0.000, 0.000, 14:03:36.060
192, -3321.86, -3368.89, -3250.17, -2753.95, 0.000, 0.000, 0.000, 14:03:36.060
193, -3561.92, -3428.83, -3369.98, -2776.65, 0.000, 0.000, 0.000, 14:03:36.074
194, -3822.25, -3618.42, -3610.55, -2995.82, 0.000, 0.000, 0.000, 14:03:36.074
195, -3762.68, -3533.16, -3490.09, -2818.06, 0.000, 0.000, 0.000, 14:03:36.104
196, -3353.19, -3375.23, -3257.05, -2666.10, 0.000, 0.000, 0.000, 14:03:36.104
197, -3552.13, -3434.25, -3384.50, -2795.53, 0.000, 0.000, 0.000, 14:03:36.105
198, -3903.35, -3600.50, -3610.42, -3035.29, 0.000, 0.000, 0.000, 14:03:36.105
199, -3621.61, -3516.49, -3467.41, -2892.86, 0.000, 0.000, 0.000, 14:03:36.105
200, -3307.29, -3373.48, -3260.87, -2698.32, 0.000, 0.000, 0.000, 14:03:36.106
0, -3486.16, -3430.40, -3396.91, -2867.06, 0.000, 0.000, 0.000, 14:03:36.106
1, -3935.53, -3606.78, -3616.00, -2972.88, 0.000, 0.000, 0.000, 14:03:36.120
2, -3712.73, -3529.52, -3472.01, -2906.32, 0.000, 0.000, 0.000, 14:03:36.120
3, -3436.15, -3373.71, -3249.84, -2644.43, 0.000, 0.000, 0.000, 14:03:36.150
4, -3519.55, -3431.27, -3374.49, -2849.28, 0.000, 0.000, 0.000, 14:03:36.150
5, -3955.86, -3591.84, -3597.55, -3056.95, 0.000, 0.000, 0.000, 14:03:36.151
6, -3660.49, -3517.05, -3470.53, -2819.01, 0.000, 0.000, 0.000, 14:03:36.151
7, -3293.57, -3367.92, -3251.65, -2695.24, 0.000, 0.000, 0.000, 14:03:36.152
8, -3515.69, -3437.29, -3395.05, -2797.40, 0.000, 0.000, 0.000, 14:03:36.152
9, -3918.97, -3608.67, -3612.75, -3004.90, 0.000, 0.000, 0.000, 14:03:36.152
10, -3655.90, -3527.54, -3470.61, -2892.48, 0.000, 0.000, 0.000, 14:03:36.152
11, -3339.41, -3362.03, -3249.50, -2692.59, 0.000, 0.000, 0.000, 14:03:36.165
12, -3655.12, -3432.74, -3382.17, -2802.36, 0.000, 0.000, 0.000, 14:03:36.165
13, -3979.77, -3598.58, -3597.57, -3011.33, 0.000, 0.000, 0.000, 14:03:36.179
14, -3700.73, -3521.24, -3469.55, -2886.40, 0.000, 0.000, 0.000, 14:03:36.179
15, -3411.07, -3369.92, -3249.24, -2711.92, 0.000, 0.000, 0.000, 14:03:36.209
16, -3569.32, -3426.87, -3390.76, -2819.57, 0.000, 0.000, 0.000, 14:03:36.209
17, -3845.72, -3599.39, -3609.32, -3036.79, 0.000, 0.000, 0.000, 14:03:36.210
18, -3685.45, -3524.67, -3456.11, -2909.80, 0.000, 0.000, 0.000, 14:03:36.210
19, -3318.39, -3364.84, -3239.01, -2678.49, 0.000, 0.000, 0.000, 14:03:36.225
20, -3551.79, -3431.81, -3396.51, -2829.94, 0.000, 0.000, 0.000, 14:03:36.225
21, -3817.98, -3594.61, -3619.04, -3108.26, 0.000, 0.000, 0.000, 14:03:36.226
22, -3716.39, -3518.18, -3455.63, -2904.81, 0.000, 0.000, 0.000, 14:03:36.226
23, -3346.87, -3371.79, -3244.04, -2653.84, 0.000, 0.000, 0.000, 14:03:36.240
24, -3586.50, -3442.72, -3405.31, -2845.85, 0.000, 0.000, 0.000, 14:03:36.240
25, -3948.13, -3597.05, -3615.78, -3064.44, 0.000, 0.000, 0.000, 14:03:36.240
26, -3731.50, -3511.07, -3471.83, -2892.15, 0.000, 0.000, 0.000, 14:03:36.240
27, -3427.76, -3375.68, -3248.74, -2714.31, 0.000, 0.000, 0.000, 14:03:36.270
28, -3484.01, -3433.66, -3387.22, -2820.53, 0.000, 0.000, 0.000, 14:03:36.270
29, -3870.78, -3586.08, -3606.77, -3042.33, 0.000, 0.000, 0.000, 14:03:36.270
30, -3731.55, -3531.79, -3455.32, -2896.82, 0.000, 0.000, 0.000, 14:03:36.270
31, -3294.68, -3370.32, -3240.36, -2735.14, 0.000, 0.000, 0.000, 14:03:36.271
32, -3624.08, -3436.88, -3404.02, -2856.33, 0.000, 0.000, 0.000, 14:03:36.271
33, -3916.07, -3587.74, -3615.69, -2950.88, 0.000, 0.000, 0.000, 14:03:36.272
34, -3757.85, -3517.77, -3466.37, -2926.47, 0.000, 0.000, 0.000, 14:03:36.272
35, -3424.21, -3364.63, -3251.50, -2685.26, 0.000, 0.000, 0.000, 14:03:36.285
36, -3578.17, -3444.22, -3418.43, -2812.24, 0.000, 0.000, 0.000, 14:03:36.285
37, -3864.00, -3604.46, -3606.98, -3000.42, 0.000, 0.000, 0.000, 14:03:36.300
38, -3643.59, -3511.54, -3452.30, -2878.60, 0.000, 0.000, 0.000, 14:03:36.300
39, -3358.48, -3362.91, -3237.35, -2634.98, 0.000, 0.000, 0.000, 14:03:36.344
40, -3641.84, -3450.09, -3406.07, -2811.30, 0.000, 0.000, 0.000, 14:03:36.344
41, -3877.52, -3583.08, -3603.42, -3053.43, 0.000, 0.000, 0.000, 14:03:36.359
42, -3641.42, -3506.11, -3459.09, -2939.54, 0.000, 0.000, 0.000, 14:03:36.360
43, -3332.86, -3365.41, -3239.45, -2688.55, 0.000, 0.000, 0.000, 14:03:36.360
44, -3582.55, -3445.18, -3412.02, -2906.77, 0.000, 0.000, 0.000, 14:03:36.360
45, -3883.81, -3600.31, -3611.41, -3058.15, 0.000, 0.000, 0.000, 14:03:36.361
46, -3691.08, -3511.85, -3453.48, -2882.62, 0.000, 0.000, 0.000, 14:03:36.361
47, -3413.83, -3366.43, -3237.51, -2688.15, 0.000, 0.000, 0.000, 14:03:36.361
48, -3625.75, -3466.81, -3426.31, -2845.25, 0.000, 0.000, 0.000, 14:03:36.361
49, -3827.53, -3601.42, -3609.03, -2971.76, 0.000, 0.000, 0.000, 14:03:36.362
50, -3676.25, -3505.76, -3457.40, -2890.63, 0.000, 0.000, 0.000, 14:03:36.362
51, -3415.17, -3377.41, -3237.66, -2691.77, 0.000, 0.000, 0.000, 14:03:36.363
52, -3532.44, -3451.24, -3428.48, -2848.25, 0.000, 0.000, 0.000, 14:03:36.363
53, -3926.42, -3592.18, -3608.18, -3061.39, 0.000, 0.000, 0.000, 14:03:36.375
54, -3746.79, -3504.41, -3451.03, -2880.96, 0.000, 0.000, 0.000, 14:03:36.375
55, -3398.04, -3350.40, -3233.65, -2684.52, 0.000, 0.000, 0.000, 14:03:36.396
56, -3661.04, -3446.70, -3421.97, -2834.56, 0.000, 0.000, 0.000, 14:03:36.396
57, -3837.88, -3603.69, -3604.24, -3014.21, 0.000, 0.000, 0.000, 14:03:36.405
58, -3725.09, -3510.29, -3441.63, -2867.85, 0.000, 0.000, 0.000, 14:03:36.405
59, -3400.04, -3368.52, -3243.61, -2683.14, 0.000, 0.000, 0.000, 14:03:36.405
60, -3593.31, -3451.19, -3425.24, -2871.10, 0.000, 0.000, 0.000, 14:03:36.405
61, -3774.68, -3594.57, -3606.55, -3041.37, 0.000, 0.000, 0.000, 14:03:36.421
62, -3582.12, -3507.18, -3446.64, -2857.46, 0.000, 0.000, 0.000, 14:03:36.421
63, -3349.76, -3362.08, -3237.26, -2710.04, 0.000, 0.000, 0.000, 14:03:36.435
64, -3584.01, -3446.09, -3423.05, -2827.28, 0.000, 0.000, 0.000, 14:03:36.435
65, -3794.67, -3618.00, -3617.57, -3059.04, 0.000, 0.000, 0.000, 14:03:36.435
66, -3631.23, -3507.21, -3439.93, -2840.84, 0.000, 0.000, 0.000, 14:03:36.435
67, -3412.19, -3356.05, -3235.63, -2705.06, 0.000, 0.000, 0.000, 14:03:36.465
68, -3679.21, -3462.96, -3424.91, -2824.44, 0.000, 0.000, 0.000, 14:03:36.465
69, -3949.63, -3599.75, -3602.07, -3025.26, 0.000, 0.000, 0.000, 14:03:36.465
70, -3675.54, -3516.73, -3442.97, -2848.90, 0.000, 0.000, 0.000, 14:03:36.465
71, -3253.57, -3368.80, -3242.57, -2702.53, 0.000, 0.000, 0.000, 14:03:36.480
72, -3599.87, -3463.32, -3432.95, -2908.37, 0.000, 0.000, 0.000, 14:03:36.480
73, -3952.38, -3611.28, -3616.07, -3041.94, 0.000, 0.000, 0.000, 14:03:36.480
74, -3653.98, -3491.85, -3421.48, -2929.40, 0.000, 0.000, 0.000, 14:03:36.480
75, -3283.66, -3356.63, -3238.66, -2701.11, 0.000, 0.000, 0.000, 14:03:36.494
76, -3670.09, -3458.75, -3441.83, -2848.88, 0.000, 0.000, 0.000, 14:03:36.494
77, -3915.63, -3585.93, -3597.28, -3050.48, 0.000, 0.000, 0.000, 14:03:36.495
78, -3682.94, -3517.12, -3449.66, -2806.93, 0.000, 0.000, 0.000, 14:03:36.495
79, -3379.97, -3363.38, -3244.17, -2701.68, 0.000, 0.000, 0.000, 14:03:36.539
80, -3592.21, -3465.72, -3435.03, -2953.32, 0.000, 0.000, 0.000, 14:03:36.539
81, -3869.65, -3593.28, -3610.95, -3000.46, 0.000, 0.000, 0.000, 14:03:36.539
82, -3643.59, -3493.71, -3434.78, -2812.69, 0.000, 0.000, 0.000, 14:03:36.540
83, -3298.87, -3364.05, -3243.19, -2705.19, 0.000, 0.000, 0.000, 14:03:36.540
84, -3606.37, -3451.82, -3440.61, -2873.95, 0.000, 0.000, 0.000, 14:03:36.540
85, -3910.03, -3605.04, -3603.16, -3035.40, 0.000, 0.000, 0.000, 14:03:36.541
86, -3637.38, -3511.66, -3435.63, -2866.92, 0.000, 0.000, 0.000, 14:03:36.541
87, -3366.37, -3355.55, -3242.19, -2672.41, 0.000, 0.000, 0.000, 14:03:36.542
88, -3614.70, -3474.45, -3446.92, -2885.78, 0.000, 0.000, 0.000, 14:03:36.542
89, -3909.95, -3594.25, -3612.38, -3011.24, 0.000, 0.000, 0.000, 14:03:36.554
90, -3705.98, -3496.51, -3444.60, -2865.09, 0.000, 0.000, 0.000, 14:03:36.554
91, -3342.98, -3365.37, -3246.71, -2669.35, 0.000, 0.000, 0.000, 14:03:36.570
92, -3649.98, -3470.27, -3440.27, -2901.13, 0.000, 0.000, 0.000, 14:03:36.570
93, -3906.97, -3590.56, -3588.48, -3023.50, 0.000, 0.000, 0.000, 14:03:36.600
94, -3628.91, -3507.33, -3448.44, -2831.07, 0.000, 0.000, 0.000, 14:03:36.600
95, -3309.50, -3366.35, -3255.69, -2671.42, 0.000, 0.000, 0.000, 14:03:36.601
96, -3673.24, -3469.74, -3448.76, -2858.33, 0.000, 0.000, 0.000, 14:03:36.601
97, -3940.06, -3603.94, -3612.64, -3017.84, 0.000, 0.000, 0.000, 14:03:36.601
98, -3714.30, -3504.71, -3433.58, -2879.19, 0.000, 0.000, 0.000, 14:03:36.601
99, -3399.83, -3360.33, -3236.41, -2705.33, 0.000, 0.000, 0.000, 14:03:36.601
100, -3591.89, -3467.89, -3450.34, -2911.27, 0.000, 0.000, 0.000, 14:03:36.602
101, -3935.07, -3590.29, -3614.13, -2986.72, 0.000, 0.000, 0.000, 14:03:36.614
102, -3625.48, -3491.59, -3430.64, -2846.82, 0.000, 0.000, 0.000, 14:03:36.615
103, -3282.78, -3351.93, -3234.41, -2661.05, 0.000, 0.000, 0.000, 14:03:36.630
104, -3616.21, -3479.92, -3462.38, -2891.69, 0.000, 0.000, 0.000, 14:03:36.630
105, -3882.35, -3606.47, -3611.54, -3037.87, 0.000, 0.000, 0.000, 14:03:36.644
106, -3631.05, -3482.98, -3429.26, -2856.19, 0.000, 0.000, 0.000, 14:03:36.644
107, -3379.76, -3367.82, -3239.41, -2704.22, 0.000, 0.000, 0.000, 14:03:36.645
108, -3682.52, -3470.86, -3449.88, -2924.24, 0.000, 0.000, 0.000, 14:03:36.645
109, -3768.66, -3584.08, -3592.39, -2970.95, 0.000, 0.000, 0.000, 14:03:36.659
110, -3529.03, -3490.90, -3433.99, -2858.72, 0.000, 0.000, 0.000, 14:03:36.659
111, -3288.40, -3349.04, -3235.72, -2704.91, 0.000, 0.000, 0.000, 14:03:36.674
112, -3679.67, -3466.62, -3457.59, -2901.75, 0.000, 0.000, 0.000, 14:03:36.674
113, -3926.29, -3590.31, -3586.23, -3013.19, 0.000, 0.000, 0.000, 14:03:36.674
114, -3598.68, -3495.04, -3432.97, -2865.99, 0.000, 0.000, 0.000, 14:03:36.674
115, -3359.56, -3346.95, -3232.31, -2705.12, 0.000, 0.000, 0.000, 14:03:36.690
116, -3733.40, -3487.90, -3470.24, -2883.66, 0.000, 0.000, 0.000, 14:03:36.690
117, -3813.28, -3599.75, -3595.08, -3023.52, 0.000, 0.000, 0.000, 14:03:36.704
118, -3547.42, -3500.37, -3420.13, -2815.73, 0.000, 0.000, 0.000, 14:03:36.704
119, -3304.79, -3338.58, -3229.03, -2671.47, 0.000, 0.000, 0.000, 14:03:36.704
120, -3616.17, -3478.02, -3454.93, -2876.95, 0.000, 0.000, 0.000, 14:03:36.704
121, -3900.14, -3597.25, -3599.76, -3070.07, 0.000, 0.000, 0.000, 14:03:36.720
122, -3569.78, -3487.80, -3420.90, -2833.25, 0.000, 0.000, 0.000, 14:03:36.720
123, -3298.72, -3358.43, -3238.59, -2711.39, 0.000, 0.000, 0.000, 14:03:36.735
124, -3624.50, -3485.55, -3469.20, -2884.95, 0.000, 0.000, 0.000, 14:03:36.735
125, -3875.57, -3602.00, -3596.06, -3047.11, 0.000, 0.000, 0.000, 14:03:36.735
126, -3740.31, -3475.41, -3411.05, -2841.59, 0.000, 0.000, 0.000, 14:03:36.735
127, -3430.86, -3342.30, -3235.37, -2684.28, 0.000, 0.000, 0.000, 14:03:36.765
128, -3706.56, -3481.36, -3459.41, -2894.26, 0.000, 0.000, 0.000, 14:03:36.765
129, -3873.80, -3577.78, -3587.09, -2987.54, 0.000, 0.000, 0.000, 14:03:36.765
130, -3601.14, -3482.40, -3417.81, -2831.87, 0.000, 0.000, 0.000, 14:03:36.765
131, -3245.57, -3350.65, -3226.28, -2688.23, 0.000, 0.000, 0.000, 14:03:36.772
132, -3676.57, -3491.87, -3480.68, -2903.89, 0.000, 0.000, 0.000, 14:03:36.772
133, -3928.67, -3598.08, -3612.37, -2994.83, 0.000, 0.000, 0.000, 14:03:36.780
134, -3621.80, -3480.19, -3421.65, -2820.34, 0.000, 0.000, 0.000, 14:03:36.780
135, -3255.33, -3361.70, -3245.11, -2720.63, 0.000, 0.000, 0.000, 14:03:36.795
136, -3712.73, -3494.01, -3478.97, -2893.57, 0.000, 0.000, 0.000, 14:03:36.795
137, -3870.40, -3602.86, -3603.25, -3038.14, 0.000, 0.000, 0.000, 14:03:36.795
138, -3548.47, -3481.09, -3409.55, -2856.34, 0.000, 0.000, 0.000, 14:03:36.795
139, -3319.44, -3349.49, -3225.98, -2699.40, 0.000, 0.000, 0.000, 14:03:36.840
140, -3787.25, -3493.27, -3481.40, -2909.99, 0.000, 0.000, 0.000, 14:03:36.840
141, -3950.36, -3582.56, -3590.34, -2956.33, 0.000, 0.000, 0.000, 14:03:36.841
142, -3673.26, -3495.15, -3428.90, -2829.05, 0.000, 0.000, 0.000, 14:03:36.841
143, -3332.50, -3341.89, -3225.25, -2689.93, 0.000, 0.000, 0.000, 14:03:36.854
144, -3737.14, -3493.35, -3484.67, -2894.26, 0.000, 0.000, 0.000, 14:03:36.854
145, -3913.60, -3587.83, -3577.50, -3034.86, 0.000, 0.000, 0.000, 14:03:36.855
146, -3588.83, -3484.86, -3421.73, -2875.62, 0.000, 0.000, 0.000, 14:03:36.855
147, -3391.70, -3352.03, -3237.22, -2717.03, 0.000, 0.000, 0.000, 14:03:36.855
148, -3674.13, -3503.18, -3479.49, -2879.60, 0.000, 0.000, 0.000, 14:03:36.855
149, -3811.18, -3587.24, -3585.46, -3000.25, 0.000, 0.000, 0.000, 14:03:36.856
150, -3651.02, -3476.77, -3411.45, -2791.92, 0.000, 0.000, 0.000, 14:03:36.856
151, -3301.96, -3355.02, -3236.62, -2671.91, 0.000, 0.000, 0.000, 14:03:36.899
152, -3753.00, -3484.73, -3484.84, -2875.79, 0.000, 0.000, 0.000, 14:03:36.900
153, -3957.56, -3604.15, -3603.71, -3077.43, 0.000, 0.000, 0.000, 14:03:36.916
154, -3677.44, -3476.88, -3410.55, -2839.24, 0.000, 0.000, 0.000, 14:03:36.916
155, -3371.97, -3337.43, -3221.90, -2647.88, 0.000, 0.000, 0.000, 14:03:36.917
156, -3782.38, -3501.43, -3492.79, -2868.87, 0.000, 0.000, 0.000, 14:03:36.917
157, -3887.92, -3598.03, -3588.11, -3005.56, 0.000, 0.000, 0.000, 14:03:36.918
158, -3508.95, -3480.95, -3416.31, -2820.26, 0.000, 0.000, 0.000, 14:03:36.918
159, -3351.67, -3337.32, -3231.47, -2624.18, 0.000, 0.000, 0.000, 14:03:36.918
160, -3742.35, -3497.13, -3492.37, -2865.33, 0.000, 0.000, 0.000, 14:03:36.918
161, -3924.03, -3603.76, -3585.78, -2987.74, 0.000, 0.000, 0.000, 14:03:36.919
162, -3524.48, -3471.89, -3396.55, -2777.38, 0.000, 0.000, 0.000, 14:03:36.919
163, -3339.71, -3363.89, -3228.71, -2669.13, 0.000, 0.000, 0.000, 14:03:36.959
164, -3596.27, -3493.80, -3492.93, -2904.61, 0.000, 0.000, 0.000, 14:03:36.959
165, -3805.90, -3587.22, -3591.75, -3015.62, 0.000, 0.000, 0.000, 14:03:36.960
166, -3665.15, -3487.42, -3407.82, -2741.24, 0.000, 0.000, 0.000, 14:03:36.960
167, -3366.12, -3342.13, -3239.88, -2630.15, 0.000, 0.000, 0.000, 14:03:36.961
168, -3715.09, -3509.08, -3507.10, -2912.61, 0.000, 0.000, 0.000, 14:03:36.961
169, -3883.35, -3598.81, -3596.50, -2977.85, 0.000, 0.000, 0.000, 14:03:36.974
170, -3516.30, -3471.41, -3391.45, -2806.86, 0.000, 0.000, 0.000, 14:03:36.974
171, -3257.73, -3364.79, -3233.81, -2694.69, 0.000, 0.000, 0.000, 14:03:36.989
172, -3732.50, -3514.34, -3500.70, -2946.96, 0.000, 0.000, 0.000, 14:03:36.989
173, -3903.22, -3602.71, -3586.14, -3032.30, 0.000, 0.000, 0.000, 14:03:36.990
174, -3596.13, -3488.88, -3400.06, -2855.23, 0.000, 0.000, 0.000, 14:03:36.991
175, -3310.13, -3341.48, -3222.15, -2613.72, 0.000, 0.000, 0.000, 14:03:36.991
176, -3656.38, -3524.61, -3507.93, -2934.40, 0.000, 0.000, 0.000, 14:03:36.991
177, -3943.03, -3596.84, -3588.16, -3018.95, 0.000, 0.000, 0.000, 14:03:36.991
178, -3553.97, -3483.21, -3406.79, -2867.88, 0.000, 0.000, 0.000, 14:03:36.991
179, -3345.10, -3361.32, -3238.23, -2655.92, 0.000, 0.000, 0.000, 14:03:37.021
180, -3779.30, -3496.70, -3492.00, -2937.35, 0.000, 0.000, 0.000, 14:03:37.021
181, -3895.38, -3599.28, -3594.74, -3000.27, 0.000, 0.000, 0.000, 14:03:37.021
182, -3568.50, -3469.39, -3389.11, -2774.49, 0.000, 0.000, 0.000, 14:03:37.021
183, -3289.11, -3342.10, -3226.51, -2732.16, 0.000, 0.000, 0.000, 14:03:37.035
184, -3785.31, -3511.42, -3508.72, -2977.92, 0.000, 0.000, 0.000, 14:03:37.036
185, -3794.11, -3608.16, -3599.11, -3044.06, 0.000, 0.000, 0.000, 14:03:37.036
186, -3602.41, -3478.76, -3398.95, -2868.60, 0.000, 0.000, 0.000, 14:03:37.036
187, -3288.55, -3348.55, -3240.36, -2697.39, 0.000, 0.000, 0.000, 14:03:37.056
188, -3746.91, -3509.36, -3513.10, -2894.57, 0.000, 0.000, 0.000, 14:03:37.056
189, -3883.42, -3583.11, -3586.32, -2995.02, 0.000, 0.000, 0.000, 14:03:37.064
190, -3570.81, -3449.39, -3372.86, -2751.89, 0.000, 0.000, 0.000, 14:03:37.064
191, -3318.10, -3350.15, -3232.95, -2644.81, 0.000, 0.000, 0.000, 14:03:37.080
192, -3765.10, -3519.81, -3515.73, -2985.97, 0.000, 0.000, 0.000, 14:03:37.080
193, -3959.05, -3589.60, -3588.54, -3011.84, 0.000, 0.000, 0.000, 14:03:37.080
194, -3605.28, -3469.84, -3402.76, -2814.82, 0.000, 0.000, 0.000, 14:03:37.080
195, -3413.17, -3355.20, -3238.26, -2687.26, 0.000, 0.000, 0.000, 14:03:37.094
196, -3774.44, -3532.60, -3525.96, -2942.55, 0.000, 0.000, 0.000, 14:03:37.094
197, -3902.69, -3588.56, -3587.75, -3015.74, 0.000, 0.000, 0.000, 14:03:37.094
198, -3567.35, -3469.31, -3392.29, -2822.97, 0.000, 0.000, 0.000, 14:03:37.094
199, -3296.04, -3357.47, -3233.84, -2682.38, 0.000, 0.000, 0.000, 14:03:37.109
200, -3715.62, -3513.20, -3528.09, -3002.91, 0.000, 0.000, 0.000, 14:03:37.109
0, -3827.39, -3591.23, -3577.39, -2999.42, 0.000, 0.000, 0.000, 14:03:37.110
1, -3650.45, -3479.78, -3391.99, -2801.75, 0.000, 0.000, 0.000, 14:03:37.124
2, -3269.80, -3358.23, -3237.31, -2732.26, 0.000, 0.000, 0.000, 14:03:37.124
3, -3804.10, -3520.63, -3523.61, -2911.23, 0.000, 0.000, 0.000, 14:03:37.139
4, -3923.90, -3578.93, -3577.38, -2972.17, 0.000, 0.000, 0.000, 14:03:37.139
5, -3508.53, -3474.03, -3392.04, -2782.82, 0.000, 0.000, 0.000, 14:03:37.140
6, -3317.42, -3358.12, -3239.55, -2661.85, 0.000, 0.000, 0.000, 14:03:37.140
7, -3724.14, -3518.91, -3520.29, -2955.95, 0.000, 0.000, 0.000, 14:03:37.155
8, -3810.64, -3575.38, -3575.65, -2967.51, 0.000, 0.000, 0.000, 14:03:37.155
9, -3555.42, -3462.34, -3378.76, -2810.32, 0.000, 0.000, 0.000, 14:03:37.170
10, -3351.38, -3363.23, -3248.50, -2731.90, 0.000, 0.000, 0.000, 14:03:37.170
11, -3747.16, -3518.80, -3516.37, -2960.90, 0.000, 0.000, 0.000, 14:03:37.170
12, -3861.05, -3591.41, -3584.24, -2980.78, 0.000, 0.000, 0.000, 14:03:37.170
13, -3526.20, -3461.47, -3387.43, -2821.81, 0.000, 0.000, 0.000, 14:03:37.184
14, -3329.37, -3352.19, -3236.15, -2695.51, 0.000, 0.000, 0.000, 14:03:37.184
15, -3722.74, -3507.46, -3509.69, -2955.84, 0.000, 0.000, 0.000, 14:03:37.201
16, -3868.33, -3601.86, -3589.01, -2968.06, 0.000, 0.000, 0.000, 14:03:37.201
17, -3580.46, -3466.86, -3383.68, -2823.52, 0.000, 0.000, 0.000, 14:03:37.201
18, -3284.43, -3358.51, -3245.63, -2684.44, 0.000, 0.000, 0.000, 14:03:37.201
19, -3746.76, -3531.32, -3536.13, -2949.51, 0.000, 0.000, 0.000, 14:03:37.215
20, -3850.51, -3579.11, -3567.27, -2976.29, 0.000, 0.000, 0.000, 14:03:37.215
21, -3557.80, -3461.70, -3374.57, -2793.31, 0.000, 0.000, 0.000, 14:03:37.229
22, -3266.77, -3342.29, -3237.97, -2693.27, 0.000, 0.000, 0.000, 14:03:37.229
23, -3853.56, -3530.77, -3533.79, -2986.16, 0.000, 0.000, 0.000, 14:03:37.230
24, -3840.76, -3595.15, -3580.43, -3002.58, 0.000, 0.000, 0.000, 14:03:37.231
25, -3595.93, -3458.30, -3373.60, -2800.87, 0.000, 0.000, 0.000, 14:03:37.244
26, -3351.02, -3359.78, -3239.79, -2673.01, 0.000, 0.000, 0.000, 14:03:37.244
27, -3767.81, -3541.67, -3538.75, -2990.48, 0.000, 0.000, 0.000, 14:03:37.259
28, -3825.64, -3579.73, -3569.61, -3001.09, 0.000, 0.000, 0.000, 14:03:37.259
29, -3555.19, -3449.65, -3368.41, -2803.68, 0.000, 0.000, 0.000, 14:03:37.259
30, -3289.63, -3351.25, -3247.81, -2712.26, 0.000, 0.000, 0.000, 14:03:37.259
31, -3820.86, -3533.44, -3553.59, -2974.75, 0.000, 0.000, 0.000, 14:03:37.274
32, -3820.02, -3594.16, -3583.94, -3006.53, 0.000, 0.000, 0.000, 14:03:37.275
33, -3514.70, -3477.40, -3369.57, -2855.49, 0.000, 0.000, 0.000, 14:03:37.289
34, -3322.38, -3357.15, -3237.02, -2724.59, 0.000, 0.000, 0.000, 14:03:37.289
35, -3799.55, -3522.29, -3529.63, -2935.43, 0.000, 0.000, 0.000, 14:03:37.290
36, -3810.77, -3580.14, -3591.01, -2982.79, 0.000, 0.000, 0.000, 14:03:37.290
37, -3560.17, -3457.92, -3381.19, -2791.86, 0.000, 0.000, 0.000, 14:03:37.304
38, -3355.50, -3352.98, -3237.51, -2663.01, 0.000, 0.000, 0.000, 14:03:37.304
39, -3874.92, -3540.01, -3545.92, -2918.00, 0.000, 0.000, 0.000, 14:03:37.319
40, -3852.90, -3591.11, -3570.18, -2961.96, 0.000, 0.000, 0.000, 14:03:37.319
41, -3517.62, -3455.72, -3365.85, -2814.04, 0.000, 0.000, 0.000, 14:03:37.320
42, -3323.62, -3348.01, -3231.03, -2714.71, 0.000, 0.000, 0.000, 14:03:37.320
43, -3815.74, -3554.72, -3546.99, -2971.44, 0.000, 0.000, 0.000, 14:03:37.334
44, -3741.64, -3574.60, -3575.16, -2984.95, 0.000, 0.000, 0.000, 14:03:37.334
45, -3526.11, -3453.29, -3374.53, -2815.78, 0.000, 0.000, 0.000, 14:03:37.350
46, -3399.58, -3372.17, -3250.07, -2692.83, 0.000, 0.000, 0.000, 14:03:37.350
47, -3776.18, -3563.62, -3556.26, -3029.82, 0.000, 0.000, 0.000, 14:03:37.351
48, -3799.26, -3582.52, -3571.19, -2946.61, 0.000, 0.000, 0.000, 14:03:37.351
49, -3593.83, -3460.09, -3368.86, -2816.42, 0.000, 0.000, 0.000, 14:03:37.379
50, -3397.40, -3361.08, -3241.17, -2701.20, 0.000, 0.000, 0.000, 14:03:37.379
51, -3793.73, -3546.10, -3538.92, -2968.61, 0.000, 0.000, 0.000, 14:03:37.380
52, -3778.15, -3582.94, -3562.58, -2936.89, 0.000, 0.000, 0.000, 14:03:37.380
53, -3433.17, -3446.25, -3356.08, -2814.07, 0.000, 0.000, 0.000, 14:03:37.380
54, -3386.33, -3365.71, -3253.00, -2742.42, 0.000, 0.000, 0.000, 14:03:37.381
55, -3717.60, -3551.44, -3555.01, -2993.68, 0.000, 0.000, 0.000, 14:03:37.409
56, -3767.51, -3593.78, -3567.58, -2938.01, 0.000, 0.000, 0.000, 14:03:37.409
57, -3473.05, -3458.08, -3365.28, -2802.86, 0.000, 0.000, 0.000, 14:03:37.410
58, -3362.06, -3365.38, -3233.51, -2700.65, 0.000, 0.000, 0.000, 14:03:37.410
59, -3855.51, -3532.56, -3534.37, -2966.51, 0.000, 0.000, 0.000, 14:03:37.410
60, -3829.37, -3593.14, -3570.23, -3045.64, 0.000, 0.000, 0.000, 14:03:37.410
61, -3509.72, -3451.98, -3349.78, -2809.66, 0.000, 0.000, 0.000, 14:03:37.424
62, -3449.34, -3354.98, -3250.16, -2704.01, 0.000, 0.000, 0.000, 14:03:37.424
63, -3772.51, -3560.72, -3560.29, -2936.10, 0.000, 0.000, 0.000, 14:03:37.439
64, -3827.34, -3573.61, -3546.79, -2949.72, 0.000, 0.000, 0.000, 14:03:37.440
65, -3469.92, -3466.83, -3367.76, -2860.53, 0.000, 0.000, 0.000, 14:03:37.470
66, -3449.79, -3365.48, -3249.88, -2742.22, 0.000, 0.000, 0.000, 14:03:37.470
67, -3820.75, -3545.80, -3562.58, -2915.14, 0.000, 0.000, 0.000, 14:03:37.470
68, -3886.80, -3573.12, -3565.37, -2907.68, 0.000, 0.000, 0.000, 14:03:37.470
69, -3562.40, -3442.56, -3346.00, -2743.38, 0.000, 0.000, 0.000, 14:03:37.471
70, -3375.64, -3351.75, -3247.07, -2706.03, 0.000, 0.000, 0.000, 14:03:37.471
71, -3843.48, -3559.05, -3556.74, -2926.77, 0.000, 0.000, 0.000, 14:03:37.471
72, -3797.44, -3589.48, -3552.75, -3002.74, 0.000, 0.000, 0.000, 14:03:37.472
73, -3400.18, -3456.06, -3350.38, -2781.96, 0.000, 0.000, 0.000, 14:03:37.485
74, -3388.19, -3356.96, -3238.88, -2734.11, 0.000, 0.000, 0.000, 14:03:37.485
75, -3888.08, -3535.00, -3533.60, -2988.48, 0.000, 0.000, 0.000, 14:03:37.515
76, -3811.75, -3584.63, -3568.55, -3001.65, 0.000, 0.000, 0.000, 14:03:37.516
77, -3497.67, -3451.43, -3347.09, -2765.35, 0.000, 0.000, 0.000, 14:03:37.530
78, -3357.67, -3367.18, -3247.44, -2778.29, 0.000, 0.000, 0.000, 14:03:37.530
79, -3799.97, -3552.12, -3559.99, -3017.37, 0.000, 0.000, 0.000, 14:03:37.531
80, -3801.43, -3574.79, -3557.37, -2943.99, 0.000, 0.000, 0.000, 14:03:37.531
81, -3484.38, -3435.85, -3336.50, -2759.09, 0.000, 0.000, 0.000, 14:03:37.531
82, -3376.10, -3369.03, -3248.16, -2722.52, 0.000, 0.000, 0.000, 14:03:37.531
83, -3861.94, -3536.32, -3559.22, -3016.35, 0.000, 0.000, 0.000, 14:03:37.532
84, -3857.61, -3575.64, -3546.69, -2970.47, 0.000, 0.000, 0.000, 14:03:37.532
85, -3545.34, -3443.10, -3338.57, -2797.24, 0.000, 0.000, 0.000, 14:03:37.544
86, -3339.80, -3359.03, -3254.36, -2777.20, 0.000, 0.000, 0.000, 14:03:37.544
87, -3740.69, -3546.89, -3552.88, -3004.33, 0.000, 0.000, 0.000, 14:03:37.574
88, -3728.39, -3584.42, -3556.18, -2925.99, 0.000, 0.000, 0.000, 14:03:37.574
89, -3517.50, -3424.39, -3332.81, -2734.64, 0.000, 0.000, 0.000, 14:03:37.575
90, -3327.10, -3362.47, -3252.42, -2712.71, 0.000, 0.000, 0.000, 14:03:37.575
91, -3814.21, -3553.24, -3547.99, -3033.59, 0.000, 0.000, 0.000, 14:03:37.575
92, -3828.30, -3581.80, -3552.43, -3021.86, 0.000, 0.000, 0.000, 14:03:37.575
93, -3480.97, -3435.18, -3340.81, -2789.85, 0.000, 0.000, 0.000, 14:03:37.576
94, -3397.93, -3365.34, -3261.63, -2699.37, 0.000, 0.000, 0.000, 14:03:37.576
95, -3928.08, -3551.17, -3565.87, -3034.70, 0.000, 0.000, 0.000, 14:03:37.589
96, -3897.30, -3570.77, -3556.35, -2977.75, 0.000, 0.000, 0.000, 14:03:37.590
97, -3527.62, -3439.29, -3345.82, -2709.43, 0.000, 0.000, 0.000, 14:03:37.604
98, -3318.03, -3344.03, -3229.37, -2682.61, 0.000, 0.000, 0.000, 14:03:37.604
99, -3865.61, -3559.01, -3562.05, -3010.16, 0.000, 0.000, 0.000, 14:03:37.619
100, -3810.12, -3571.84, -3557.81, -2943.85, 0.000, 0.000, 0.000, 14:03:37.619
101, -3526.57, -3432.87, -3335.73, -2759.75, 0.000, 0.000, 0.000, 14:03:37.619
102, -3365.19, -3369.16, -3259.45, -2783.99, 0.000, 0.000, 0.000, 14:03:37.620
103, -3896.09, -3578.04, -3569.94, -3006.56, 0.000, 0.000, 0.000, 14:03:37.635
104, -3803.47, -3566.24, -3544.07, -2976.23, 0.000, 0.000, 0.000, 14:03:37.635
105, -3408.86, -3435.17, -3328.80, -2794.51, 0.000, 0.000, 0.000, 14:03:37.650
106, -3395.68, -3359.30, -3262.82, -2684.78, 0.000, 0.000, 0.000, 14:03:37.650
107, -3881.28, -3559.32, -3573.49, -3033.58, 0.000, 0.000, 0.000, 14:03:37.651
108, -3871.76, -3564.54, -3545.28, -2989.42, 0.000, 0.000, 0.000, 14:03:37.651
109, -3441.99, -3433.10, -3328.55, -2815.05, 0.000, 0.000, 0.000, 14:03:37.664
110, -3362.42, -3360.39, -3244.16, -2738.15, 0.000, 0.000, 0.000, 14:03:37.664
111, -3896.42, -3570.25, -3566.13, -3019.74, 0.000, 0.000, 0.000, 14:03:37.679
112, -3773.70, -3553.31, -3527.22, -2978.83, 0.000, 0.000, 0.000, 14:03:37.679
113, -3467.97, -3435.09, -3324.67, -2754.41, 0.000, 0.000, 0.000, 14:03:37.679
114, -3407.81, -3359.67, -3264.99, -2676.89, 0.000, 0.000, 0.000, 14:03:37.680
115, -3743.24, -3556.50, -3577.33, -3028.97, 0.000, 0.000, 0.000, 14:03:37.694
116, -3809.90, -3550.53, -3539.85, -2962.82, 0.000, 0.000, 0.000, 14:03:37.695
117, -3510.21, -3430.23, -3327.48, -2773.04, 0.000, 0.000, 0.000, 14:03:37.709
118, -3360.55, -3360.33, -3257.08, -2781.03, 0.000, 0.000, 0.000, 14:03:37.709
119, -3889.43, -3565.07, -3580.95, -2999.85, 0.000, 0.000, 0.000, 14:03:37.709
120, -3803.96, -3571.56, -3545.05, -2955.04, 0.000, 0.000, 0.000, 14:03:37.709
121, -3469.20, -3429.10, -3327.52, -2772.43, 0.000, 0.000, 0.000, 14:03:37.724
122, -3397.87, -3361.71, -3266.46, -2698.71, 0.000, 0.000, 0.000, 14:03:37.724
123, -3828.27, -3566.32, -3578.80, -2997.62, 0.000, 0.000, 0.000, 14:03:37.740
124, -3806.79, -3559.03, -3540.78, -2928.37, 0.000, 0.000, 0.000, 14:03:37.740
125, -3451.33, -3437.48, -3330.13, -2758.28, 0.000, 0.000, 0.000, 14:03:37.740
126, -3342.92, -3369.43, -3268.80, -2740.97, 0.000, 0.000, 0.000, 14:03:37.740
127, -3905.14, -3557.32, -3577.54, -3027.25, 0.000, 0.000, 0.000, 14:03:37.769
128, -3760.91, -3554.85, -3537.23, -2988.99, 0.000, 0.000, 0.000, 14:03:37.769
129, -3456.25, -3420.07, -3312.62, -2806.23, 0.000, 0.000, 0.000, 14:03:37.770
130, -3393.90, -3361.62, -3258.37, -2668.50, 0.000, 0.000, 0.000, 14:03:37.770
131, -3840.81, -3571.47, -3584.55, -2983.27, 0.000, 0.000, 0.000, 14:03:37.770
132, -3703.86, -3564.07, -3545.37, -3022.68, 0.000, 0.000, 0.000, 14:03:37.770
133, -3486.19, -3424.53, -3325.74, -2770.62, 0.000, 0.000, 0.000, 14:03:37.785
134, -3400.63, -3370.31, -3261.07, -2721.96, 0.000, 0.000, 0.000, 14:03:37.785
135, -3887.62, -3562.14, -3575.22, -2935.43, 0.000, 0.000, 0.000, 14:03:37.800
136, -3701.81, -3560.29, -3530.43, -2992.62, 0.000, 0.000, 0.000, 14:03:37.800
137, -3437.50, -3416.90, -3303.58, -2751.94, 0.000, 0.000, 0.000, 14:03:37.800
138, -3324.74, -3383.60, -3286.75, -2765.79, 0.000, 0.000, 0.000, 14:03:37.800
139, -3811.93, -3570.70, -3582.42, -3083.16, 0.000, 0.000, 0.000, 14:03:37.829
140, -3847.14, -3558.45, -3540.11, -3015.25, 0.000, 0.000, 0.000, 14:03:37.829
141, -3563.29, -3425.69, -3314.17, -2830.63, 0.000, 0.000, 0.000, 14:03:37.830
142, -3354.72, -3376.08, -3264.82, -2724.74, 0.000, 0.000, 0.000, 14:03:37.830
143, -3875.56, -3581.55, -3574.61, -2944.68, 0.000, 0.000, 0.000, 14:03:37.831
144, -3729.98, -3567.88, -3529.31, -2938.79, 0.000, 0.000, 0.000, 14:03:37.831
145, -3541.14, -3421.47, -3318.90, -2807.51, 0.000, 0.000, 0.000, 14:03:37.844
146, -3372.14, -3367.30, -3268.43, -2714.11, 0.000, 0.000, 0.000, 14:03:37.844
147, -3880.77, -3574.09, -3569.78, -3000.70, 0.000, 0.000, 0.000, 14:03:37.859
148, -3820.07, -3563.52, -3533.74, -2955.19, 0.000, 0.000, 0.000, 14:03:37.861
149, -3417.41, -3431.92, -3315.24, -2799.07, 0.000, 0.000, 0.000, 14:03:37.861
150, -3398.99, -3376.29, -3260.71, -2786.05, 0.000, 0.000, 0.000, 14:03:37.861
151, -3947.98, -3577.07, -3571.67, -2991.99, 0.000, 0.000, 0.000, 14:03:37.874
152, -3809.48, -3565.31, -3523.90, -2962.00, 0.000, 0.000, 0.000, 14:03:37.874
153, -3530.78, -3404.45, -3306.31, -2688.42, 0.000, 0.000, 0.000, 14:03:37.890
154, -3387.31, -3386.88, -3288.25, -2685.10, 0.000, 0.000, 0.000, 14:03:37.890
155, -3913.23, -3595.91, -3597.94, -3064.38, 0.000, 0.000, 0.000, 14:03:37.890
156, -3744.55, -3569.98, -3539.37, -2978.36, 0.000, 0.000, 0.000, 14:03:37.890
157, -3508.92, -3423.57, -3318.72, -2742.40, 0.000, 0.000, 0.000, 14:03:37.911
158, -3445.13, -3376.52, -3286.73, -2704.01, 0.000, 0.000, 0.000, 14:03:37.911
159, -3938.53, -3583.82, -3585.75, -2953.05, 0.000, 0.000, 0.000, 14:03:37.919
160, -3736.03, -3571.88, -3537.26, -2932.34, 0.000, 0.000, 0.000, 14:03:37.919
161, -3397.83, -3410.65, -3293.15, -2780.70, 0.000, 0.000, 0.000, 14:03:37.919
162, -3428.30, -3387.94, -3287.91, -2735.64, 0.000, 0.000, 0.000, 14:03:37.920
163, -3925.75, -3580.72, -3591.49, -2987.02, 0.000, 0.000, 0.000, 14:03:37.934
164, -3693.66, -3573.43, -3540.67, -2927.49, 0.000, 0.000, 0.000, 14:03:37.934
165, -3492.02, -3426.60, -3316.72, -2800.34, 0.000, 0.000, 0.000, 14:03:37.950
166, -3342.96, -3370.43, -3272.63, -2792.37, 0.000, 0.000, 0.000, 14:03:37.950
167, -3923.65, -3587.30, -3590.48, -2982.76, 0.000, 0.000, 0.000, 14:03:37.951
168, -3763.91, -3557.04, -3519.51, -2966.16, 0.000, 0.000, 0.000, 14:03:37.951
169, -3423.21, -3416.21, -3293.17, -2770.74, 0.000, 0.000, 0.000, 14:03:37.965
170, -3325.02, -3386.58, -3279.64, -2760.22, 0.000, 0.000, 0.000, 14:03:37.965
171, -3863.32, -3594.44, -3590.99, -3037.45, 0.000, 0.000, 0.000, 14:03:37.994
172, -3740.49, -3563.75, -3529.68, -2931.97, 0.000, 0.000, 0.000, 14:03:37.994
173, -3364.41, -3409.74, -3299.96, -2796.43, 0.000, 0.000, 0.000, 14:03:37.995
174, -3374.07, -3379.77, -3280.04, -2743.96, 0.000, 0.000, 0.000, 14:03:37.995
175, -3966.99, -3595.78, -3585.76, -3046.57, 0.000, 0.000, 0.000, 14:03:37.995
176, -3761.66, -3560.97, -3516.69, -2991.90, 0.000, 0.000, 0.000, 14:03:37.995
177, -3443.89, -3403.20, -3297.75, -2741.65, 0.000, 0.000, 0.000, 14:03:38.009
178, -3430.96, -3381.40, -3286.84, -2784.80, 0.000, 0.000, 0.000, 14:03:38.009
179, -3848.09, -3576.04, -3592.13, -3039.14, 0.000, 0.000, 0.000, 14:03:38.024
180, -3836.59, -3548.71, -3523.94, -2928.30, 0.000, 0.000, 0.000, 14:03:38.024
181, -3484.83, -3414.14, -3305.67, -2694.33, 0.000, 0.000, 0.000, 14:03:38.024
182, -3431.23, -3387.38, -3290.11, -2693.69, 0.000, 0.000, 0.000, 14:03:38.025
183, -3866.97, -3585.56, -3589.55, -2985.85, 0.000, 0.000, 0.000, 14:03:38.069
184, -3783.51, -3559.56, -3519.60, -2888.03, 0.000, 0.000, 0.000, 14:03:38.069
185, -3459.02, -3415.20, -3297.79, -2731.94, 0.000, 0.000, 0.000, 14:03:38.084
186, -3344.41, -3390.45, -3296.18, -2795.89, 0.000, 0.000, 0.000, 14:03:38.084
187, -3900.37, -3582.12, -3591.33, -3042.26, 0.000, 0.000, 0.000, 14:03:38.085
188, -3700.39, -3563.59, -3521.30, -2916.73, 0.000, 0.000, 0.000, 14:03:38.085
189, -3407.42, -3412.09, -3298.98, -2757.88, 0.000, 0.000, 0.000, 14:03:38.086
190, -3426.31, -3378.34, -3297.93, -2759.54, 0.000, 0.000, 0.000, 14:03:38.086
191, -3953.13, -3576.46, -3592.53, -3036.37, 0.000, 0.000, 0.000, 14:03:38.086
192, -3859.27, -3563.35, -3523.10, -2931.57, 0.000, 0.000, 0.000, 14:03:38.086
193, -3433.50, -3412.45, -3299.31, -2761.38, 0.000, 0.000, 0.000, 14:03:38.087
194, -3356.74, -3413.95, -3301.80, -2783.79, 0.000, 0.000, 0.000, 14:03:38.087
195, -3862.18, -3586.30, -3581.82, -3057.56, 0.000, 0.000, 0.000, 14:03:38.087
196, -3744.23, -3555.14, -3513.28, -2966.76, 0.000, 0.000, 0.000, 14:03:38.087
197, -3358.85, -3410.50, -3294.70, -2737.67, 0.000, 0.000, 0.000, 14:03:38.100
198, -3415.96, -3383.12, -3295.56, -2787.60, 0.000, 0.000, 0.000, 14:03:38.100
199, -3923.66, -3581.82, -3577.55, -3025.47, 0.000, 0.000, 0.000, 14:03:38.130
200, -3809.27, -3545.58, -3500.48, -2982.44, 0.000, 0.000, 0.000, 14:03:38.130
0, -3510.05, -3416.68, -3285.05, -2803.73, 0.000, 0.000, 0.000, 14:03:38.131
1, -3472.30, -3398.61, -3298.11, -2821.01, 0.000, 0.000, 0.000, 14:03:38.131
2, -3926.25, -3593.54, -3621.46, -3007.53, 0.000, 0.000, 0.000, 14:03:38.131
3, -3793.23, -3552.30, -3520.06, -2984.34, 0.000, 0.000, 0.000, 14:03:38.132
4, -3430.92, -3392.64, -3290.76, -2745.61, 0.000, 0.000, 0.000, 14:03:38.132
5, -3473.18, -3385.89, -3308.82, -2809.87, 0.000, 0.000, 0.000, 14:03:38.145
6, -3853.74, -3595.20, -3593.79, -3021.93, 0.000, 0.000, 0.000, 14:03:38.145
7, -3754.78, -3564.33, -3522.29, -2939.84, 0.000, 0.000, 0.000, 14:03:38.159
8, -3422.63, -3397.33, -3286.54, -2743.57, 0.000, 0.000, 0.000, 14:03:38.159
9, -3465.55, -3393.92, -3311.61, -2766.65, 0.000, 0.000, 0.000, 14:03:38.174
10, -3847.98, -3595.74, -3601.52, -2989.16, 0.000, 0.000, 0.000, 14:03:38.174
11, -3816.09, -3566.50, -3517.77, -2937.47, 0.000, 0.000, 0.000, 14:03:38.174
12, -3390.68, -3416.47, -3298.79, -2734.22, 0.000, 0.000, 0.000, 14:03:38.175
13, -3450.58, -3386.78, -3301.05, -2768.86, 0.000, 0.000, 0.000, 14:03:38.189
14, -3910.82, -3581.64, -3591.57, -2957.87, 0.000, 0.000, 0.000, 14:03:38.190
15, -3758.41, -3543.98, -3506.76, -2881.36, 0.000, 0.000, 0.000, 14:03:38.205
16, -3426.28, -3410.08, -3289.37, -2732.70, 0.000, 0.000, 0.000, 14:03:38.205
17, -3375.78, -3396.12, -3304.13, -2723.83, 0.000, 0.000, 0.000, 14:03:38.205
18, -3879.72, -3610.95, -3601.31, -3048.15, 0.000, 0.000, 0.000, 14:03:38.205
19, -3732.80, -3555.72, -3502.89, -2979.21, 0.000, 0.000, 0.000, 14:03:38.219
20, -3476.27, -3405.72, -3277.51, -2728.85, 0.000, 0.000, 0.000, 14:03:38.219
21, -3445.06, -3387.46, -3310.59, -2740.85, 0.000, 0.000, 0.000, 14:03:38.234
22, -3796.51, -3579.47, -3594.07, -3019.51, 0.000, 0.000, 0.000, 14:03:38.234
23, -3674.79, -3554.40, -3507.01, -2909.27, 0.000, 0.000, 0.000, 14:03:38.236
24, -3491.82, -3412.30, -3275.93, -2742.32, 0.000, 0.000, 0.000, 14:03:38.236
25, -3496.37, -3409.86, -3322.44, -2757.49, 0.000, 0.000, 0.000, 14:03:38.251
26, -3966.48, -3581.54, -3601.12, -3051.49, 0.000, 0.000, 0.000, 14:03:38.251
27, -3793.54, -3553.36, -3502.40, -2946.86, 0.000, 0.000, 0.000, 14:03:38.265
28, -3377.91, -3393.50, -3257.21, -2678.73, 0.000, 0.000, 0.000, 14:03:38.265
29, -3479.12, -3400.37, -3321.09, -2801.60, 0.000, 0.000, 0.000, 14:03:38.266
30, -3864.05, -3582.85, -3609.74, -3036.51, 0.000, 0.000, 0.000, 14:03:38.266
31, -3760.22, -3549.46, -3509.01, -2894.62, 0.000, 0.000, 0.000, 14:03:38.279
32, -3297.47, -3388.45, -3267.02, -2732.43, 0.000, 0.000, 0.000, 14:03:38.279
33, -3385.87, -3408.87, -3316.24, -2829.96, 0.000, 0.000, 0.000, 14:03:38.294
34, -3842.55, -3587.10, -3593.09, -3077.75, 0.000, 0.000, 0.000, 14:03:38.294
35, -3827.79, -3555.05, -3518.87, -2955.90, 0.000, 0.000, 0.000, 14:03:38.303
36, -3388.52, -3402.46, -3292.28, -2755.39, 0.000, 0.000, 0.000, 14:03:38.303
37, -3551.28, -3408.45, -3330.40, -2825.89, 0.000, 0.000, 0.000, 14:03:38.310
38, -3889.54, -3593.08, -3590.09, -2973.55, 0.000, 0.000, 0.000, 14:03:38.310
39, -3755.78, -3536.14, -3492.38, -2909.18, 0.000, 0.000, 0.000, 14:03:38.324
40, -3396.36, -3380.71, -3264.73, -2682.23, 0.000, 0.000, 0.000, 14:03:38.324
41, -3464.52, -3401.75, -3323.11, -2815.67, 0.000, 0.000, 0.000, 14:03:38.325
42, -3950.22, -3606.36, -3621.33, -3084.42, 0.000, 0.000, 0.000, 14:03:38.325
43, -3703.55, -3538.32, -3489.63, -2935.66, 0.000, 0.000, 0.000, 14:03:38.340
44, -3324.14, -3400.96, -3277.39, -2773.08, 0.000, 0.000, 0.000, 14:03:38.340
45, -3448.29, -3394.14, -3326.78, -2748.73, 0.000, 0.000, 0.000, 14:03:38.354
46, -3932.15, -3590.68, -3608.90, -3062.38, 0.000, 0.000, 0.000, 14:03:38.354
47, -3808.68, -3545.50, -3496.86, -2928.52, 0.000, 0.000, 0.000, 14:03:38.370
48, -3419.35, -3399.93, -3273.60, -2707.11, 0.000, 0.000, 0.000, 14:03:38.370
49, -3454.22, -3414.10, -3337.18, -2767.59, 0.000, 0.000, 0.000, 14:03:38.384
50, -3869.45, -3597.64, -3601.58, -3013.00, 0.000, 0.000, 0.000, 14:03:38.385
51, -3661.60, -3551.06, -3497.49, -2833.64, 0.000, 0.000, 0.000, 14:03:38.385
52, -3465.84, -3387.67, -3266.04, -2721.02, 0.000, 0.000, 0.000, 14:03:38.386
53, -3485.77, -3391.05, -3341.52, -2762.31, 0.000, 0.000, 0.000, 14:03:38.386
54, -3815.84, -3604.09, -3610.08, -3090.87, 0.000, 0.000, 0.000, 14:03:38.386
55, -3784.46, -3544.29, -3490.67, -2965.15, 0.000, 0.000, 0.000, 14:03:38.400
56, -3437.12, -3392.03, -3265.27, -2705.33, 0.000, 0.000, 0.000, 14:03:38.400
57, -3445.24, -3410.99, -3337.71, -2753.08, 0.000, 0.000, 0.000, 14:03:38.419
58, -3972.62, -3584.19, -3603.16, -2951.89, 0.000, 0.000, 0.000, 14:03:38.419
59, -3769.11, -3537.78, -3490.84, -2916.51, 0.000, 0.000, 0.000, 14:03:38.420
60, -3381.48, -3383.78, -3277.70, -2675.38, 0.000, 0.000, 0.000, 14:03:38.420
61, -3411.22, -3405.78, -3347.85, -2812.93, 0.000, 0.000, 0.000, 14:03:38.431
62, -3938.42, -3595.22, -3611.06, -3022.39, 0.000, 0.000, 0.000, 14:03:38.431
63, -3750.12, -3545.23, -3484.11, -2930.84, 0.000, 0.000, 0.000, 14:03:38.445
64, -3300.25, -3391.86, -3258.07, -2720.39, 0.000, 0.000, 0.000, 14:03:38.445
65, -3534.52, -3412.31, -3333.40, -2806.10, 0.000, 0.000, 0.000, 14:03:38.446
66, -3987.02, -3598.63, -3601.76, -3031.92, 0.000, 0.000, 0.000, 14:03:38.446
67, -3723.82, -3528.63, -3488.93, -2863.65, 0.000, 0.000, 0.000, 14:03:38.459
68, -3365.00, -3393.00, -3269.93, -2749.35, 0.000, 0.000, 0.000, 14:03:38.459
69, -3469.52, -3404.62, -3339.50, -2796.86, 0.000, 0.000, 0.000, 14:03:38.489
70, -3942.89, -3583.33, -3612.07, -3032.51, 0.000, 0.000, 0.000, 14:03:38.490
71, -3786.59, -3525.09, -3477.74, -2933.41, 0.000, 0.000, 0.000, 14:03:38.490
72, -3433.44, -3381.74, -3252.38, -2702.52, 0.000, 0.000, 0.000, 14:03:38.490
73, -3420.63, -3423.23, -3339.51, -2844.63, 0.000, 0.000, 0.000, 14:03:38.491
74, -3806.53, -3598.00, -3608.97, -3014.78, 0.000, 0.000, 0.000, 14:03:38.491
75, -3627.01, -3544.58, -3493.98, -2908.86, 0.000, 0.000, 0.000, 14:03:38.491
76, -3412.99, -3380.83, -3256.48, -2722.68, 0.000, 0.000, 0.000, 14:03:38.491
77, -3513.13, -3417.96, -3349.85, -2770.12, 0.000, 0.000, 0.000, 14:03:38.505
78, -3891.51, -3590.63, -3599.85, -3026.91, 0.000, 0.000, 0.000, 14:03:38.505
79, -3659.37, -3534.73, -3491.75, -2916.27, 0.000, 0.000, 0.000, 14:03:38.520
80, -3308.63, -3391.26, -3259.84, -2703.59, 0.000, 0.000, 0.000, 14:03:38.520
81, -3512.27, -3415.82, -3352.70, -2809.68, 0.000, 0.000, 0.000, 14:03:38.536
82, -3892.10, -3593.99, -3605.85, -2984.24, 0.000, 0.000, 0.000, 14:03:38.536
83, -3741.43, -3546.20, -3493.31, -2935.37, 0.000, 0.000, 0.000, 14:03:38.537
84, -3355.66, -3391.43, -3263.86, -2733.80, 0.000, 0.000, 0.000, 14:03:38.537
85, -3612.63, -3425.09, -3359.79, -2840.62, 0.000, 0.000, 0.000, 14:03:38.550
86, -3959.09, -3604.70, -3616.32, -3041.71, 0.000, 0.000, 0.000, 14:03:38.550
87, -3720.64, -3535.12, -3499.83, -2885.30, 0.000, 0.000, 0.000, 14:03:38.579
88, -3299.07, -3380.39, -3260.89, -2695.50, 0.000, 0.000, 0.000, 14:03:38.580
89, -3502.32, -3415.32, -3355.54, -2783.12, 0.000, 0.000, 0.000, 14:03:38.580
90, -3955.59, -3595.44, -3605.53, -3038.42, 0.000, 0.000, 0.000, 14:03:38.580
91, -3707.61, -3534.24, -3489.41, -2988.29, 0.000, 0.000, 0.000, 14:03:38.581
92, -3315.25, -3375.33, -3259.58, -2671.22, 0.000, 0.000, 0.000, 14:03:38.581
93, -3511.93, -3430.24, -3363.08, -2852.15, 0.000, 0.000, 0.000, 14:03:38.582
94, -3932.77, -3590.19, -3603.44, -3027.44, 0.000, 0.000, 0.000, 14:03:38.582
95, -3722.47, -3533.08, -3482.39, -2918.40, 0.000, 0.000, 0.000, 14:03:38.624
96, -3349.18, -3372.30, -3241.08, -2708.46, 0.000, 0.000, 0.000, 14:03:38.624
97, -3474.77, -3426.46, -3365.77, -2805.81, 0.000, 0.000, 0.000, 14:03:38.624
98, -3942.45, -3605.09, -3606.40, -3008.71, 0.000, 0.000, 0.000, 14:03:38.625
99, -3806.83, -3536.54, -3473.49, -2939.95, 0.000, 0.000, 0.000, 14:03:38.625
100, -3457.98, -3384.41, -3260.44, -2724.76, 0.000, 0.000, 0.000, 14:03:38.625
101, -3609.31, -3424.57, -3373.76, -2838.15, 0.000, 0.000, 0.000, 14:03:38.626
102, -3930.76, -3589.78, -3604.47, -3051.08, 0.000, 0.000, 0.000, 14:03:38.626
103, -3689.71, -3524.76, -3467.78, -2845.67, 0.000, 0.000, 0.000, 14:03:38.639
104, -3405.61, -3391.80, -3253.34, -2757.20, 0.000, 0.000, 0.000, 14:03:38.639
105, -3581.90, -3444.97, -3374.57, -2779.60, 0.000, 0.000, 0.000, 14:03:38.654
106, -3873.60, -3593.26, -3593.18, -3033.21, 0.000, 0.000, 0.000, 14:03:38.654
107, -3630.09, -3530.00, -3475.70, -2898.28, 0.000, 0.000, 0.000, 14:03:38.655
108, -3320.23, -3381.13, -3251.50, -2672.11, 0.000, 0.000, 0.000, 14:03:38.655
109, -3532.37, -3420.35, -3369.33, -2820.36, 0.000, 0.000, 0.000, 14:03:38.684
110, -3943.07, -3590.91, -3601.53, -3055.38, 0.000, 0.000, 0.000, 14:03:38.684
111, -3710.29, -3526.77, -3473.52, -2909.74, 0.000, 0.000, 0.000, 14:03:38.685
112, -3357.96, -3374.91, -3255.00, -2736.76, 0.000, 0.000, 0.000, 14:03:38.685
113, -3542.35, -3438.18, -3377.90, -2810.96, 0.000, 0.000, 0.000, 14:03:38.686
114, -3858.83, -3601.21, -3603.22, -3041.42, 0.000, 0.000, 0.000, 14:03:38.686
115, -3775.28, -3532.54, -3474.96, -2911.15, 0.000, 0.000, 0.000, 14:03:38.700
116, -3340.41, -3387.18, -3250.25, -2732.02, 0.000, 0.000, 0.000, 14:03:38.700
117, -3556.93, -3432.67, -3376.25, -2800.08, 0.000, 0.000, 0.000, 14:03:38.715
118, -3978.05, -3600.16, -3612.85, -3055.00, 0.000, 0.000, 0.000, 14:03:38.715
119, -3700.02, -3524.57, -3460.04, -2886.89, 0.000, 0.000, 0.000, 14:03:38.715
120, -3369.98, -3380.38, -3251.33, -2716.19, 0.000, 0.000, 0.000, 14:03:38.715
121, -3570.87, -3431.51, -3382.83, -2842.59, 0.000, 0.000, 0.000, 14:03:38.730
122, -3888.03, -3591.24, -3591.35, -3037.77, 0.000, 0.000, 0.000, 14:03:38.730
123, -3688.95, -3535.85, -3480.72, -2912.79, 0.000, 0.000, 0.000, 14:03:38.745
124, -3356.17, -3388.59, -3250.36, -2644.46, 0.000, 0.000, 0.000, 14:03:38.746
125, -3559.89, -3448.62, -3392.90, -2835.88, 0.000, 0.000, 0.000, 14:03:38.746
126, -3927.53, -3604.39, -3606.73, -3067.36, 0.000, 0.000, 0.000, 14:03:38.746
127, -3676.03, -3515.66, -3474.71, -2849.50, 0.000, 0.000, 0.000, 14:03:38.759
128, -3348.85, -3369.58, -3251.21, -2730.57, 0.000, 0.000, 0.000, 14:03:38.759
129, -3537.27, -3438.23, -3392.06, -2842.90, 0.000, 0.000, 0.000, 14:03:38.774
130, -3942.97, -3598.13, -3601.53, -2997.33, 0.000, 0.000, 0.000, 14:03:38.775
131, -3680.29, -3522.89, -3466.73, -2882.02, 0.000, 0.000, 0.000, 14:03:38.775
132, -3272.09, -3369.85, -3245.96, -2726.21, 0.000, 0.000, 0.000, 14:03:38.775
133, -3622.01, -3447.58, -3386.79, -2837.28, 0.000, 0.000, 0.000, 14:03:38.790
134, -3886.86, -3595.54, -3602.05, -2959.90, 0.000, 0.000, 0.000, 14:03:38.790
135, -3677.71, -3519.92, -3460.16, -2865.52, 0.000, 0.000, 0.000, 14:03:38.805
136, -3352.64, -3372.54, -3242.74, -2650.65, 0.000, 0.000, 0.000, 14:03:38.805
137, -3561.26, -3446.41, -3391.63, -2825.34, 0.000, 0.000, 0.000, 14:03:38.805
138, -3834.44, -3613.02, -3607.80, -3022.35, 0.000, 0.000, 0.000, 14:03:38.805
139, -3707.96, -3525.36, -3456.33, -2877.05, 0.000, 0.000, 0.000, 14:03:38.819
140, -3342.90, -3371.14, -3244.67, -2685.12, 0.000, 0.000, 0.000, 14:03:38.819
141, -3542.75, -3441.69, -3396.79, -2826.09, 0.000, 0.000, 0.000, 14:03:38.834
142, -3955.65, -3609.38, -3614.92, -3089.23, 0.000, 0.000, 0.000, 14:03:38.834
143, -3676.10, -3523.29, -3466.48, -2854.08, 0.000, 0.000, 0.000, 14:03:38.835
144, -3363.68, -3370.20, -3247.56, -2708.45, 0.000, 0.000, 0.000, 14:03:38.836
145, -3594.20, -3438.83, -3400.32, -2841.27, 0.000, 0.000, 0.000, 14:03:38.850
146, -3873.99, -3598.20, -3606.55, -3069.26, 0.000, 0.000, 0.000, 14:03:38.850
147, -3638.83, -3523.28, -3458.92, -2952.24, 0.000, 0.000, 0.000, 14:03:38.865
148, -3351.84, -3380.41, -3247.04, -2765.61, 0.000, 0.000, 0.000, 14:03:38.866
149, -3622.35, -3460.54, -3416.13, -2914.83, 0.000, 0.000, 0.000, 14:03:38.866
150, -3868.56, -3603.41, -3603.39, -3060.31, 0.000, 0.000, 0.000, 14:03:38.867
151, -3711.33, -3519.14, -3458.90, -2871.83, 0.000, 0.000, 0.000, 14:03:38.879
152, -3319.98, -3372.73, -3237.72, -2687.42, 0.000, 0.000, 0.000, 14:03:38.879
153, -3609.66, -3442.03, -3403.42, -2801.21, 0.000, 0.000, 0.000, 14:03:38.894
154, -3939.72, -3602.54, -3600.35, -3020.15, 0.000, 0.000, 0.000, 14:03:38.895
155, -3606.66, -3511.23, -3443.51, -2875.26, 0.000, 0.000, 0.000, 14:03:38.895
156, -3327.85, -3363.26, -3243.57, -2684.27, 0.000, 0.000, 0.000, 14:03:38.895
157, -3638.64, -3442.89, -3411.94, -2876.38, 0.000, 0.000, 0.000, 14:03:38.910
158, -3972.49, -3582.24, -3598.57, -2932.33, 0.000, 0.000, 0.000, 14:03:38.910
159, -3605.60, -3515.15, -3454.45, -2824.08, 0.000, 0.000, 0.000, 14:03:38.925
160, -3367.44, -3375.80, -3244.68, -2676.02, 0.000, 0.000, 0.000, 14:03:38.925
161, -3558.03, -3449.83, -3405.09, -2833.53, 0.000, 0.000, 0.000, 14:03:38.925
162, -3911.13, -3600.66, -3612.51, -3005.08, 0.000, 0.000, 0.000, 14:03:38.925
163, -3713.10, -3505.38, -3449.85, -2832.56, 0.000, 0.000, 0.000, 14:03:38.940
164, -3387.98, -3359.41, -3238.60, -2669.64, 0.000, 0.000, 0.000, 14:03:38.940
165, -3595.43, -3469.19, -3430.45, -2853.57, 0.000, 0.000, 0.000, 14:03:38.954
166, -3956.50, -3596.10, -3617.04, -3009.35, 0.000, 0.000, 0.000, 14:03:38.954
167, -3669.14, -3509.88, -3453.64, -2865.01, 0.000, 0.000, 0.000, 14:03:38.955
168, -3378.49, -3374.07, -3251.15, -2754.53, 0.000, 0.000, 0.000, 14:03:38.955
169, -3616.87, -3463.32, -3425.14, -2881.28, 0.000, 0.000, 0.000, 14:03:38.969
170, -3904.05, -3595.87, -3597.03, -3031.99, 0.000, 0.000, 0.000, 14:03:38.969
171, -3612.72, -3516.81, -3452.23, -2906.00, 0.000, 0.000, 0.000, 14:03:38.985
172, -3413.41, -3367.86, -3239.86, -2659.35, 0.000, 0.000, 0.000, 14:03:38.985
173, -3654.37, -3467.97, -3428.41, -2887.00, 0.000, 0.000, 0.000, 14:03:38.986
174, -3855.93, -3605.43, -3603.39, -3037.32, 0.000, 0.000, 0.000, 14:03:38.986
175, -3631.52, -3510.01, -3437.08, -2908.12, 0.000, 0.000, 0.000, 14:03:39.015
176, -3278.71, -3363.30, -3239.31, -2667.93, 0.000, 0.000, 0.000, 14:03:39.015
177, -3668.29, -3461.35, -3422.54, -2842.49, 0.000, 0.000, 0.000, 14:03:39.015
178, -3850.23, -3598.77, -3609.95, -3067.36, 0.000, 0.000, 0.000, 14:03:39.015
179, -3674.71, -3504.99, -3449.30, -2891.48, 0.000, 0.000, 0.000, 14:03:39.015
180, -3366.02, -3356.15, -3229.43, -2703.89, 0.000, 0.000, 0.000, 14:03:39.015
181, -3610.16, -3454.38, -3427.92, -2853.52, 0.000, 0.000, 0.000, 14:03:39.060
182, -3814.87, -3596.70, -3590.70, -3012.78, 0.000, 0.000, 0.000, 14:03:39.060
183, -3663.23, -3515.30, -3438.77, -2866.18, 0.000, 0.000, 0.000, 14:03:39.074
184, -3339.55, -3358.95, -3240.17, -2680.21, 0.000, 0.000, 0.000, 14:03:39.074
185, -3630.72, -3458.64, -3431.20, -2896.53, 0.000, 0.000, 0.000, 14:03:39.074
186, -3947.28, -3600.49, -3602.27, -3041.64, 0.000, 0.000, 0.000, 14:03:39.074
187, -3591.03, -3514.59, -3453.11, -2874.03, 0.000, 0.000, 0.000, 14:03:39.076
188, -3363.05, -3365.78, -3238.68, -2755.01, 0.000, 0.000, 0.000, 14:03:39.076
189, -3618.92, -3466.06, -3432.43, -2921.35, 0.000, 0.000, 0.000, 14:03:39.076
190, -3967.34, -3593.34, -3604.60, -2969.19, 0.000, 0.000, 0.000, 14:03:39.076
191, -3731.97, -3516.91, -3445.45, -2914.88, 0.000, 0.000, 0.000, 14:03:39.077
192, -3369.30, -3388.30, -3227.90, -2654.86, 0.000, 0.000, 0.000, 14:03:39.077
193, -3641.43, -3488.67, -3442.22, -2903.87, 0.000, 0.000, 0.000, 14:03:39.105
194, -3918.97, -3616.75, -3600.71, -3072.80, 0.000, 0.000, 0.000, 14:03:39.105
195, -3637.31, -3517.07, -3433.57, -2850.50, 0.000, 0.000, 0.000, 14:03:39.119
196, -3346.91, -3394.71, -3241.96, -2686.10, 0.000, 0.000, 0.000, 14:03:39.119
197, -3649.86, -3498.27, -3424.60, -2835.56, 0.000, 0.000, 0.000, 14:03:39.119
198, -3834.35, -3648.52, -3588.13, -3018.54, 0.000, 0.000, 0.000, 14:03:39.120
199, -3569.61, -3517.33, -3431.69, -2840.27, 0.000, 0.000, 0.000, 14:03:39.120
200, -3296.12, -3362.63, -3212.69, -2642.47, 0.000, 0.000, 0.000, 14:03:39.120
0, -3613.64, -3510.31, -3449.88, -2858.47, 0.000, 0.000, 0.000, 14:03:39.121
1, -3736.65, -3669.85, -3598.23, -3044.53, 0.000, 0.000, 0.000, 14:03:39.135
2, -3519.20, -3592.07, -3436.00, -2826.43, 0.000, 0.000, 0.000, 14:03:39.135
3, -3289.86, -3432.93, -3231.58, -2707.16, 0.000, 0.000, 0.000, 14:03:39.151
4, -3602.42, -3534.57, -3433.98, -2802.45, 0.000, 0.000, 0.000, 14:03:39.151
5, -3830.76, -3658.53, -3586.55, -2937.50, 0.000, 0.000, 0.000, 14:03:39.151
6, -3511.55, -3564.11, -3441.03, -2878.79, 0.000, 0.000, 0.000, 14:03:39.151
7, -3295.32, -3432.23, -3247.32, -2666.92, 0.000, 0.000, 0.000, 14:03:39.165
8, -3582.78, -3515.73, -3457.56, -2841.55, 0.000, 0.000, 0.000, 14:03:39.165
9, -3750.92, -3610.38, -3584.40, -2993.64, 0.000, 0.000, 0.000, 14:03:39.195
10, -3539.75, -3517.48, -3435.51, -2913.35, 0.000, 0.000, 0.000, 14:03:39.195
11, -3390.74, -3365.47, -3232.23, -2651.46, 0.000, 0.000, 0.000, 14:03:39.195
12, -3722.76, -3481.85, -3466.84, -2913.70, 0.000, 0.000, 0.000, 14:03:39.195
13, -3820.23, -3603.83, -3619.78, -2970.22, 0.000, 0.000, 0.000, 14:03:39.196
14, -3539.24, -3499.10, -3435.95, -2807.80, 0.000, 0.000, 0.000, 14:03:39.196
15, -3307.67, -3347.92, -3237.33, -2681.11, 0.000, 0.000, 0.000, 14:03:39.196
16, -3668.76, -3467.08, -3459.27, -2927.93, 0.000, 0.000, 0.000, 14:03:39.197
17, -3961.17, -3577.60, -3612.21, -2986.16, 0.000, 0.000, 0.000, 14:03:39.209
18, -3612.86, -3485.83, -3442.10, -2852.71, 0.000, 0.000, 0.000, 14:03:39.209
19, -3408.58, -3335.60, -3232.47, -2677.29, 0.000, 0.000, 0.000, 14:03:39.239
20, -3618.04, -3448.15, -3444.08, -2877.87, 0.000, 0.000, 0.000, 14:03:39.239
21, -3989.08, -3582.41, -3605.06, -3005.41, 0.000, 0.000, 0.000, 14:03:39.240
22, -3737.69, -3496.38, -3436.45, -2913.02, 0.000, 0.000, 0.000, 14:03:39.240
23, -3329.86, -3335.66, -3235.08, -2729.67, 0.000, 0.000, 0.000, 14:03:39.241
24, -3781.35, -3466.25, -3475.64, -2899.67, 0.000, 0.000, 0.000, 14:03:39.241
25, -3981.32, -3579.93, -3596.29, -3001.47, 0.000, 0.000, 0.000, 14:03:39.254
26, -3726.68, -3479.99, -3433.80, -2867.83, 0.000, 0.000, 0.000, 14:03:39.254
27, -3429.11, -3342.79, -3237.55, -2679.31, 0.000, 0.000, 0.000, 14:03:39.269
28, -3696.33, -3484.20, -3470.49, -2887.58, 0.000, 0.000, 0.000, 14:03:39.269
29, -3881.19, -3585.90, -3601.90, -3040.25, 0.000, 0.000, 0.000, 14:03:39.270
30, -3675.12, -3488.93, -3425.79, -2861.42, 0.000, 0.000, 0.000, 14:03:39.270
31, -3282.04, -3343.62, -3236.19, -2689.75, 0.000, 0.000, 0.000, 14:03:39.301
32, -3715.10, -3475.49, -3461.32, -2906.03, 0.000, 0.000, 0.000, 14:03:39.301
33, -3869.88, -3574.05, -3589.86, -2978.47, 0.000, 0.000, 0.000, 14:03:39.301
34, -3627.35, -3495.91, -3433.15, -2850.80, 0.000, 0.000, 0.000, 14:03:39.301
35, -3385.19, -3360.19, -3235.72, -2699.18, 0.000, 0.000, 0.000, 14:03:39.301
36, -3716.70, -3465.94, -3447.19, -2902.86, 0.000, 0.000, 0.000, 14:03:39.301
37, -3910.58, -3596.80, -3600.94, -3045.35, 0.000, 0.000, 0.000, 14:03:39.314
38, -3637.54, -3487.76, -3431.90, -2879.61, 0.000, 0.000, 0.000, 14:03:39.314
39, -3418.43, -3361.90, -3239.53, -2646.43, 0.000, 0.000, 0.000, 14:03:39.329
40, -3728.66, -3475.08, -3471.06, -2944.49, 0.000, 0.000, 0.000, 14:03:39.329
41, -3935.12, -3589.27, -3598.49, -3011.25, 0.000, 0.000, 0.000, 14:03:39.330
42, -3614.94, -3488.68, -3417.56, -2889.03, 0.000, 0.000, 0.000, 14:03:39.330
43, -3340.74, -3345.64, -3229.16, -2714.61, 0.000, 0.000, 0.000, 14:03:39.344
44, -3717.53, -3480.32, -3473.98, -2871.60, 0.000, 0.000, 0.000, 14:03:39.345
45, -3807.06, -3581.83, -3588.63, -2979.87, 0.000, 0.000, 0.000, 14:03:39.359
46, -3507.52, -3467.68, -3408.93, -2860.43, 0.000, 0.000, 0.000, 14:03:39.359
47, -3382.19, -3356.95, -3239.17, -2744.13, 0.000, 0.000, 0.000, 14:03:39.360
48, -3735.43, -3490.65, -3471.90, -2927.83, 0.000, 0.000, 0.000, 14:03:39.360
49, -3880.93, -3581.13, -3584.92, -2968.32, 0.000, 0.000, 0.000, 14:03:39.375
50, -3586.33, -3485.10, -3421.16, -2826.47, 0.000, 0.000, 0.000, 14:03:39.375
51, -3263.18, -3355.05, -3241.09, -2733.38, 0.000, 0.000, 0.000, 14:03:39.389
52, -3705.38, -3480.26, -3463.04, -2924.81, 0.000, 0.000, 0.000, 14:03:39.389
53, -3952.78, -3595.98, -3582.44, -2982.63, 0.000, 0.000, 0.000, 14:03:39.390
54, -3653.88, -3485.82, -3416.33, -2840.35, 0.000, 0.000, 0.000, 14:03:39.390
55, -3388.72, -3343.89, -3222.94, -2737.92, 0.000, 0.000, 0.000, 14:03:39.404
56, -3780.83, -3495.55, -3491.21, -2987.72, 0.000, 0.000, 0.000, 14:03:39.404
57, -3926.89, -3592.08, -3597.66, -3059.31, 0.000, 0.000, 0.000, 14:03:39.419
58, -3561.21, -3486.19, -3419.96, -2864.91, 0.000, 0.000, 0.000, 14:03:39.419
59, -3362.72, -3359.08, -3238.93, -2688.75, 0.000, 0.000, 0.000, 14:03:39.420
60, -3705.07, -3483.12, -3464.46, -2936.36, 0.000, 0.000, 0.000, 14:03:39.420
61, -3849.26, -3586.39, -3586.53, -2928.99, 0.000, 0.000, 0.000, 14:03:39.435
62, -3531.72, -3494.25, -3414.57, -2876.19, 0.000, 0.000, 0.000, 14:03:39.435
63, -3314.66, -3356.89, -3229.41, -2737.57, 0.000, 0.000, 0.000, 14:03:39.450
64, -3716.29, -3480.30, -3487.36, -2970.78, 0.000, 0.000, 0.000, 14:03:39.450
65, -3854.70, -3583.63, -3582.35, -3019.36, 0.000, 0.000, 0.000, 14:03:39.450
66, -3620.77, -3485.88, -3404.81, -2843.80, 0.000, 0.000, 0.000, 14:03:39.450
67, -3314.62, -3346.12, -3216.73, -2709.84, 0.000, 0.000, 0.000, 14:03:39.465
68, -3663.79, -3493.32, -3478.14, -2946.61, 0.000, 0.000, 0.000, 14:03:39.465
69, -3872.34, -3603.23, -3593.21, -3032.03, 0.000, 0.000, 0.000, 14:03:39.479
70, -3647.59, -3478.72, -3412.33, -2781.40, 0.000, 0.000, 0.000, 14:03:39.480
71, -3323.32, -3346.96, -3243.92, -2666.32, 0.000, 0.000, 0.000, 14:03:39.480
72, -3708.72, -3482.73, -3498.90, -2859.44, 0.000, 0.000, 0.000, 14:03:39.480
73, -3851.07, -3585.72, -3590.29, -2943.07, 0.000, 0.000, 0.000, 14:03:39.495
74, -3613.41, -3469.89, -3403.30, -2800.80, 0.000, 0.000, 0.000, 14:03:39.495
75, -3359.77, -3354.05, -3230.21, -2689.30, 0.000, 0.000, 0.000, 14:03:39.509
76, -3735.42, -3503.42, -3501.44, -2921.18, 0.000, 0.000, 0.000, 14:03:39.510
77, -3796.45, -3566.29, -3582.55, -3005.28, 0.000, 0.000, 0.000, 14:03:39.510
78, -3518.00, -3492.23, -3408.18, -2841.20, 0.000, 0.000, 0.000, 14:03:39.510
79, -3383.08, -3358.50, -3233.40, -2690.19, 0.000, 0.000, 0.000, 14:03:39.524
80, -3809.86, -3511.16, -3503.41, -2958.90, 0.000, 0.000, 0.000, 14:03:39.524
81, -3901.55, -3590.82, -3581.33, -3039.79, 0.000, 0.000, 0.000, 14:03:39.539
82, -3516.61, -3473.61, -3394.11, -2829.01, 0.000, 0.000, 0.000, 14:03:39.539
83, -3300.32, -3350.66, -3235.56, -2665.87, 0.000, 0.000, 0.000, 14:03:39.540
84, -3757.59, -3502.03, -3496.59, -2937.75, 0.000, 0.000, 0.000, 14:03:39.540
85, -3887.36, -3601.94, -3589.02, -2989.13, 0.000, 0.000, 0.000, 14:03:39.556
86, -3574.99, -3482.68, -3394.40, -2803.66, 0.000, 0.000, 0.000, 14:03:39.556
87, -3310.70, -3352.73, -3227.12, -2693.07, 0.000, 0.000, 0.000, 14:03:39.570
88, -3789.08, -3498.04, -3486.37, -2884.35, 0.000, 0.000, 0.000, 14:03:39.571
89, -3922.91, -3602.27, -3588.09, -2972.19, 0.000, 0.000, 0.000, 14:03:39.571
90, -3614.53, -3482.72, -3403.63, -2850.55, 0.000, 0.000, 0.000, 14:03:39.571
91, -3350.42, -3349.12, -3229.13, -2693.69, 0.000, 0.000, 0.000, 14:03:39.600
92, -3757.61, -3508.72, -3498.20, -2924.70, 0.000, 0.000, 0.000, 14:03:39.601
93, -3839.90, -3590.95, -3588.58, -3050.72, 0.000, 0.000, 0.000, 14:03:39.601
94, -3612.45, -3472.78, -3388.46, -2842.04, 0.000, 0.000, 0.000, 14:03:39.601
95, -3323.08, -3352.81, -3234.99, -2724.86, 0.000, 0.000, 0.000, 14:03:39.601
96, -3734.48, -3501.05, -3497.51, -2914.57, 0.000, 0.000, 0.000, 14:03:39.602
97, -3894.54, -3586.72, -3573.10, -2985.31, 0.000, 0.000, 0.000, 14:03:39.614
98, -3611.28, -3477.65, -3392.83, -2771.05, 0.000, 0.000, 0.000, 14:03:39.615
99, -3374.74, -3351.02, -3237.52, -2665.68, 0.000, 0.000, 0.000, 14:03:39.630
100, -3757.34, -3516.12, -3504.66, -2978.60, 0.000, 0.000, 0.000, 14:03:39.630
101, -3736.44, -3590.05, -3576.52, -3059.88, 0.000, 0.000, 0.000, 14:03:39.631
102, -3580.77, -3467.35, -3405.52, -2810.14, 0.000, 0.000, 0.000, 14:03:39.631
103, -3335.89, -3347.69, -3227.46, -2677.36, 0.000, 0.000, 0.000, 14:03:39.674
104, -3769.39, -3534.43, -3522.65, -2939.71, 0.000, 0.000, 0.000, 14:03:39.674
105, -3869.75, -3591.49, -3576.15, -2978.91, 0.000, 0.000, 0.000, 14:03:39.674
106, -3568.31, -3480.45, -3382.11, -2795.28, 0.000, 0.000, 0.000, 14:03:39.674
107, -3361.28, -3356.78, -3236.78, -2731.87, 0.000, 0.000, 0.000, 14:03:39.675
108, -3849.22, -3534.75, -3526.96, -2973.56, 0.000, 0.000, 0.000, 14:03:39.675
109, -3940.24, -3580.46, -3575.75, -3025.38, 0.000, 0.000, 0.000, 14:03:39.676
110, -3481.33, -3468.47, -3387.62, -2811.63, 0.000, 0.000, 0.000, 14:03:39.676
111, -3244.99, -3348.01, -3238.32, -2667.94, 0.000, 0.000, 0.000, 14:03:39.683
112, -3777.04, -3523.18, -3525.53, -3019.26, 0.000, 0.000, 0.000, 14:03:39.683
113, -3913.94, -3585.18, -3584.84, -3048.52, 0.000, 0.000, 0.000, 14:03:39.690
114, -3637.36, -3464.16, -3386.86, -2787.27, 0.000, 0.000, 0.000, 14:03:39.690
115, -3390.01, -3343.13, -3223.13, -2654.33, 0.000, 0.000, 0.000, 14:03:39.736
116, -3796.91, -3526.76, -3520.32, -2981.47, 0.000, 0.000, 0.000, 14:03:39.736
117, -3861.67, -3591.05, -3579.46, -3053.59, 0.000, 0.000, 0.000, 14:03:39.736
118, -3555.24, -3477.06, -3385.23, -2805.07, 0.000, 0.000, 0.000, 14:03:39.736
119, -3267.27, -3370.63, -3241.54, -2696.25, 0.000, 0.000, 0.000, 14:03:39.736
120, -3718.88, -3522.56, -3527.54, -2997.41, 0.000, 0.000, 0.000, 14:03:39.736
121, -3945.87, -3589.05, -3567.74, -2980.30, 0.000, 0.000, 0.000, 14:03:39.737
122, -3640.53, -3463.63, -3386.71, -2841.45, 0.000, 0.000, 0.000, 14:03:39.737
123, -3289.84, -3348.83, -3235.72, -2703.39, 0.000, 0.000, 0.000, 14:03:39.737
124, -3829.47, -3532.03, -3529.14, -2916.38, 0.000, 0.000, 0.000, 14:03:39.737
125, -3858.85, -3589.04, -3572.61, -2981.46, 0.000, 0.000, 0.000, 14:03:39.750
126, -3559.13, -3462.53, -3372.54, -2792.81, 0.000, 0.000, 0.000, 14:03:39.750
127, -3313.55, -3369.19, -3243.03, -2706.44, 0.000, 0.000, 0.000, 14:03:39.764
128, -3715.22, -3540.04, -3523.71, -2981.32, 0.000, 0.000, 0.000, 14:03:39.765
129, -3845.45, -3583.97, -3574.78, -2997.29, 0.000, 0.000, 0.000, 14:03:39.794
130, -3503.38, -3453.06, -3375.11, -2834.04, 0.000, 0.000, 0.000, 14:03:39.794
131, -3319.99, -3348.78, -3223.10, -2640.39, 0.000, 0.000, 0.000, 14:03:39.794
132, -3766.34, -3538.68, -3544.33, -3017.11, 0.000, 0.000, 0.000, 14:03:39.794
133, -3876.03, -3571.94, -3561.92, -2943.39, 0.000, 0.000, 0.000, 14:03:39.795
134, -3581.35, -3463.01, -3374.09, -2875.20, 0.000, 0.000, 0.000, 14:03:39.795
135, -3362.01, -3350.79, -3237.33, -2652.40, 0.000, 0.000, 0.000, 14:03:39.796
136, -3740.45, -3532.23, -3530.71, -2953.11, 0.000, 0.000, 0.000, 14:03:39.796
137, -3783.56, -3578.82, -3550.75, -3013.91, 0.000, 0.000, 0.000, 14:03:39.809
138, -3538.35, -3469.85, -3376.92, -2775.47, 0.000, 0.000, 0.000, 14:03:39.810
139, -3341.33, -3353.17, -3234.63, -2701.25, 0.000, 0.000, 0.000, 14:03:39.824
140, -3795.31, -3541.29, -3534.99, -2957.78, 0.000, 0.000, 0.000, 14:03:39.824
141, -3836.96, -3580.81, -3570.20, -2995.53, 0.000, 0.000, 0.000, 14:03:39.839
142, -3540.04, -3442.38, -3367.72, -2806.98, 0.000, 0.000, 0.000, 14:03:39.839
143, -3365.14, -3345.30, -3235.80, -2665.20, 0.000, 0.000, 0.000, 14:03:39.840
144, -3817.16, -3548.29, -3544.97, -2989.06, 0.000, 0.000, 0.000, 14:03:39.840
145, -3881.89, -3582.78, -3561.67, -3001.21, 0.000, 0.000, 0.000, 14:03:39.854
146, -3573.54, -3463.32, -3366.24, -2793.47, 0.000, 0.000, 0.000, 14:03:39.854
147, -3317.48, -3348.15, -3216.53, -2722.28, 0.000, 0.000, 0.000, 14:03:39.870
148, -3876.82, -3539.48, -3546.19, -3008.84, 0.000, 0.000, 0.000, 14:03:39.870
149, -3923.27, -3587.55, -3577.70, -3062.07, 0.000, 0.000, 0.000, 14:03:39.870
150, -3454.43, -3447.74, -3372.78, -2806.28, 0.000, 0.000, 0.000, 14:03:39.870
151, -3254.18, -3361.13, -3226.72, -2675.61, 0.000, 0.000, 0.000, 14:03:39.884
152, -3741.20, -3532.67, -3521.12, -2992.76, 0.000, 0.000, 0.000, 14:03:39.884
153, -3775.99, -3563.37, -3568.59, -2980.99, 0.000, 0.000, 0.000, 14:03:39.901
154, -3572.76, -3445.60, -3367.56, -2800.65, 0.000, 0.000, 0.000, 14:03:39.901
155, -3355.67, -3361.08, -3239.25, -2724.66, 0.000, 0.000, 0.000, 14:03:39.902
156, -3776.14, -3540.56, -3537.48, -2940.08, 0.000, 0.000, 0.000, 14:03:39.902
157, -3888.28, -3584.14, -3571.95, -2985.59, 0.000, 0.000, 0.000, 14:03:39.914
158, -3586.39, -3448.80, -3365.64, -2786.14, 0.000, 0.000, 0.000, 14:03:39.915
159, -3362.06, -3372.63, -3253.58, -2696.15, 0.000, 0.000, 0.000, 14:03:39.929
160, -3740.82, -3555.31, -3548.71, -2969.14, 0.000, 0.000, 0.000, 14:03:39.929
161, -3921.91, -3580.28, -3564.87, -2947.86, 0.000, 0.000, 0.000, 14:03:39.930
162, -3425.10, -3434.92, -3348.00, -2826.31, 0.000, 0.000, 0.000, 14:03:39.930
163, -3284.18, -3358.03, -3245.51, -2758.73, 0.000, 0.000, 0.000, 14:03:39.944
164, -3811.59, -3556.57, -3554.74, -2993.46, 0.000, 0.000, 0.000, 14:03:39.945
165, -3816.76, -3584.68, -3564.59, -2900.01, 0.000, 0.000, 0.000, 14:03:39.959
166, -3603.84, -3461.12, -3370.35, -2779.14, 0.000, 0.000, 0.000, 14:03:39.959
167, -3427.47, -3372.71, -3264.32, -2763.03, 0.000, 0.000, 0.000, 14:03:39.960
168, -3817.04, -3546.42, -3540.20, -2957.73, 0.000, 0.000, 0.000, 14:03:39.960
169, -3898.37, -3582.46, -3567.76, -2940.00, 0.000, 0.000, 0.000, 14:03:39.975
170, -3450.33, -3449.73, -3350.23, -2827.63, 0.000, 0.000, 0.000, 14:03:39.975
171, -3352.84, -3362.24, -3245.56, -2717.03, 0.000, 0.000, 0.000, 14:03:39.990
172, -3886.56, -3552.71, -3545.94, -2957.69, 0.000, 0.000, 0.000, 14:03:39.990
173, -3814.00, -3593.89, -3573.05, -2987.54, 0.000, 0.000, 0.000, 14:03:39.990
174, -3499.09, -3450.16, -3347.00, -2781.39, 0.000, 0.000, 0.000, 14:03:39.990
175, -3345.85, -3367.90, -3242.92, -2686.98, 0.000, 0.000, 0.000, 14:03:40.011
176, -3898.65, -3555.68, -3562.10, -2996.62, 0.000, 0.000, 0.000, 14:03:40.011
177, -3835.08, -3597.25, -3563.41, -2987.83, 0.000, 0.000, 0.000, 14:03:40.020
178, -3535.93, -3462.44, -3357.59, -2799.85, 0.000, 0.000, 0.000, 14:03:40.020
179, -3340.60, -3360.19, -3252.41, -2735.75, 0.000, 0.000, 0.000, 14:03:40.021
180, -3802.79, -3547.84, -3546.33, -2959.57, 0.000, 0.000, 0.000, 14:03:40.021
181, -3838.41, -3596.55, -3564.08, -2968.12, 0.000, 0.000, 0.000, 14:03:40.053
182, -3515.94, -3444.39, -3339.60, -2788.44, 0.000, 0.000, 0.000, 14:03:40.053
183, -3354.06, -3364.08, -3252.56, -2725.08, 0.000, 0.000, 0.000, 14:03:40.054
184, -3888.83, -3572.33, -3574.89, -3038.48, 0.000, 0.000, 0.000, 14:03:40.054
185, -3796.64, -3596.95, -3569.54, -3005.38, 0.000, 0.000, 0.000, 14:03:40.054
186, -3479.54, -3447.20, -3343.87, -2759.82, 0.000, 0.000, 0.000, 14:03:40.054
187, -3399.12, -3372.63, -3249.02, -2737.22, 0.000, 0.000, 0.000, 14:03:40.065
188, -3867.05, -3546.95, -3560.62, -2987.17, 0.000, 0.000, 0.000, 14:03:40.065
189, -3849.43, -3580.76, -3560.76, -2966.53, 0.000, 0.000, 0.000, 14:03:40.080
190, -3516.43, -3435.89, -3333.28, -2724.05, 0.000, 0.000, 0.000, 14:03:40.080
191, -3404.24, -3378.20, -3258.35, -2749.51, 0.000, 0.000, 0.000, 14:03:40.080
192, -3795.32, -3569.83, -3566.19, -2987.71, 0.000, 0.000, 0.000, 14:03:40.080
193, -3708.31, -3583.25, -3557.30, -3021.93, 0.000, 0.000, 0.000, 14:03:40.094
194, -3485.96, -3426.07, -3338.91, -2733.12, 0.000, 0.000, 0.000, 14:03:40.094
195, -3413.05, -3379.81, -3259.12, -2664.21, 0.000, 0.000, 0.000, 14:03:40.109
196, -3843.88, -3580.60, -3578.67, -3041.51, 0.000, 0.000, 0.000, 14:03:40.109
197, -3850.96, -3580.65, -3562.88, -2948.57, 0.000, 0.000, 0.000, 14:03:40.110
198, -3445.75, -3458.51, -3358.59, -2805.12, 0.000, 0.000, 0.000, 14:03:40.110
199, -3383.12, -3359.13, -3249.19, -2712.10, 0.000, 0.000, 0.000, 14:03:40.125
200, -3807.98, -3566.47, -3555.09, -2999.12, 0.000, 0.000, 0.000, 14:03:40.125
0, -3890.42, -3580.19, -3553.82, -2985.62, 0.000, 0.000, 0.000, 14:03:40.125
1, -3491.13, -3441.38, -3344.65, -2748.41, 0.000, 0.000, 0.000, 14:03:40.139
2, -3454.39, -3376.25, -3258.84, -2702.55, 0.000, 0.000, 0.000, 14:03:40.139
3, -3811.02, -3559.49, -3565.93, -3003.77, 0.000, 0.000, 0.000, 14:03:40.154
4, -3825.25, -3556.99, -3544.93, -2977.92, 0.000, 0.000, 0.000, 14:03:40.154
5, -3474.89, -3439.22, -3344.32, -2767.82, 0.000, 0.000, 0.000, 14:03:40.155
6, -3316.27, -3365.25, -3256.92, -2696.16, 0.000, 0.000, 0.000, 14:03:40.155
7, -3906.93, -3558.93, -3565.77, -3042.37, 0.000, 0.000, 0.000, 14:03:40.170
8, -3810.88, -3596.68, -3561.28, -3027.28, 0.000, 0.000, 0.000, 14:03:40.170
9, -3492.94, -3455.78, -3338.24, -2766.33, 0.000, 0.000, 0.000, 14:03:40.184
10, -3370.36, -3373.61, -3262.80, -2682.81, 0.000, 0.000, 0.000, 14:03:40.185
11, -3887.90, -3543.94, -3563.15, -3030.46, 0.000, 0.000, 0.000, 14:03:40.185
12, -3748.51, -3577.94, -3553.69, -2967.75, 0.000, 0.000, 0.000, 14:03:40.185
13, -3456.54, -3435.20, -3336.04, -2738.06, 0.000, 0.000, 0.000, 14:03:40.215
14, -3365.44, -3359.27, -3264.92, -2691.94, 0.000, 0.000, 0.000, 14:03:40.215
15, -3841.73, -3555.50, -3558.35, -2954.35, 0.000, 0.000, 0.000, 14:03:40.216
16, -3794.11, -3569.27, -3537.58, -2988.72, 0.000, 0.000, 0.000, 14:03:40.216
17, -3502.15, -3442.55, -3336.18, -2782.83, 0.000, 0.000, 0.000, 14:03:40.216
18, -3356.09, -3369.62, -3261.64, -2684.57, 0.000, 0.000, 0.000, 14:03:40.216
19, -3845.12, -3571.69, -3578.35, -2928.59, 0.000, 0.000, 0.000, 14:03:40.229
20, -3784.92, -3568.09, -3540.72, -2968.59, 0.000, 0.000, 0.000, 14:03:40.229
21, -3504.20, -3412.10, -3350.69, -2792.39, 0.000, 0.000, 0.000, 14:03:40.244
22, -3391.41, -3360.41, -3260.23, -2729.78, 0.000, 0.000, 0.000, 14:03:40.244
23, -3838.58, -3571.01, -3585.65, -3012.23, 0.000, 0.000, 0.000, 14:03:40.244
24, -3808.40, -3565.10, -3529.24, -2972.81, 0.000, 0.000, 0.000, 14:03:40.245
25, -3490.96, -3431.06, -3335.04, -2741.45, 0.000, 0.000, 0.000, 14:03:40.274
26, -3392.03, -3404.16, -3293.89, -2792.99, 0.000, 0.000, 0.000, 14:03:40.274
27, -3847.96, -3571.39, -3607.26, -3004.06, 0.000, 0.000, 0.000, 14:03:40.275
28, -3804.98, -3607.64, -3563.04, -2997.93, 0.000, 0.000, 0.000, 14:03:40.275
29, -3511.31, -3452.19, -3345.51, -2816.23, 0.000, 0.000, 0.000, 14:03:40.275
30, -3436.47, -3374.06, -3287.74, -2777.18, 0.000, 0.000, 0.000, 14:03:40.275
31, -3860.05, -3567.03, -3587.52, -3000.43, 0.000, 0.000, 0.000, 14:03:40.289
32, -3768.67, -3554.79, -3534.22, -3010.74, 0.000, 0.000, 0.000, 14:03:40.289
33, -3467.63, -3351.65, -3298.41, -2699.44, 0.000, 0.000, 0.000, 14:03:40.305
34, -3285.35, -3285.17, -3248.52, -2640.07, 0.000, 0.000, 0.000, 14:03:40.305
35, -3837.94, -3512.15, -3565.39, -2944.39, 0.000, 0.000, 0.000, 14:03:40.305
36, -3822.55, -3517.23, -3528.71, -2975.33, 0.000, 0.000, 0.000, 14:03:40.305
37, -3385.07, -3406.72, -3312.32, -2723.67, 0.000, 0.000, 0.000, 14:03:40.320
38, -3437.35, -3365.99, -3259.92, -2712.93, 0.000, 0.000, 0.000, 14:03:40.320
39, -3866.16, -3526.07, -3568.69, -3099.24, 0.000, 0.000, 0.000, 14:03:40.350
40, -3828.79, -3514.92, -3523.88, -2953.52, 0.000, 0.000, 0.000, 14:03:40.350
41, -3434.18, -3368.99, -3305.05, -2771.05, 0.000, 0.000, 0.000, 14:03:40.350
42, -3349.31, -3304.06, -3219.29, -2787.10, 0.000, 0.000, 0.000, 14:03:40.350
43, -3820.35, -3447.42, -3485.90, -2949.42, 0.000, 0.000, 0.000, 14:03:40.352
44, -3776.60, -3490.07, -3473.97, -3008.52, 0.000, 0.000, 0.000, 14:03:40.352
45, -3442.09, -3354.13, -3237.30, -2777.94, 0.000, 0.000, 0.000, 14:03:40.352
46, -3298.16, -3301.86, -3193.69, -2745.67, 0.000, 0.000, 0.000, 14:03:40.352
47, -3922.56, -3500.39, -3513.37, -3097.34, 0.000, 0.000, 0.000, 14:03:40.371
48, -3731.16, -3510.54, -3482.95, -3008.52, 0.000, 0.000, 0.000, 14:03:40.371
49, -3380.73, -3338.51, -3239.90, -2766.68, 0.000, 0.000, 0.000, 14:03:40.380
50, -3325.84, -3282.70, -3166.76, -2790.82, 0.000, 0.000, 0.000, 14:03:40.380
51, -3873.73, -3516.86, -3532.91, -3144.59, 0.000, 0.000, 0.000, 14:03:40.394
52, -3876.26, -3503.70, -3463.95, -3072.61, 0.000, 0.000, 0.000, 14:03:40.394
53, -3526.68, -3348.11, -3248.05, -2834.87, 0.000, 0.000, 0.000, 14:03:40.395
54, -3470.41, -3308.70, -3199.18, -2823.27, 0.000, 0.000, 0.000, 14:03:40.395
55, -3837.56, -3515.12, -3497.49, -3107.89, 0.000, 0.000, 0.000, 14:03:40.425
56, -3774.18, -3509.97, -3434.69, -3021.81, 0.000, 0.000, 0.000, 14:03:40.425
57, -3449.97, -3387.95, -3232.83, -2857.85, 0.000, 0.000, 0.000, 14:03:40.425
58, -3396.56, -3325.92, -3231.71, -2795.15, 0.000, 0.000, 0.000, 14:03:40.425
59, -3868.17, -3563.19, -3560.33, -3123.81, 0.000, 0.000, 0.000, 14:03:40.426
60, -3825.75, -3524.58, -3497.17, -3063.33, 0.000, 0.000, 0.000, 14:03:40.426
61, -3448.69, -3372.69, -3263.21, -2772.54, 0.000, 0.000, 0.000, 14:03:40.439
62, -3451.12, -3342.80, -3234.50, -2759.08, 0.000, 0.000, 0.000, 14:03:40.439
63, -3834.90, -3521.20, -3558.02, -2997.34, 0.000, 0.000, 0.000, 14:03:40.469
64, -3819.41, -3540.40, -3531.08, -2978.96, 0.000, 0.000, 0.000, 14:03:40.470
65, -3456.01, -3412.76, -3269.53, -2831.08, 0.000, 0.000, 0.000, 14:03:40.470
66, -3365.14, -3345.79, -3254.21, -2782.38, 0.000, 0.000, 0.000, 14:03:40.470
67, -3888.42, -3528.49, -3587.78, -2977.87, 0.000, 0.000, 0.000, 14:03:40.471
68, -3738.76, -3558.03, -3516.87, -2917.28, 0.000, 0.000, 0.000, 14:03:40.471
69, -3481.19, -3382.65, -3282.67, -2771.34, 0.000, 0.000, 0.000, 14:03:40.471
70, -3441.41, -3336.01, -3296.86, -2823.43, 0.000, 0.000, 0.000, 14:03:40.471
71, -3876.98, -3572.68, -3603.32, -3021.43, 0.000, 0.000, 0.000, 14:03:40.485
72, -3842.08, -3572.48, -3513.21, -2966.88, 0.000, 0.000, 0.000, 14:03:40.485
73, -3441.95, -3410.91, -3294.06, -2799.84, 0.000, 0.000, 0.000, 14:03:40.500
74, -3389.94, -3369.87, -3311.57, -2711.15, 0.000, 0.000, 0.000, 14:03:40.500
75, -3946.62, -3593.58, -3620.00, -3027.91, 0.000, 0.000, 0.000, 14:03:40.514
76, -3803.57, -3540.91, -3525.35, -2983.32, 0.000, 0.000, 0.000, 14:03:40.514
77, -3440.86, -3386.80, -3293.54, -2769.10, 0.000, 0.000, 0.000, 14:03:40.515
78, -3427.27, -3362.28, -3287.96, -2750.77, 0.000, 0.000, 0.000, 14:03:40.515
79, -3887.73, -3600.70, -3627.59, -2977.78, 0.000, 0.000, 0.000, 14:03:40.529
80, -3825.46, -3540.49, -3528.53, -2925.55, 0.000, 0.000, 0.000, 14:03:40.529
81, -3409.91, -3375.70, -3271.23, -2699.43, 0.000, 0.000, 0.000, 14:03:40.544
82, -3442.17, -3358.62, -3275.14, -2748.07, 0.000, 0.000, 0.000, 14:03:40.544
83, -3921.72, -3564.15, -3591.68, -3105.97, 0.000, 0.000, 0.000, 14:03:40.545
84, -3776.55, -3544.59, -3517.22, -2992.04, 0.000, 0.000, 0.000, 14:03:40.545
85, -3458.62, -3393.79, -3279.49, -2810.35, 0.000, 0.000, 0.000, 14:03:40.559
86, -3494.03, -3398.08, -3297.71, -2755.46, 0.000, 0.000, 0.000, 14:03:40.559
87, -3835.57, -3562.76, -3612.23, -3025.49, 0.000, 0.000, 0.000, 14:03:40.574
88, -3820.88, -3535.07, -3524.81, -3016.83, 0.000, 0.000, 0.000, 14:03:40.574
89, -3527.37, -3406.00, -3296.04, -2784.97, 0.000, 0.000, 0.000, 14:03:40.574
90, -3473.39, -3365.32, -3285.17, -2717.43, 0.000, 0.000, 0.000, 14:03:40.574
91, -3910.79, -3555.52, -3591.58, -3018.11, 0.000, 0.000, 0.000, 14:03:40.604
92, -3785.10, -3528.86, -3518.19, -3000.83, 0.000, 0.000, 0.000, 14:03:40.604
93, -3410.19, -3407.77, -3289.89, -2748.69, 0.000, 0.000, 0.000, 14:03:40.605
94, -3447.84, -3371.48, -3289.75, -2774.21, 0.000, 0.000, 0.000, 14:03:40.605
95, -3891.17, -3595.35, -3583.21, -3007.84, 0.000, 0.000, 0.000, 14:03:40.606
96, -3817.43, -3599.25, -3532.16, -2983.60, 0.000, 0.000, 0.000, 14:03:40.606
97, -3443.97, -3430.01, -3280.63, -2747.35, 0.000, 0.000, 0.000, 14:03:40.619
98, -3412.71, -3407.12, -3290.96, -2705.53, 0.000, 0.000, 0.000, 14:03:40.620
99, -3892.33, -3584.42, -3590.27, -3021.42, 0.000, 0.000, 0.000, 14:03:40.634
100, -3788.54, -3563.67, -3520.81, -2927.50, 0.000, 0.000, 0.000, 14:03:40.634
101, -3422.55, -3396.98, -3280.17, -2688.82, 0.000, 0.000, 0.000, 14:03:40.635
102, -3410.69, -3375.87, -3306.44, -2768.50, 0.000, 0.000, 0.000, 14:03:40.635
103, -3937.26, -3570.88, -3607.46, -3067.77, 0.000, 0.000, 0.000, 14:03:40.650
104, -3787.61, -3602.60, -3546.35, -3029.72, 0.000, 0.000, 0.000, 14:03:40.650
105, -3461.37, -3353.47, -3252.38, -2770.66, 0.000, 0.000, 0.000, 14:03:40.665
106, -3433.40, -3345.28, -3263.37, -2742.49, 0.000, 0.000, 0.000, 14:03:40.665
107, -3866.39, -3575.26, -3596.49, -3018.08, 0.000, 0.000, 0.000, 14:03:40.665
108, -3722.90, -3560.81, -3513.92, -2946.87, 0.000, 0.000, 0.000, 14:03:40.666
109, -3427.16, -3382.47, -3279.06, -2772.55, 0.000, 0.000, 0.000, 14:03:40.680
110, -3343.07, -3384.39, -3289.42, -2800.55, 0.000, 0.000, 0.000, 14:03:40.680
111, -3859.71, -3612.42, -3615.12, -3084.15, 0.000, 0.000, 0.000, 14:03:40.709
112, -3821.00, -3549.24, -3518.10, -2962.11, 0.000, 0.000, 0.000, 14:03:40.709
113, -3480.48, -3389.20, -3260.60, -2719.54, 0.000, 0.000, 0.000, 14:03:40.710
114, -3490.12, -3353.43, -3274.46, -2747.48, 0.000, 0.000, 0.000, 14:03:40.710
115, -3907.54, -3558.28, -3596.99, -3014.37, 0.000, 0.000, 0.000, 14:03:40.711
116, -3802.40, -3551.09, -3516.49, -2906.11, 0.000, 0.000, 0.000, 14:03:40.711
117, -3406.12, -3378.29, -3277.90, -2773.67, 0.000, 0.000, 0.000, 14:03:40.711
118, -3416.04, -3365.86, -3292.92, -2754.24, 0.000, 0.000, 0.000, 14:03:40.711
119, -3970.68, -3574.30, -3608.68, -3054.53, 0.000, 0.000, 0.000, 14:03:40.724
120, -3705.52, -3533.42, -3506.95, -2974.69, 0.000, 0.000, 0.000, 14:03:40.724
121, -3399.90, -3351.62, -3260.95, -2746.73, 0.000, 0.000, 0.000, 14:03:40.746
122, -3454.71, -3402.50, -3324.14, -2808.17, 0.000, 0.000, 0.000, 14:03:40.746
123, -3933.19, -3584.62, -3612.79, -2980.57, 0.000, 0.000, 0.000, 14:03:40.770
124, -3785.26, -3526.65, -3503.58, -2853.08, 0.000, 0.000, 0.000, 14:03:40.770
125, -3376.59, -3395.23, -3275.00, -2755.65, 0.000, 0.000, 0.000, 14:03:40.770
126, -3435.46, -3377.32, -3314.96, -2783.22, 0.000, 0.000, 0.000, 14:03:40.770
127, -3906.38, -3632.56, -3630.81, -2979.70, 0.000, 0.000, 0.000, 14:03:40.771
128, -3770.03, -3616.48, -3544.41, -2923.48, 0.000, 0.000, 0.000, 14:03:40.771
129, -3395.01, -3442.59, -3294.46, -2787.24, 0.000, 0.000, 0.000, 14:03:40.785
130, -3508.51, -3449.96, -3342.38, -2823.59, 0.000, 0.000, 0.000, 14:03:40.785
131, -3904.33, -3634.06, -3621.16, -3022.23, 0.000, 0.000, 0.000, 14:03:40.785
132, -3716.61, -3573.87, -3501.74, -2989.01, 0.000, 0.000, 0.000, 14:03:40.785
133, -3413.38, -3426.32, -3294.11, -2730.05, 0.000, 0.000, 0.000, 14:03:40.799
134, -3448.78, -3416.63, -3330.64, -2788.07, 0.000, 0.000, 0.000, 14:03:40.799
135, -3896.80, -3609.81, -3610.56, -2982.08, 0.000, 0.000, 0.000, 14:03:40.830
136, -3783.15, -3567.61, -3496.69, -2975.40, 0.000, 0.000, 0.000, 14:03:40.830
137, -3393.26, -3395.66, -3267.54, -2787.60, 0.000, 0.000, 0.000, 14:03:40.845
138, -3482.64, -3414.57, -3323.33, -2768.55, 0.000, 0.000, 0.000, 14:03:40.845
139, -3904.35, -3604.26, -3623.74, -3083.06, 0.000, 0.000, 0.000, 14:03:40.845
140, -3737.47, -3533.63, -3504.84, -2932.98, 0.000, 0.000, 0.000, 14:03:40.845
141, -3382.41, -3371.84, -3258.52, -2748.09, 0.000, 0.000, 0.000, 14:03:40.846
142, -3505.10, -3395.15, -3337.61, -2836.58, 0.000, 0.000, 0.000, 14:03:40.846
143, -3768.28, -3537.97, -3581.21, -2981.88, 0.000, 0.000, 0.000, 14:03:40.847
144, -3711.54, -3494.88, -3492.70, -2914.27, 0.000, 0.000, 0.000, 14:03:40.847
145, -3378.37, -3325.97, -3233.34, -2692.63, 0.000, 0.000, 0.000, 14:03:40.859
146, -3539.72, -3392.10, -3327.20, -2758.98, 0.000, 0.000, 0.000, 14:03:40.859
147, -3854.11, -3574.11, -3588.45, -3030.71, 0.000, 0.000, 0.000, 14:03:40.874
148, -3686.73, -3517.29, -3481.48, -2864.77, 0.000, 0.000, 0.000, 14:03:40.874
149, -3427.86, -3378.29, -3261.42, -2732.40, 0.000, 0.000, 0.000, 14:03:40.875
150, -3499.92, -3388.22, -3329.56, -2861.66, 0.000, 0.000, 0.000, 14:03:40.875
151, -3968.69, -3555.42, -3610.87, -3028.83, 0.000, 0.000, 0.000, 14:03:40.905
152, -3734.96, -3517.63, -3488.03, -2929.72, 0.000, 0.000, 0.000, 14:03:40.905
153, -3430.68, -3377.57, -3254.89, -2669.00, 0.000, 0.000, 0.000, 14:03:40.905
154, -3432.68, -3383.00, -3320.92, -2740.46, 0.000, 0.000, 0.000, 14:03:40.905
155, -3858.61, -3564.20, -3602.52, -3010.14, 0.000, 0.000, 0.000, 14:03:40.906
156, -3721.02, -3507.83, -3471.77, -2893.04, 0.000, 0.000, 0.000, 14:03:40.906
157, -3320.09, -3349.10, -3245.88, -2695.13, 0.000, 0.000, 0.000, 14:03:40.919
158, -3390.39, -3376.54, -3326.66, -2773.17, 0.000, 0.000, 0.000, 14:03:40.920
159, -3950.28, -3586.52, -3606.83, -3037.82, 0.000, 0.000, 0.000, 14:03:40.935
160, -3707.29, -3526.43, -3505.88, -2890.78, 0.000, 0.000, 0.000, 14:03:40.935
161, -3368.13, -3351.33, -3246.09, -2719.76, 0.000, 0.000, 0.000, 14:03:40.936
162, -3473.46, -3380.57, -3335.21, -2819.30, 0.000, 0.000, 0.000, 14:03:40.936
163, -3916.43, -3562.42, -3605.25, -3062.84, 0.000, 0.000, 0.000, 14:03:40.949
164, -3732.43, -3531.91, -3477.37, -2947.08, 0.000, 0.000, 0.000, 14:03:40.950
165, -3371.49, -3367.56, -3252.55, -2729.08, 0.000, 0.000, 0.000, 14:03:40.980
166, -3429.83, -3361.36, -3329.92, -2806.99, 0.000, 0.000, 0.000, 14:03:40.980
167, -3895.30, -3594.00, -3608.93, -3063.51, 0.000, 0.000, 0.000, 14:03:40.981
168, -3743.28, -3520.48, -3495.07, -2939.54, 0.000, 0.000, 0.000, 14:03:40.981
169, -3377.84, -3385.07, -3266.24, -2733.68, 0.000, 0.000, 0.000, 14:03:40.981
170, -3481.49, -3395.95, -3328.38, -2825.83, 0.000, 0.000, 0.000, 14:03:40.981
171, -3908.20, -3609.67, -3606.78, -3028.80, 0.000, 0.000, 0.000, 14:03:40.982
172, -3759.72, -3524.76, -3487.02, -2930.34, 0.000, 0.000, 0.000, 14:03:40.982
173, -3450.79, -3381.23, -3251.68, -2709.55, 0.000, 0.000, 0.000, 14:03:40.994
174, -3491.81, -3411.75, -3344.56, -2829.28, 0.000, 0.000, 0.000, 14:03:40.994
175, -3983.17, -3584.89, -3624.02, -3069.79, 0.000, 0.000, 0.000, 14:03:41.010
176, -3690.22, -3523.49, -3488.20, -2964.22, 0.000, 0.000, 0.000, 14:03:41.010
177, -3373.79, -3374.46, -3255.66, -2747.69, 0.000, 0.000, 0.000, 14:03:41.024
178, -3507.87, -3407.62, -3331.65, -2853.27, 0.000, 0.000, 0.000, 14:03:41.025
179, -3894.17, -3613.76, -3635.78, -3046.42, 0.000, 0.000, 0.000, 14:03:41.025
180, -3759.08, -3522.66, -3484.08, -2835.84, 0.000, 0.000, 0.000, 14:03:41.025
181, -3355.56, -3404.66, -3256.30, -2665.58, 0.000, 0.000, 0.000, 14:03:41.039
182, -3518.74, -3427.01, -3342.73, -2842.28, 0.000, 0.000, 0.000, 14:03:41.039
183, -3825.25, -3606.74, -3624.07, -3050.20, 0.000, 0.000, 0.000, 14:03:41.054
184, -3627.64, -3542.00, -3472.35, -2902.82, 0.000, 0.000, 0.000, 14:03:41.054
185, -3367.60, -3372.25, -3253.16, -2677.20, 0.000, 0.000, 0.000, 14:03:41.055
186, -3578.45, -3428.43, -3361.66, -2869.62, 0.000, 0.000, 0.000, 14:03:41.055
187, -3975.03, -3625.32, -3619.64, -3008.36, 0.000, 0.000, 0.000, 14:03:41.070
188, -3756.25, -3530.55, -3478.04, -2905.78, 0.000, 0.000, 0.000, 14:03:41.070
189, -3359.90, -3372.28, -3247.46, -2682.75, 0.000, 0.000, 0.000, 14:03:41.085
190, -3621.27, -3424.11, -3370.38, -2737.94, 0.000, 0.000, 0.000, 14:03:41.085
191, -3976.44, -3600.21, -3606.94, -2969.96, 0.000, 0.000, 0.000, 14:03:41.086
192, -3620.00, -3539.19, -3482.62, -2849.43, 0.000, 0.000, 0.000, 14:03:41.086
193, -3277.93, -3372.50, -3251.61, -2698.52, 0.000, 0.000, 0.000, 14:03:41.100
194, -3426.79, -3403.72, -3343.76, -2726.21, 0.000, 0.000, 0.000, 14:03:41.100
195, -3910.34, -3615.52, -3625.64, -2965.92, 0.000, 0.000, 0.000, 14:03:41.114
196, -3698.22, -3543.97, -3468.20, -2938.37, 0.000, 0.000, 0.000, 14:03:41.115
197, -3447.21, -3375.03, -3241.86, -2758.27, 0.000, 0.000, 0.000, 14:03:41.115
198, -3576.85, -3429.29, -3364.31, -2814.16, 0.000, 0.000, 0.000, 14:03:41.115
199, -3976.26, -3592.17, -3600.53, -2998.34, 0.000, 0.000, 0.000, 14:03:41.129
200, -3791.58, -3542.21, -3478.04, -2909.08, 0.000, 0.000, 0.000, 14:03:41.129
0, -3366.39, -3372.04, -3240.61, -2681.11, 0.000, 0.000, 0.000, 14:03:41.130
1, -3549.07, -3438.79, -3380.19, -2848.21, 0.000, 0.000, 0.000, 14:03:41.159
2, -3952.92, -3608.96, -3600.36, -2994.02, 0.000, 0.000, 0.000, 14:03:41.159
3, -3619.42, -3564.00, -3488.54, -2907.91, 0.000, 0.000, 0.000, 14:03:41.160
4, -3342.93, -3394.83, -3241.77, -2628.25, 0.000, 0.000, 0.000, 14:03:41.160
5, -3618.46, -3430.75, -3379.21, -2824.37, 0.000, 0.000, 0.000, 14:03:41.161
6, -3959.55, -3609.03, -3592.35, -3008.62, 0.000, 0.000, 0.000, 14:03:41.161
7, -3715.41, -3534.55, -3459.59, -2894.39, 0.000, 0.000, 0.000, 14:03:41.175
8, -3411.23, -3383.41, -3267.14, -2695.86, 0.000, 0.000, 0.000, 14:03:41.175
9, -3562.81, -3432.59, -3387.81, -2820.16, 0.000, 0.000, 0.000, 14:03:41.190
10, -3904.53, -3607.86, -3629.66, -3008.00, 0.000, 0.000, 0.000, 14:03:41.190
11, -3702.42, -3542.86, -3500.86, -2917.66, 0.000, 0.000, 0.000, 14:03:41.190
12, -3329.63, -3386.10, -3247.31, -2708.57, 0.000, 0.000, 0.000, 14:03:41.190
13, -3527.09, -3435.00, -3361.54, -2824.57, 0.000, 0.000, 0.000, 14:03:41.211
14, -3909.04, -3595.02, -3597.49, -2978.02, 0.000, 0.000, 0.000, 14:03:41.211
15, -3682.97, -3543.05, -3484.44, -2931.87, 0.000, 0.000, 0.000, 14:03:41.219
16, -3369.07, -3384.48, -3234.69, -2663.30, 0.000, 0.000, 0.000, 14:03:41.219
17, -3593.85, -3438.18, -3376.51, -2827.40, 0.000, 0.000, 0.000, 14:03:41.219
18, -3952.07, -3606.85, -3635.34, -3037.23, 0.000, 0.000, 0.000, 14:03:41.220
19, -3603.73, -3527.29, -3469.68, -2883.98, 0.000, 0.000, 0.000, 14:03:41.234
20, -3328.19, -3372.17, -3241.95, -2659.40, 0.000, 0.000, 0.000, 14:03:41.234
21, -3604.30, -3460.22, -3389.23, -2771.59, 0.000, 0.000, 0.000, 14:03:41.265
22, -3964.55, -3620.61, -3621.61, -3034.69, 0.000, 0.000, 0.000, 14:03:41.265
23, -3737.46, -3521.47, -3462.20, -2872.96, 0.000, 0.000, 0.000, 14:03:41.265
24, -3407.57, -3366.02, -3240.31, -2712.99, 0.000, 0.000, 0.000, 14:03:41.265
25, -3554.29, -3449.04, -3384.51, -2815.78, 0.000, 0.000, 0.000, 14:03:41.266
26, -3844.90, -3607.31, -3616.38, -3037.40, 0.000, 0.000, 0.000, 14:03:41.266
27, -3768.35, -3530.91, -3486.03, -2918.34, 0.000, 0.000, 0.000, 14:03:41.267
28, -3373.78, -3370.06, -3239.75, -2667.11, 0.000, 0.000, 0.000, 14:03:41.267
29, -3589.43, -3447.52, -3391.87, -2835.19, 0.000, 0.000, 0.000, 14:03:41.294
30, -3958.84, -3607.77, -3619.18, -3050.98, 0.000, 0.000, 0.000, 14:03:41.295
31, -3620.48, -3526.91, -3463.06, -2905.40, 0.000, 0.000, 0.000, 14:03:41.295
32, -3420.40, -3376.16, -3249.30, -2723.88, 0.000, 0.000, 0.000, 14:03:41.295
33, -3575.14, -3448.47, -3404.01, -2866.40, 0.000, 0.000, 0.000, 14:03:41.339
34, -3905.01, -3613.68, -3616.88, -3076.76, 0.000, 0.000, 0.000, 14:03:41.339
35, -3659.61, -3519.24, -3463.76, -2828.46, 0.000, 0.000, 0.000, 14:03:41.340
36, -3340.13, -3374.14, -3233.19, -2746.15, 0.000, 0.000, 0.000, 14:03:41.340
37, -3546.65, -3451.18, -3408.20, -2920.33, 0.000, 0.000, 0.000, 14:03:41.341
38, -3867.66, -3621.65, -3637.44, -3042.63, 0.000, 0.000, 0.000, 14:03:41.341
39, -3608.64, -3507.87, -3469.89, -2838.72, 0.000, 0.000, 0.000, 14:03:41.354
40, -3396.04, -3360.44, -3234.56, -2693.90, 0.000, 0.000, 0.000, 14:03:41.355
41, -3574.74, -3456.46, -3410.10, -2904.99, 0.000, 0.000, 0.000, 14:03:41.355
42, -3905.76, -3617.97, -3618.65, -3014.38, 0.000, 0.000, 0.000, 14:03:41.355
43, -3721.67, -3522.10, -3445.98, -2903.32, 0.000, 0.000, 0.000, 14:03:41.356
44, -3383.34, -3384.39, -3242.18, -2704.10, 0.000, 0.000, 0.000, 14:03:41.356
45, -3567.75, -3435.30, -3395.24, -2860.72, 0.000, 0.000, 0.000, 14:03:41.356
46, -3934.43, -3600.96, -3615.06, -3016.41, 0.000, 0.000, 0.000, 14:03:41.356
47, -3590.44, -3520.85, -3455.39, -2873.58, 0.000, 0.000, 0.000, 14:03:41.400
48, -3273.10, -3387.37, -3239.63, -2689.88, 0.000, 0.000, 0.000, 14:03:41.400
49, -3516.36, -3458.43, -3415.96, -2864.12, 0.000, 0.000, 0.000, 14:03:41.401
50, -3830.70, -3603.24, -3624.08, -3023.89, 0.000, 0.000, 0.000, 14:03:41.401
51, -3693.29, -3526.80, -3466.35, -2870.99, 0.000, 0.000, 0.000, 14:03:41.402
52, -3421.61, -3376.56, -3255.76, -2757.39, 0.000, 0.000, 0.000, 14:03:41.403
53, -3572.75, -3448.15, -3396.05, -2815.80, 0.000, 0.000, 0.000, 14:03:41.403
54, -3881.30, -3599.69, -3609.89, -3069.76, 0.000, 0.000, 0.000, 14:03:41.405
55, -3602.11, -3526.58, -3447.38, -2896.95, 0.000, 0.000, 0.000, 14:03:41.414
56, -3292.36, -3378.97, -3234.59, -2676.37, 0.000, 0.000, 0.000, 14:03:41.414
57, -3608.83, -3460.74, -3409.60, -2826.59, 0.000, 0.000, 0.000, 14:03:41.429
58, -4009.96, -3606.77, -3618.90, -2986.99, 0.000, 0.000, 0.000, 14:03:41.430
59, -3751.50, -3515.67, -3461.77, -2921.45, 0.000, 0.000, 0.000, 14:03:41.430
60, -3424.85, -3353.46, -3235.19, -2720.94, 0.000, 0.000, 0.000, 14:03:41.430
61, -3631.98, -3470.09, -3422.56, -2862.97, 0.000, 0.000, 0.000, 14:03:41.475
62, -3899.41, -3601.62, -3617.05, -2989.70, 0.000, 0.000, 0.000, 14:03:41.475
63, -3770.85, -3532.29, -3453.91, -2881.77, 0.000, 0.000, 0.000, 14:03:41.475
64, -3432.72, -3390.73, -3240.18, -2716.33, 0.000, 0.000, 0.000, 14:03:41.475
65, -3686.86, -3449.90, -3413.77, -2826.90, 0.000, 0.000, 0.000, 14:03:41.476
66, -3923.52, -3605.62, -3612.05, -3052.00, 0.000, 0.000, 0.000, 14:03:41.476
67, -3662.39, -3498.98, -3446.27, -2891.56, 0.000, 0.000, 0.000, 14:03:41.477
68, -3227.02, -3367.83, -3244.71, -2721.09, 0.000, 0.000, 0.000, 14:03:41.477
69, -3519.69, -3468.38, -3447.54, -2842.51, 0.000, 0.000, 0.000, 14:03:41.477
70, -3899.61, -3611.79, -3619.64, -3021.18, 0.000, 0.000, 0.000, 14:03:41.477
71, -3623.41, -3510.84, -3441.66, -2892.34, 0.000, 0.000, 0.000, 14:03:41.489
72, -3409.27, -3376.22, -3224.15, -2685.28, 0.000, 0.000, 0.000, 14:03:41.489
73, -3709.28, -3464.01, -3424.85, -2874.72, 0.000, 0.000, 0.000, 14:03:41.536
74, -3919.85, -3591.41, -3601.71, -3069.64, 0.000, 0.000, 0.000, 14:03:41.536
75, -3662.47, -3507.27, -3446.64, -2894.86, 0.000, 0.000, 0.000, 14:03:41.536
76, -3329.71, -3362.62, -3227.46, -2734.12, 0.000, 0.000, 0.000, 14:03:41.536
77, -3541.22, -3471.53, -3428.32, -2895.17, 0.000, 0.000, 0.000, 14:03:41.536
78, -3813.72, -3605.20, -3612.00, -3048.48, 0.000, 0.000, 0.000, 14:03:41.536
79, -3702.72, -3504.50, -3463.01, -2884.16, 0.000, 0.000, 0.000, 14:03:41.537
80, -3298.52, -3350.76, -3235.57, -2702.86, 0.000, 0.000, 0.000, 14:03:41.537
81, -3704.57, -3479.86, -3445.04, -2822.35, 0.000, 0.000, 0.000, 14:03:41.537
82, -3946.92, -3601.59, -3592.20, -2997.30, 0.000, 0.000, 0.000, 14:03:41.537
83, -3714.72, -3516.96, -3440.91, -2856.05, 0.000, 0.000, 0.000, 14:03:41.551
84, -3419.13, -3359.86, -3218.44, -2679.26, 0.000, 0.000, 0.000, 14:03:41.551
85, -3608.55, -3479.07, -3442.54, -2939.86, 0.000, 0.000, 0.000, 14:03:41.580
86, -3780.64, -3612.55, -3620.80, -2998.03, 0.000, 0.000, 0.000, 14:03:41.580
87, -3597.51, -3521.14, -3453.47, -2900.06, 0.000, 0.000, 0.000, 14:03:41.580
88, -3256.83, -3355.07, -3237.90, -2657.76, 0.000, 0.000, 0.000, 14:03:41.581
89, -3639.76, -3467.40, -3449.07, -2876.40, 0.000, 0.000, 0.000, 14:03:41.581
90, -3926.04, -3604.06, -3615.53, -3010.40, 0.000, 0.000, 0.000, 14:03:41.582
91, -3729.80, -3502.04, -3425.92, -2865.11, 0.000, 0.000, 0.000, 14:03:41.594
92, -3377.61, -3365.50, -3233.83, -2711.05, 0.000, 0.000, 0.000, 14:03:41.594
93, -3605.07, -3480.24, -3455.46, -2850.72, 0.000, 0.000, 0.000, 14:03:41.609
94, -3849.57, -3619.51, -3617.39, -3027.07, 0.000, 0.000, 0.000, 14:03:41.609
95, -3651.78, -3503.40, -3444.80, -2886.14, 0.000, 0.000, 0.000, 14:03:41.610
96, -3377.95, -3370.67, -3239.07, -2658.96, 0.000, 0.000, 0.000, 14:03:41.610
97, -3706.58, -3467.98, -3446.37, -2858.18, 0.000, 0.000, 0.000, 14:03:41.624
98, -3886.63, -3607.85, -3598.43, -3058.38, 0.000, 0.000, 0.000, 14:03:41.624
99, -3685.29, -3510.90, -3437.03, -2807.51, 0.000, 0.000, 0.000, 14:03:41.639
100, -3318.09, -3366.43, -3243.89, -2677.14, 0.000, 0.000, 0.000, 14:03:41.639
101, -3677.35, -3461.80, -3463.54, -2917.45, 0.000, 0.000, 0.000, 14:03:41.640
102, -3809.22, -3602.23, -3604.23, -3056.22, 0.000, 0.000, 0.000, 14:03:41.640
103, -3673.95, -3517.36, -3438.28, -2895.15, 0.000, 0.000, 0.000, 14:03:41.655
104, -3294.45, -3362.28, -3235.11, -2737.29, 0.000, 0.000, 0.000, 14:03:41.655
105, -3676.64, -3494.38, -3456.17, -2933.53, 0.000, 0.000, 0.000, 14:03:41.671
106, -3927.51, -3589.86, -3602.68, -2997.31, 0.000, 0.000, 0.000, 14:03:41.671
107, -3644.54, -3498.85, -3439.01, -2902.20, 0.000, 0.000, 0.000, 14:03:41.671
108, -3404.40, -3365.61, -3238.96, -2655.42, 0.000, 0.000, 0.000, 14:03:41.671
109, -3622.46, -3487.14, -3451.86, -2899.33, 0.000, 0.000, 0.000, 14:03:41.685
110, -3857.22, -3595.39, -3588.50, -3036.67, 0.000, 0.000, 0.000, 14:03:41.686
111, -3576.97, -3509.14, -3424.69, -2911.88, 0.000, 0.000, 0.000, 14:03:41.714
112, -3311.63, -3359.13, -3218.46, -2698.62, 0.000, 0.000, 0.000, 14:03:41.715
113, -3628.20, -3486.12, -3469.56, -2936.49, 0.000, 0.000, 0.000, 14:03:41.716
114, -3829.09, -3590.23, -3593.23, -3084.70, 0.000, 0.000, 0.000, 14:03:41.716
115, -3721.83, -3515.48, -3420.24, -2880.43, 0.000, 0.000, 0.000, 14:03:41.717
116, -3369.10, -3362.33, -3222.85, -2671.40, 0.000, 0.000, 0.000, 14:03:41.717
117, -3737.85, -3490.59, -3468.70, -2901.90, 0.000, 0.000, 0.000, 14:03:41.717
118, -3818.87, -3604.30, -3602.52, -2973.46, 0.000, 0.000, 0.000, 14:03:41.718
119, -3636.21, -3497.06, -3431.22, -2918.63, 0.000, 0.000, 0.000, 14:03:41.729
120, -3378.07, -3351.15, -3230.65, -2743.91, 0.000, 0.000, 0.000, 14:03:41.729
121, -3781.24, -3487.27, -3463.96, -2961.24, 0.000, 0.000, 0.000, 14:03:41.744
122, -3956.50, -3606.56, -3605.52, -3024.88, 0.000, 0.000, 0.000, 14:03:41.744
123, -3617.38, -3490.78, -3422.10, -2865.26, 0.000, 0.000, 0.000, 14:03:41.759
124, -3256.07, -3372.48, -3235.76, -2722.75, 0.000, 0.000, 0.000, 14:03:41.759
125, -3728.92, -3498.78, -3460.21, -2903.99, 0.000, 0.000, 0.000, 14:03:41.760
126, -3820.12, -3592.56, -3595.21, -2987.88, 0.000, 0.000, 0.000, 14:03:41.760
127, -3554.39, -3501.59, -3443.21, -2873.27, 0.000, 0.000, 0.000, 14:03:41.774
128, -3282.89, -3365.26, -3231.64, -2652.59, 0.000, 0.000, 0.000, 14:03:41.774
129, -3677.48, -3502.04, -3476.44, -2976.12, 0.000, 0.000, 0.000, 14:03:41.789
130, -3987.35, -3595.99, -3585.62, -3027.54, 0.000, 0.000, 0.000, 14:03:41.789
131, -3699.82, -3480.60, -3406.01, -2889.42, 0.000, 0.000, 0.000, 14:03:41.790
132, -3368.35, -3350.69, -3221.68, -2664.70, 0.000, 0.000, 0.000, 14:03:41.790
133, -3739.23, -3497.90, -3479.32, -2869.10, 0.000, 0.000, 0.000, 14:03:41.805
134, -3930.20, -3604.90, -3591.82, -3039.68, 0.000, 0.000, 0.000, 14:03:41.805
135, -3698.08, -3499.84, -3423.23, -2819.98, 0.000, 0.000, 0.000, 14:03:41.820
136, -3327.53, -3356.39, -3222.13, -2715.64, 0.000, 0.000, 0.000, 14:03:41.820
137, -3650.89, -3496.64, -3474.97, -2885.11, 0.000, 0.000, 0.000, 14:03:41.827
138, -3889.19, -3611.24, -3601.91, -3020.40, 0.000, 0.000, 0.000, 14:03:41.827
139, -3700.16, -3499.52, -3426.84, -2849.54, 0.000, 0.000, 0.000, 14:03:41.851
140, -3411.00, -3350.71, -3211.42, -2663.41, 0.000, 0.000, 0.000, 14:03:41.852
141, -3683.64, -3487.45, -3461.00, -2860.41, 0.000, 0.000, 0.000, 14:03:41.853
142, -3839.10, -3593.23, -3585.47, -2941.29, 0.000, 0.000, 0.000, 14:03:41.853
143, -3622.99, -3484.27, -3406.11, -2806.28, 0.000, 0.000, 0.000, 14:03:41.854
144, -3345.54, -3373.26, -3234.94, -2698.74, 0.000, 0.000, 0.000, 14:03:41.854
145, -3613.76, -3506.34, -3492.01, -2970.93, 0.000, 0.000, 0.000, 14:03:41.894
146, -3949.67, -3612.21, -3621.99, -2984.92, 0.000, 0.000, 0.000, 14:03:41.894
147, -3671.44, -3495.48, -3420.16, -2887.19, 0.000, 0.000, 0.000, 14:03:41.896
148, -3375.54, -3351.80, -3232.64, -2707.33, 0.000, 0.000, 0.000, 14:03:41.896
149, -3693.02, -3479.58, -3469.78, -2930.10, 0.000, 0.000, 0.000, 14:03:41.896
150, -3762.87, -3590.32, -3589.91, -3045.07, 0.000, 0.000, 0.000, 14:03:41.896
151, -3561.65, -3484.02, -3404.14, -2870.78, 0.000, 0.000, 0.000, 14:03:41.896
152, -3327.26, -3361.72, -3226.89, -2728.02, 0.000, 0.000, 0.000, 14:03:41.896
153, -3714.72, -3493.39, -3487.52, -2940.57, 0.000, 0.000, 0.000, 14:03:41.898
154, -3827.99, -3610.42, -3593.78, -3000.64, 0.000, 0.000, 0.000, 14:03:41.898
155, -3670.07, -3486.91, -3399.27, -2854.77, 0.000, 0.000, 0.000, 14:03:41.909
156, -3290.49, -3361.97, -3229.70, -2705.07, 0.000, 0.000, 0.000, 14:03:41.909
157, -3717.55, -3502.38, -3495.23, -2943.79, 0.000, 0.000, 0.000, 14:03:41.955
158, -3869.25, -3584.21, -3582.61, -3054.18, 0.000, 0.000, 0.000, 14:03:41.955
159, -3614.80, -3481.66, -3414.17, -2903.11, 0.000, 0.000, 0.000, 14:03:41.955
160, -3329.96, -3348.08, -3229.28, -2682.21, 0.000, 0.000, 0.000, 14:03:41.955
161, -3655.04, -3507.91, -3497.71, -2901.25, 0.000, 0.000, 0.000, 14:03:41.956
162, -3782.87, -3603.63, -3598.18, -3010.73, 0.000, 0.000, 0.000, 14:03:41.956
163, -3528.75, -3475.74, -3409.53, -2847.60, 0.000, 0.000, 0.000, 14:03:41.957
164, -3362.20, -3353.92, -3226.87, -2719.22, 0.000, 0.000, 0.000, 14:03:41.957
165, -3726.87, -3519.92, -3505.68, -2882.76, 0.000, 0.000, 0.000, 14:03:41.957
166, -3820.57, -3599.31, -3610.81, -2990.28, 0.000, 0.000, 0.000, 14:03:41.957
167, -3646.21, -3495.49, -3397.89, -2874.65, 0.000, 0.000, 0.000, 14:03:41.970
168, -3301.88, -3364.67, -3227.58, -2768.46, 0.000, 0.000, 0.000, 14:03:41.970
169, -3731.47, -3514.66, -3508.95, -2908.58, 0.000, 0.000, 0.000, 14:03:41.986
170, -3917.48, -3594.19, -3581.39, -3001.19, 0.000, 0.000, 0.000, 14:03:41.986
171, -3654.67, -3471.90, -3403.35, -2778.76, 0.000, 0.000, 0.000, 14:03:42.015
172, -3266.39, -3348.42, -3236.23, -2677.21, 0.000, 0.000, 0.000, 14:03:42.015
173, -3754.20, -3514.36, -3498.61, -2941.07, 0.000, 0.000, 0.000, 14:03:42.016
174, -3844.61, -3605.89, -3606.13, -3027.97, 0.000, 0.000, 0.000, 14:03:42.016
175, -3575.39, -3471.08, -3400.54, -2794.97, 0.000, 0.000, 0.000, 14:03:42.016
176, -3365.40, -3358.22, -3225.55, -2653.26, 0.000, 0.000, 0.000, 14:03:42.017
177, -3757.89, -3502.68, -3495.81, -2990.03, 0.000, 0.000, 0.000, 14:03:42.017
178, -3934.18, -3606.07, -3596.89, -3079.21, 0.000, 0.000, 0.000, 14:03:42.017
179, -3651.28, -3482.02, -3396.62, -2818.35, 0.000, 0.000, 0.000, 14:03:42.029
180, -3415.35, -3354.92, -3230.66, -2709.59, 0.000, 0.000, 0.000, 14:03:42.029
181, -3823.83, -3532.64, -3524.87, -2951.96, 0.000, 0.000, 0.000, 14:03:42.044
182, -3857.22, -3603.44, -3593.51, -3018.94, 0.000, 0.000, 0.000, 14:03:42.045
183, -3540.91, -3475.64, -3391.45, -2837.70, 0.000, 0.000, 0.000, 14:03:42.059
184, -3360.98, -3366.91, -3232.06, -2693.16, 0.000, 0.000, 0.000, 14:03:42.059
185, -3702.36, -3542.26, -3532.40, -2965.81, 0.000, 0.000, 0.000, 14:03:42.060
186, -3824.34, -3603.16, -3592.80, -2997.48, 0.000, 0.000, 0.000, 14:03:42.060
187, -3624.20, -3462.61, -3392.38, -2797.66, 0.000, 0.000, 0.000, 14:03:42.082
188, -3380.92, -3355.11, -3217.86, -2703.41, 0.000, 0.000, 0.000, 14:03:42.082
189, -3726.72, -3521.47, -3505.62, -2979.08, 0.000, 0.000, 0.000, 14:03:42.089
190, -3921.98, -3616.69, -3588.36, -2982.01, 0.000, 0.000, 0.000, 14:03:42.089
191, -3497.13, -3484.22, -3392.21, -2803.51, 0.000, 0.000, 0.000, 14:03:42.090
192, -3257.41, -3352.08, -3225.99, -2705.40, 0.000, 0.000, 0.000, 14:03:42.090
193, -3737.95, -3527.71, -3517.98, -2964.47, 0.000, 0.000, 0.000, 14:03:42.105
194, -3829.24, -3603.73, -3589.58, -3001.26, 0.000, 0.000, 0.000, 14:03:42.105
195, -3605.91, -3486.07, -3373.85, -2839.03, 0.000, 0.000, 0.000, 14:03:42.119
196, -3286.89, -3358.21, -3218.92, -2683.26, 0.000, 0.000, 0.000, 14:03:42.119
197, -3761.69, -3535.19, -3518.79, -3006.62, 0.000, 0.000, 0.000, 14:03:42.120
198, -3877.94, -3633.92, -3598.07, -2990.54, 0.000, 0.000, 0.000, 14:03:42.120
199, -3609.55, -3480.80, -3391.88, -2853.86, 0.000, 0.000, 0.000, 14:03:42.134
200, -3306.65, -3353.21, -3228.99, -2653.70, 0.000, 0.000, 0.000, 14:03:42.135
0, -3821.96, -3534.69, -3521.56, -2940.80, 0.000, 0.000, 0.000, 14:03:42.136
1, -3924.79, -3600.75, -3580.39, -3043.36, 0.000, 0.000, 0.000, 14:03:42.150
2, -3623.43, -3477.93, -3392.00, -2825.04, 0.000, 0.000, 0.000, 14:03:42.150
3, -3323.12, -3367.15, -3229.76, -2682.26, 0.000, 0.000, 0.000, 14:03:42.165
4, -3809.65, -3536.04, -3524.97, -2904.44, 0.000, 0.000, 0.000, 14:03:42.165
5, -3838.66, -3590.56, -3572.91, -2944.54, 0.000, 0.000, 0.000, 14:03:42.166
6, -3566.89, -3475.08, -3393.12, -2800.68, 0.000, 0.000, 0.000, 14:03:42.166
7, -3327.18, -3364.44, -3235.56, -2700.75, 0.000, 0.000, 0.000, 14:03:42.179
8, -3775.83, -3552.23, -3532.08, -2996.39, 0.000, 0.000, 0.000, 14:03:42.179
9, -3854.57, -3609.76, -3581.75, -2978.37, 0.000, 0.000, 0.000, 14:03:42.194
10, -3557.83, -3476.30, -3384.07, -2791.68, 0.000, 0.000, 0.000, 14:03:42.195
11, -3237.03, -3344.46, -3223.01, -2696.49, 0.000, 0.000, 0.000, 14:03:42.195
12, -3732.01, -3558.53, -3552.45, -3042.45, 0.000, 0.000, 0.000, 14:03:42.195
13, -3843.88, -3609.87, -3596.57, -3032.31, 0.000, 0.000, 0.000, 14:03:42.209
14, -3554.41, -3454.04, -3368.31, -2843.27, 0.000, 0.000, 0.000, 14:03:42.209
15, -3405.05, -3376.33, -3223.86, -2684.38, 0.000, 0.000, 0.000, 14:03:42.224
16, -3765.59, -3538.55, -3536.96, -2995.05, 0.000, 0.000, 0.000, 14:03:42.224
17, -3847.12, -3591.11, -3583.30, -3032.53, 0.000, 0.000, 0.000, 14:03:42.225
18, -3557.58, -3474.25, -3379.73, -2834.22, 0.000, 0.000, 0.000, 14:03:42.225
19, -3281.04, -3345.88, -3222.72, -2732.22, 0.000, 0.000, 0.000, 14:03:42.239
20, -3850.14, -3542.39, -3536.05, -2969.20, 0.000, 0.000, 0.000, 14:03:42.239
21, -3886.25, -3612.66, -3577.99, -2929.75, 0.000, 0.000, 0.000, 14:03:42.256
22, -3533.59, -3457.24, -3371.62, -2764.07, 0.000, 0.000, 0.000, 14:03:42.256
23, -3391.23, -3350.09, -3241.98, -2652.36, 0.000, 0.000, 0.000, 14:03:42.256
24, -3863.72, -3543.79, -3548.66, -2992.84, 0.000, 0.000, 0.000, 14:03:42.256
25, -3908.72, -3585.23, -3562.55, -3005.39, 0.000, 0.000, 0.000, 14:03:42.270
26, -3523.62, -3467.15, -3364.13, -2886.01, 0.000, 0.000, 0.000, 14:03:42.270
27, -3350.79, -3369.09, -3241.14, -2738.26, 0.000, 0.000, 0.000, 14:03:42.285
28, -3683.88, -3532.26, -3527.07, -3018.75, 0.000, 0.000, 0.000, 14:03:42.286
29, -3916.73, -3602.92, -3577.28, -3051.50, 0.000, 0.000, 0.000, 14:03:42.286
30, -3509.96, -3468.30, -3357.35, -2748.88, 0.000, 0.000, 0.000, 14:03:42.287
31, -3298.12, -3392.91, -3236.77, -2667.34, 0.000, 0.000, 0.000, 14:03:42.330
32, -3880.30, -3573.03, -3540.19, -2964.10, 0.000, 0.000, 0.000, 14:03:42.330
33, -3849.10, -3615.29, -3559.08, -2977.14, 0.000, 0.000, 0.000, 14:03:42.330
34, -3512.72, -3465.22, -3354.21, -2808.32, 0.000, 0.000, 0.000, 14:03:42.330
35, -3346.24, -3387.51, -3223.75, -2786.38, 0.000, 0.000, 0.000, 14:03:42.331
36, -3841.13, -3552.84, -3521.50, -3007.88, 0.000, 0.000, 0.000, 14:03:42.331
37, -3760.60, -3559.20, -3563.25, -3015.92, 0.000, 0.000, 0.000, 14:03:42.332
38, -3417.59, -3504.71, -3356.65, -2874.78, 0.000, 0.000, 0.000, 14:03:42.332
39, -3207.67, -3410.39, -3226.84, -2722.77, 0.000, 0.000, 0.000, 14:03:42.332
40, -3754.26, -3566.41, -3537.60, -2994.00, 0.000, 0.000, 0.000, 14:03:42.332
41, -3729.75, -3650.01, -3559.48, -2902.56, 0.000, 0.000, 0.000, 14:03:42.344
42, -3316.40, -3524.81, -3342.10, -2765.50, 0.000, 0.000, 0.000, 14:03:42.344
43, -3169.39, -3417.29, -3235.46, -2673.70, 0.000, 0.000, 0.000, 14:03:42.374
44, -3640.96, -3601.96, -3546.75, -2924.98, 0.000, 0.000, 0.000, 14:03:42.374
45, -3732.38, -3650.47, -3594.67, -2987.49, 0.000, 0.000, 0.000, 14:03:42.374
46, -3422.55, -3504.73, -3387.26, -2718.02, 0.000, 0.000, 0.000, 14:03:42.374
47, -3252.04, -3416.82, -3290.18, -2578.03, 0.000, 0.000, 0.000, 14:03:42.375
48, -3684.36, -3582.00, -3601.67, -2873.06, 0.000, 0.000, 0.000, 14:03:42.375
49, -3834.87, -3618.82, -3609.66, -2921.45, 0.000, 0.000, 0.000, 14:03:42.404
50, -3479.28, -3454.53, -3401.18, -2703.19, 0.000, 0.000, 0.000, 14:03:42.404
51, -3324.90, -3363.75, -3317.08, -2618.67, 0.000, 0.000, 0.000, 14:03:42.405
52, -3791.66, -3546.53, -3618.86, -2885.73, 0.000, 0.000, 0.000, 14:03:42.405
53, -3825.87, -3579.69, -3645.59, -2887.53, 0.000, 0.000, 0.000, 14:03:42.406
54, -3537.89, -3439.08, -3440.46, -2684.43, 0.000, 0.000, 0.000, 14:03:42.406
55, -3401.45, -3345.63, -3323.63, -2576.37, 0.000, 0.000, 0.000, 14:03:42.435
56, -3939.02, -3527.76, -3640.51, -2874.76, 0.000, 0.000, 0.000, 14:03:42.435
57, -3871.99, -3556.42, -3648.57, -2913.01, 0.000, 0.000, 0.000, 14:03:42.435
58, -3544.77, -3423.59, -3439.39, -2686.65, 0.000, 0.000, 0.000, 14:03:42.435
59, -3432.21, -3336.89, -3318.58, -2633.86, 0.000, 0.000, 0.000, 14:03:42.442
60, -3892.15, -3545.56, -3634.67, -2861.23, 0.000, 0.000, 0.000, 14:03:42.442
61, -3803.67, -3568.98, -3642.53, -2821.85, 0.000, 0.000, 0.000, 14:03:42.464
62, -3591.15, -3426.65, -3424.72, -2666.92, 0.000, 0.000, 0.000, 14:03:42.465
63, -3465.69, -3347.05, -3318.60, -2662.73, 0.000, 0.000, 0.000, 14:03:42.465
64, -3933.73, -3544.52, -3617.40, -2905.21, 0.000, 0.000, 0.000, 14:03:42.465
65, -3839.46, -3562.87, -3611.99, -2937.38, 0.000, 0.000, 0.000, 14:03:42.465
66, -3568.51, -3426.41, -3409.36, -2733.90, 0.000, 0.000, 0.000, 14:03:42.466
67, -3421.53, -3338.41, -3290.06, -2691.26, 0.000, 0.000, 0.000, 14:03:42.524
68, -3896.39, -3570.60, -3605.93, -2921.97, 0.000, 0.000, 0.000, 14:03:42.524
69, -3871.48, -3585.18, -3607.00, -2952.21, 0.000, 0.000, 0.000, 14:03:42.526
70, -3558.45, -3419.00, -3364.07, -2756.99, 0.000, 0.000, 0.000, 14:03:42.526
71, -3387.15, -3340.41, -3265.86, -2699.46, 0.000, 0.000, 0.000, 14:03:42.526
72, -3867.16, -3547.88, -3582.67, -3027.54, 0.000, 0.000, 0.000, 14:03:42.526
73, -3915.80, -3579.56, -3571.01, -2997.19, 0.000, 0.000, 0.000, 14:03:42.527
74, -3518.16, -3464.18, -3381.10, -2787.99, 0.000, 0.000, 0.000, 14:03:42.527
75, -3441.70, -3354.08, -3270.67, -2667.92, 0.000, 0.000, 0.000, 14:03:42.528
76, -3904.13, -3537.85, -3581.75, -2991.62, 0.000, 0.000, 0.000, 14:03:42.528
77, -3835.61, -3576.70, -3569.09, -3032.37, 0.000, 0.000, 0.000, 14:03:42.529
78, -3505.40, -3429.75, -3358.27, -2725.76, 0.000, 0.000, 0.000, 14:03:42.529
79, -3434.92, -3373.95, -3278.71, -2712.71, 0.000, 0.000, 0.000, 14:03:42.540
80, -3937.80, -3566.25, -3585.85, -2959.64, 0.000, 0.000, 0.000, 14:03:42.540
81, -3876.97, -3589.83, -3576.77, -2972.28, 0.000, 0.000, 0.000, 14:03:42.570
82, -3591.52, -3438.58, -3367.59, -2763.08, 0.000, 0.000, 0.000, 14:03:42.570
83, -3340.57, -3360.68, -3280.28, -2781.78, 0.000, 0.000, 0.000, 14:03:42.570
84, -3853.68, -3563.29, -3576.49, -2932.93, 0.000, 0.000, 0.000, 14:03:42.570
85, -3905.95, -3588.55, -3563.03, -2995.97, 0.000, 0.000, 0.000, 14:03:42.571
86, -3498.35, -3435.75, -3349.09, -2839.31, 0.000, 0.000, 0.000, 14:03:42.571
87, -3368.69, -3362.19, -3269.98, -2697.59, 0.000, 0.000, 0.000, 14:03:42.571
88, -3867.33, -3550.32, -3587.87, -2970.95, 0.000, 0.000, 0.000, 14:03:42.571
89, -3887.28, -3589.70, -3571.63, -2970.71, 0.000, 0.000, 0.000, 14:03:42.585
90, -3544.91, -3449.16, -3351.77, -2810.16, 0.000, 0.000, 0.000, 14:03:42.585
91, -3334.24, -3376.63, -3272.94, -2782.65, 0.000, 0.000, 0.000, 14:03:42.600
92, -3864.11, -3562.81, -3575.90, -2981.67, 0.000, 0.000, 0.000, 14:03:42.600
93, -3891.52, -3572.62, -3555.23, -2922.30, 0.000, 0.000, 0.000, 14:03:42.615
94, -3481.02, -3436.29, -3337.55, -2745.15, 0.000, 0.000, 0.000, 14:03:42.615
95, -3343.05, -3360.81, -3257.41, -2650.74, 0.000, 0.000, 0.000, 14:03:42.615
96, -3812.44, -3575.78, -3572.65, -3011.64, 0.000, 0.000, 0.000, 14:03:42.615
97, -3756.54, -3601.24, -3565.73, -3044.54, 0.000, 0.000, 0.000, 14:03:42.629
98, -3488.97, -3421.70, -3342.37, -2777.60, 0.000, 0.000, 0.000, 14:03:42.629
99, -3371.69, -3341.86, -3271.12, -2680.06, 0.000, 0.000, 0.000, 14:03:42.645
100, -3924.64, -3568.26, -3598.27, -2977.13, 0.000, 0.000, 0.000, 14:03:42.645
