%OpenBCI Raw EEG Data
%
%Sample Rate = 200.0 Hz
%First Column = SampleIndex
%Last Column = Timestamp 
%Other Columns = EEG data in microvolts followed by Accel Data (in G) interleaved with Aux Data
0, -4175.03, -3882.61, -3995.94, -3441.41, 0.000, 0.000, 0.000, 14:15:07.411
1, -4096.40, -3916.39, -3975.62, -3386.33, 0.000, 0.000, 0.000, 14:15:07.426
2, -3853.51, -3853.70, -3839.22, -3266.85, 0.000, 0.000, 0.000, 14:15:07.426
3, -3864.95, -3789.61, -3824.57, -3289.17, 0.000, 0.000, 0.000, 14:15:07.457
4, -4149.31, -3861.67, -3977.64, -3415.39, 0.000, 0.000, 0.000, 14:15:07.458
5, -4046.31, -3876.14, -3935.86, -3364.01, 0.000, 0.000, 0.000, 14:15:07.458
6, -3818.26, -3809.25, -3806.21, -3233.47, 0.000, 0.000, 0.000, 14:15:07.458
7, -3842.47, -3775.91, -3795.98, -3264.25, 0.000, 0.000, 0.000, 14:15:07.458
8, -4134.59, -3851.87, -3958.10, -3405.99, 0.000, 0.000, 0.000, 14:15:07.458
9, -4047.84, -3865.01, -3921.06, -3359.67, 0.000, 0.000, 0.000, 14:15:07.459
10, -3800.68, -3804.33, -3781.63, -3235.67, 0.000, 0.000, 0.000, 14:15:07.459
11, -3843.69, -3779.81, -3799.01, -3270.12, 0.000, 0.000, 0.000, 14:15:07.471
12, -4140.55, -3858.06, -3947.07, -3383.35, 0.000, 0.000, 0.000, 14:15:07.471
13, -4011.17, -3852.07, -3898.51, -3318.87, 0.000, 0.000, 0.000, 14:15:07.487
14, -3799.83, -3803.25, -3777.66, -3219.90, 0.000, 0.000, 0.000, 14:15:07.487
15, -3830.80, -3755.74, -3785.52, -3247.51, 0.000, 0.000, 0.000, 14:15:07.516
16, -4118.72, -3841.74, -3947.79, -3392.22, 0.000, 0.000, 0.000, 14:15:07.516
17, -4027.02, -3849.31, -3896.44, -3324.46, 0.000, 0.000, 0.000, 14:15:07.517
18, -3787.09, -3794.54, -3778.48, -3218.06, 0.000, 0.000, 0.000, 14:15:07.517
19, -3831.68, -3747.66, -3764.60, -3251.59, 0.000, 0.000, 0.000, 14:15:07.517
20, -4116.19, -3845.16, -3938.68, -3373.35, 0.000, 0.000, 0.000, 14:15:07.518
21, -4009.63, -3872.43, -3908.12, -3342.88, 0.000, 0.000, 0.000, 14:15:07.525
22, -3775.89, -3790.28, -3768.80, -3217.84, 0.000, 0.000, 0.000, 14:15:07.525
23, -3836.41, -3745.07, -3774.17, -3257.31, 0.000, 0.000, 0.000, 14:15:07.531
24, -4110.49, -3810.03, -3910.70, -3407.41, 0.000, 0.000, 0.000, 14:15:07.532
25, -4020.41, -3826.71, -3863.25, -3351.82, 0.000, 0.000, 0.000, 14:15:07.547
26, -3771.13, -3761.16, -3729.94, -3242.68, 0.000, 0.000, 0.000, 14:15:07.547
27, -3788.02, -3691.18, -3697.28, -3268.58, 0.000, 0.000, 0.000, 14:15:07.576
28, -4088.19, -3784.64, -3858.33, -3436.88, 0.000, 0.000, 0.000, 14:15:07.576
29, -3992.02, -3803.44, -3824.67, -3392.82, 0.000, 0.000, 0.000, 14:15:07.577
30, -3767.38, -3753.78, -3698.20, -3268.96, 0.000, 0.000, 0.000, 14:15:07.577
31, -3825.41, -3714.26, -3703.71, -3314.07, 0.000, 0.000, 0.000, 14:15:07.591
32, -4105.74, -3808.61, -3875.54, -3446.34, 0.000, 0.000, 0.000, 14:15:07.591
33, -4001.01, -3827.78, -3840.11, -3391.37, 0.000, 0.000, 0.000, 14:15:07.592
34, -3785.45, -3770.12, -3720.85, -3256.07, 0.000, 0.000, 0.000, 14:15:07.592
35, -3810.82, -3728.25, -3743.76, -3287.50, 0.000, 0.000, 0.000, 14:15:07.593
36, -4078.94, -3804.60, -3891.34, -3421.80, 0.000, 0.000, 0.000, 14:15:07.593
37, -4002.93, -3820.52, -3851.27, -3351.30, 0.000, 0.000, 0.000, 14:15:07.607
38, -3784.72, -3774.72, -3726.89, -3243.85, 0.000, 0.000, 0.000, 14:15:07.607
39, -3835.36, -3734.73, -3755.85, -3260.78, 0.000, 0.000, 0.000, 14:15:07.637
40, -4110.84, -3821.64, -3893.89, -3383.52, 0.000, 0.000, 0.000, 14:15:07.637
41, -3995.56, -3844.46, -3860.31, -3305.45, 0.000, 0.000, 0.000, 14:15:07.638
42, -3765.23, -3791.03, -3739.62, -3193.68, 0.000, 0.000, 0.000, 14:15:07.638
43, -3838.67, -3760.76, -3763.15, -3233.33, 0.000, 0.000, 0.000, 14:15:07.638
44, -4132.33, -3828.48, -3926.58, -3369.81, 0.000, 0.000, 0.000, 14:15:07.638
45, -4007.81, -3832.41, -3856.49, -3304.46, 0.000, 0.000, 0.000, 14:15:07.652
46, -3775.87, -3780.05, -3750.00, -3204.47, 0.000, 0.000, 0.000, 14:15:07.652
47, -3838.12, -3742.93, -3755.49, -3244.16, 0.000, 0.000, 0.000, 14:15:07.652
48, -4111.98, -3838.19, -3916.70, -3387.91, 0.000, 0.000, 0.000, 14:15:07.652
49, -3997.86, -3835.61, -3868.76, -3313.27, 0.000, 0.000, 0.000, 14:15:07.667
50, -3775.04, -3785.87, -3746.22, -3193.79, 0.000, 0.000, 0.000, 14:15:07.667
51, -3857.53, -3763.37, -3776.39, -3247.79, 0.000, 0.000, 0.000, 14:15:07.697
52, -4113.30, -3824.59, -3909.34, -3396.41, 0.000, 0.000, 0.000, 14:15:07.697
53, -3997.20, -3827.63, -3857.58, -3334.96, 0.000, 0.000, 0.000, 14:15:07.697
54, -3806.16, -3771.84, -3717.83, -3224.74, 0.000, 0.000, 0.000, 14:15:07.697
55, -3833.04, -3723.51, -3741.44, -3287.86, 0.000, 0.000, 0.000, 14:15:07.698
56, -4104.84, -3797.47, -3876.85, -3425.25, 0.000, 0.000, 0.000, 14:15:07.698
57, -3994.26, -3802.19, -3809.10, -3344.88, 0.000, 0.000, 0.000, 14:15:07.699
58, -3753.28, -3753.52, -3679.08, -3250.72, 0.000, 0.000, 0.000, 14:15:07.699
59, -3820.23, -3693.02, -3690.12, -3281.30, 0.000, 0.000, 0.000, 14:15:07.711
60, -4111.86, -3797.39, -3859.07, -3433.85, 0.000, 0.000, 0.000, 14:15:07.711
61, -4002.86, -3821.87, -3819.99, -3365.76, 0.000, 0.000, 0.000, 14:15:07.726
62, -3798.34, -3759.99, -3694.58, -3257.68, 0.000, 0.000, 0.000, 14:15:07.726
63, -3854.58, -3735.49, -3741.14, -3314.04, 0.000, 0.000, 0.000, 14:15:07.741
64, -4111.81, -3811.05, -3888.68, -3421.74, 0.000, 0.000, 0.000, 14:15:07.741
65, -3999.81, -3808.54, -3833.31, -3338.80, 0.000, 0.000, 0.000, 14:15:07.759
66, -3768.64, -3767.80, -3726.51, -3223.60, 0.000, 0.000, 0.000, 14:15:07.759
67, -3883.02, -3742.52, -3758.01, -3278.39, 0.000, 0.000, 0.000, 14:15:07.759
68, -4095.44, -3812.01, -3909.35, -3389.58, 0.000, 0.000, 0.000, 14:15:07.759
69, -3972.34, -3821.06, -3849.50, -3326.32, 0.000, 0.000, 0.000, 14:15:07.773
70, -3774.95, -3784.84, -3740.61, -3224.00, 0.000, 0.000, 0.000, 14:15:07.773
71, -3847.08, -3739.94, -3767.56, -3276.65, 0.000, 0.000, 0.000, 14:15:07.773
72, -4102.02, -3816.17, -3917.53, -3392.49, 0.000, 0.000, 0.000, 14:15:07.773
73, -3999.54, -3827.88, -3862.78, -3317.95, 0.000, 0.000, 0.000, 14:15:07.787
74, -3763.81, -3765.30, -3739.17, -3213.10, 0.000, 0.000, 0.000, 14:15:07.787
75, -3855.16, -3738.34, -3777.81, -3270.19, 0.000, 0.000, 0.000, 14:15:07.801
76, -4124.80, -3834.32, -3937.90, -3388.53, 0.000, 0.000, 0.000, 14:15:07.801
77, -3997.50, -3837.29, -3874.04, -3313.47, 0.000, 0.000, 0.000, 14:15:07.802
78, -3768.01, -3774.50, -3749.62, -3203.53, 0.000, 0.000, 0.000, 14:15:07.802
79, -3863.80, -3753.26, -3785.34, -3259.53, 0.000, 0.000, 0.000, 14:15:07.816
80, -4136.43, -3842.01, -3941.25, -3386.40, 0.000, 0.000, 0.000, 14:15:07.816
81, -3994.19, -3832.84, -3874.00, -3312.94, 0.000, 0.000, 0.000, 14:15:07.846
82, -3768.31, -3781.33, -3748.30, -3205.02, 0.000, 0.000, 0.000, 14:15:07.846
83, -3860.88, -3753.22, -3786.90, -3270.98, 0.000, 0.000, 0.000, 14:15:07.846
84, -4107.40, -3815.25, -3915.12, -3362.02, 0.000, 0.000, 0.000, 14:15:07.847
85, -4027.99, -3860.47, -3882.63, -3314.42, 0.000, 0.000, 0.000, 14:15:07.847
86, -3796.75, -3795.36, -3757.95, -3212.51, 0.000, 0.000, 0.000, 14:15:07.847
87, -3854.81, -3751.95, -3798.50, -3249.99, 0.000, 0.000, 0.000, 14:15:07.855
88, -4126.56, -3836.29, -3946.14, -3372.19, 0.000, 0.000, 0.000, 14:15:07.855
89, -4009.62, -3841.04, -3883.76, -3309.41, 0.000, 0.000, 0.000, 14:15:07.861
90, -3763.14, -3780.68, -3747.35, -3195.74, 0.000, 0.000, 0.000, 14:15:07.861
91, -3862.09, -3748.39, -3802.72, -3274.04, 0.000, 0.000, 0.000, 14:15:07.876
92, -4100.10, -3821.31, -3932.04, -3370.14, 0.000, 0.000, 0.000, 14:15:07.876
93, -3971.97, -3822.71, -3856.27, -3299.26, 0.000, 0.000, 0.000, 14:15:07.908
94, -3757.31, -3776.38, -3738.49, -3195.80, 0.000, 0.000, 0.000, 14:15:07.908
95, -3861.92, -3755.47, -3796.18, -3259.42, 0.000, 0.000, 0.000, 14:15:07.908
96, -4113.82, -3853.33, -3943.22, -3389.12, 0.000, 0.000, 0.000, 14:15:07.908
97, -3985.06, -3838.77, -3884.13, -3315.36, 0.000, 0.000, 0.000, 14:15:07.908
98, -3775.36, -3786.43, -3754.50, -3211.10, 0.000, 0.000, 0.000, 14:15:07.908
99, -3879.88, -3751.68, -3804.76, -3273.13, 0.000, 0.000, 0.000, 14:15:07.908
100, -4122.44, -3842.17, -3950.39, -3375.20, 0.000, 0.000, 0.000, 14:15:07.909
101, -3975.66, -3837.28, -3887.09, -3309.09, 0.000, 0.000, 0.000, 14:15:07.922
102, -3758.86, -3769.00, -3742.94, -3203.52, 0.000, 0.000, 0.000, 14:15:07.922
103, -3878.98, -3761.58, -3795.14, -3274.33, 0.000, 0.000, 0.000, 14:15:07.937
104, -4135.20, -3853.85, -3941.67, -3388.53, 0.000, 0.000, 0.000, 14:15:07.937
105, -3994.63, -3847.16, -3879.91, -3300.65, 0.000, 0.000, 0.000, 14:15:07.951
106, -3784.07, -3774.69, -3737.98, -3201.67, 0.000, 0.000, 0.000, 14:15:07.952
107, -3855.03, -3741.58, -3784.60, -3265.43, 0.000, 0.000, 0.000, 14:15:07.966
108, -4100.46, -3848.30, -3955.43, -3378.58, 0.000, 0.000, 0.000, 14:15:07.966
109, -3971.18, -3833.66, -3883.93, -3307.09, 0.000, 0.000, 0.000, 14:15:07.967
110, -3728.89, -3765.17, -3736.76, -3189.96, 0.000, 0.000, 0.000, 14:15:07.967
111, -3864.63, -3751.57, -3791.66, -3271.86, 0.000, 0.000, 0.000, 14:15:07.981
112, -4122.91, -3834.44, -3940.79, -3383.66, 0.000, 0.000, 0.000, 14:15:07.981
113, -3974.32, -3842.56, -3875.12, -3310.66, 0.000, 0.000, 0.000, 14:15:07.982
114, -3771.49, -3796.73, -3753.90, -3202.84, 0.000, 0.000, 0.000, 14:15:07.982
115, -3906.10, -3796.91, -3806.95, -3283.40, 0.000, 0.000, 0.000, 14:15:08.011
116, -4117.97, -3841.53, -3925.65, -3371.34, 0.000, 0.000, 0.000, 14:15:08.011
117, -3963.80, -3837.16, -3872.60, -3311.89, 0.000, 0.000, 0.000, 14:15:08.011
118, -3750.30, -3789.60, -3742.17, -3224.08, 0.000, 0.000, 0.000, 14:15:08.011
119, -3857.86, -3757.52, -3794.44, -3270.67, 0.000, 0.000, 0.000, 14:15:08.013
120, -4083.28, -3842.81, -3920.65, -3383.85, 0.000, 0.000, 0.000, 14:15:08.013
121, -3956.49, -3834.76, -3860.33, -3304.84, 0.000, 0.000, 0.000, 14:15:08.026
122, -3739.38, -3787.69, -3736.85, -3194.06, 0.000, 0.000, 0.000, 14:15:08.026
123, -3860.08, -3773.75, -3802.44, -3273.07, 0.000, 0.000, 0.000, 14:15:08.042
124, -4105.46, -3850.21, -3937.57, -3377.90, 0.000, 0.000, 0.000, 14:15:08.042
125, -3966.20, -3850.57, -3882.41, -3303.74, 0.000, 0.000, 0.000, 14:15:08.042
126, -3732.49, -3780.86, -3736.48, -3186.73, 0.000, 0.000, 0.000, 14:15:08.042
127, -3877.32, -3771.17, -3797.60, -3282.03, 0.000, 0.000, 0.000, 14:15:08.057
128, -4103.04, -3847.30, -3933.03, -3378.94, 0.000, 0.000, 0.000, 14:15:08.057
129, -3970.56, -3836.34, -3864.14, -3308.42, 0.000, 0.000, 0.000, 14:15:08.086
130, -3746.34, -3776.15, -3729.95, -3213.87, 0.000, 0.000, 0.000, 14:15:08.087
131, -3877.58, -3763.00, -3804.08, -3278.20, 0.000, 0.000, 0.000, 14:15:08.087
132, -4100.69, -3848.38, -3934.09, -3372.14, 0.000, 0.000, 0.000, 14:15:08.087
133, -3967.51, -3835.01, -3864.78, -3300.76, 0.000, 0.000, 0.000, 14:15:08.088
134, -3753.76, -3778.49, -3746.43, -3189.74, 0.000, 0.000, 0.000, 14:15:08.088
135, -3895.68, -3763.93, -3795.98, -3269.51, 0.000, 0.000, 0.000, 14:15:08.088
136, -4107.70, -3845.52, -3927.04, -3383.89, 0.000, 0.000, 0.000, 14:15:08.088
137, -3965.06, -3843.25, -3862.09, -3317.83, 0.000, 0.000, 0.000, 14:15:08.102
138, -3754.81, -3786.99, -3742.91, -3216.18, 0.000, 0.000, 0.000, 14:15:08.102
139, -3888.18, -3759.33, -3807.50, -3278.46, 0.000, 0.000, 0.000, 14:15:08.117
140, -4098.49, -3839.11, -3919.22, -3374.97, 0.000, 0.000, 0.000, 14:15:08.117
141, -3951.87, -3831.82, -3855.91, -3298.01, 0.000, 0.000, 0.000, 14:15:08.132
142, -3740.54, -3773.63, -3735.03, -3197.63, 0.000, 0.000, 0.000, 14:15:08.132
143, -3898.14, -3762.93, -3809.08, -3290.28, 0.000, 0.000, 0.000, 14:15:08.132
144, -4113.47, -3839.67, -3923.69, -3379.99, 0.000, 0.000, 0.000, 14:15:08.132
145, -3972.19, -3834.19, -3853.63, -3296.59, 0.000, 0.000, 0.000, 14:15:08.146
146, -3757.01, -3770.66, -3734.57, -3200.11, 0.000, 0.000, 0.000, 14:15:08.146
147, -3862.05, -3756.87, -3799.21, -3280.20, 0.000, 0.000, 0.000, 14:15:08.162
148, -4098.98, -3847.51, -3938.91, -3380.61, 0.000, 0.000, 0.000, 14:15:08.162
149, -3972.88, -3837.00, -3870.48, -3309.65, 0.000, 0.000, 0.000, 14:15:08.162
150, -3748.91, -3778.06, -3734.44, -3201.98, 0.000, 0.000, 0.000, 14:15:08.162
151, -3889.23, -3753.59, -3806.62, -3281.86, 0.000, 0.000, 0.000, 14:15:08.177
152, -4107.59, -3835.73, -3925.39, -3365.06, 0.000, 0.000, 0.000, 14:15:08.177
153, -3963.17, -3836.28, -3865.65, -3294.75, 0.000, 0.000, 0.000, 14:15:08.192
154, -3731.01, -3769.46, -3728.02, -3192.34, 0.000, 0.000, 0.000, 14:15:08.192
155, -3888.61, -3760.00, -3797.38, -3288.03, 0.000, 0.000, 0.000, 14:15:08.192
156, -4103.93, -3834.52, -3924.48, -3380.48, 0.000, 0.000, 0.000, 14:15:08.192
157, -3964.86, -3844.16, -3868.70, -3302.90, 0.000, 0.000, 0.000, 14:15:08.207
158, -3749.27, -3784.72, -3751.35, -3205.72, 0.000, 0.000, 0.000, 14:15:08.207
159, -3921.48, -3763.61, -3814.26, -3287.13, 0.000, 0.000, 0.000, 14:15:08.222
160, -4114.10, -3842.80, -3929.70, -3386.86, 0.000, 0.000, 0.000, 14:15:08.222
161, -3954.87, -3834.51, -3863.30, -3296.67, 0.000, 0.000, 0.000, 14:15:08.223
162, -3736.45, -3775.90, -3742.51, -3194.66, 0.000, 0.000, 0.000, 14:15:08.224
163, -3894.41, -3780.63, -3824.71, -3301.72, 0.000, 0.000, 0.000, 14:15:08.236
164, -4126.50, -3874.23, -3942.52, -3371.77, 0.000, 0.000, 0.000, 14:15:08.237
165, -3968.88, -3850.04, -3870.09, -3294.81, 0.000, 0.000, 0.000, 14:15:08.251
166, -3725.30, -3781.08, -3754.35, -3188.10, 0.000, 0.000, 0.000, 14:15:08.251
167, -3878.73, -3757.81, -3842.62, -3262.33, 0.000, 0.000, 0.000, 14:15:08.252
168, -4090.35, -3854.56, -3971.36, -3344.33, 0.000, 0.000, 0.000, 14:15:08.252
169, -3948.75, -3844.36, -3897.02, -3247.96, 0.000, 0.000, 0.000, 14:15:08.267
170, -3714.81, -3778.20, -3779.52, -3133.77, 0.000, 0.000, 0.000, 14:15:08.267
171, -3885.55, -3764.89, -3850.35, -3215.68, 0.000, 0.000, 0.000, 14:15:08.281
172, -4089.11, -3844.85, -3999.22, -3306.92, 0.000, 0.000, 0.000, 14:15:08.281
173, -3930.01, -3837.38, -3913.26, -3208.24, 0.000, 0.000, 0.000, 14:15:08.282
174, -3718.16, -3788.63, -3803.21, -3117.51, 0.000, 0.000, 0.000, 14:15:08.282
175, -3893.20, -3779.35, -3875.24, -3198.22, 0.000, 0.000, 0.000, 14:15:08.303
176, -4081.85, -3859.97, -4002.81, -3283.56, 0.000, 0.000, 0.000, 14:15:08.303
177, -3939.99, -3865.07, -3936.83, -3204.35, 0.000, 0.000, 0.000, 14:15:08.311
178, -3702.00, -3782.02, -3814.63, -3089.54, 0.000, 0.000, 0.000, 14:15:08.311
179, -3883.97, -3785.04, -3883.32, -3198.96, 0.000, 0.000, 0.000, 14:15:08.311
180, -4076.68, -3853.64, -3998.78, -3265.94, 0.000, 0.000, 0.000, 14:15:08.312
181, -3935.02, -3854.02, -3933.13, -3199.37, 0.000, 0.000, 0.000, 14:15:08.327
182, -3720.38, -3790.34, -3818.29, -3098.94, 0.000, 0.000, 0.000, 14:15:08.327
183, -3898.51, -3790.25, -3883.01, -3194.51, 0.000, 0.000, 0.000, 14:15:08.342
184, -4103.70, -3878.83, -4002.12, -3301.76, 0.000, 0.000, 0.000, 14:15:08.342
185, -3967.87, -3862.07, -3920.80, -3227.37, 0.000, 0.000, 0.000, 14:15:08.342
186, -3741.83, -3795.97, -3787.14, -3129.91, 0.000, 0.000, 0.000, 14:15:08.343
187, -3889.93, -3773.30, -3851.45, -3229.69, 0.000, 0.000, 0.000, 14:15:08.372
188, -4083.31, -3858.82, -3964.69, -3311.73, 0.000, 0.000, 0.000, 14:15:08.373
189, -3959.55, -3845.91, -3894.79, -3253.19, 0.000, 0.000, 0.000, 14:15:08.374
190, -3728.67, -3776.42, -3767.38, -3154.26, 0.000, 0.000, 0.000, 14:15:08.374
191, -3912.83, -3761.42, -3844.58, -3257.50, 0.000, 0.000, 0.000, 14:15:08.375
192, -4091.85, -3842.52, -3956.63, -3345.84, 0.000, 0.000, 0.000, 14:15:08.375
193, -3960.74, -3840.86, -3885.94, -3262.12, 0.000, 0.000, 0.000, 14:15:08.387
194, -3732.59, -3779.47, -3747.51, -3161.66, 0.000, 0.000, 0.000, 14:15:08.387
195, -3918.68, -3769.09, -3833.52, -3273.10, 0.000, 0.000, 0.000, 14:15:08.401
196, -4106.10, -3841.16, -3945.68, -3358.95, 0.000, 0.000, 0.000, 14:15:08.401
197, -3959.00, -3834.98, -3869.00, -3268.62, 0.000, 0.000, 0.000, 14:15:08.402
198, -3742.48, -3766.58, -3746.07, -3181.56, 0.000, 0.000, 0.000, 14:15:08.402
199, -3926.33, -3764.63, -3834.59, -3282.38, 0.000, 0.000, 0.000, 14:15:08.417
200, -4080.74, -3831.91, -3931.46, -3346.57, 0.000, 0.000, 0.000, 14:15:08.417
0, -3932.92, -3824.03, -3851.64, -3264.31, 0.000, 0.000, 0.000, 14:15:08.417
1, -3758.00, -3780.46, -3747.41, -3190.45, 0.000, 0.000, 0.000, 14:15:08.432
2, -3926.66, -3772.98, -3836.19, -3291.88, 0.000, 0.000, 0.000, 14:15:08.432
3, -4103.95, -3840.43, -3935.70, -3360.71, 0.000, 0.000, 0.000, 14:15:08.462
4, -3960.04, -3829.09, -3859.52, -3286.12, 0.000, 0.000, 0.000, 14:15:08.462
5, -3743.68, -3769.67, -3733.60, -3180.01, 0.000, 0.000, 0.000, 14:15:08.462
6, -3916.14, -3763.15, -3824.45, -3291.25, 0.000, 0.000, 0.000, 14:15:08.462
7, -4109.25, -3844.96, -3937.30, -3374.35, 0.000, 0.000, 0.000, 14:15:08.463
8, -3951.83, -3834.69, -3858.43, -3290.60, 0.000, 0.000, 0.000, 14:15:08.463
9, -3761.98, -3777.23, -3735.04, -3199.87, 0.000, 0.000, 0.000, 14:15:08.464
10, -3924.31, -3763.84, -3831.90, -3299.77, 0.000, 0.000, 0.000, 14:15:08.464
11, -4104.45, -3847.73, -3936.88, -3374.60, 0.000, 0.000, 0.000, 14:15:08.477
12, -3967.26, -3833.07, -3858.60, -3291.03, 0.000, 0.000, 0.000, 14:15:08.477
13, -3727.67, -3774.22, -3742.65, -3196.93, 0.000, 0.000, 0.000, 14:15:08.507
14, -3908.48, -3759.69, -3816.38, -3305.11, 0.000, 0.000, 0.000, 14:15:08.507
15, -4103.20, -3846.73, -3942.78, -3378.57, 0.000, 0.000, 0.000, 14:15:08.521
16, -3940.95, -3821.64, -3848.24, -3270.60, 0.000, 0.000, 0.000, 14:15:08.522
17, -3739.12, -3768.14, -3750.01, -3173.59, 0.000, 0.000, 0.000, 14:15:08.522
18, -3923.79, -3763.34, -3844.10, -3281.06, 0.000, 0.000, 0.000, 14:15:08.523
19, -4116.78, -3849.04, -3945.41, -3360.94, 0.000, 0.000, 0.000, 14:15:08.523
20, -3964.46, -3834.61, -3875.83, -3271.76, 0.000, 0.000, 0.000, 14:15:08.523
21, -3749.77, -3769.24, -3748.53, -3174.58, 0.000, 0.000, 0.000, 14:15:08.524
22, -3917.96, -3757.69, -3827.21, -3288.26, 0.000, 0.000, 0.000, 14:15:08.525
23, -4096.59, -3834.53, -3938.13, -3366.52, 0.000, 0.000, 0.000, 14:15:08.537
24, -3923.39, -3824.27, -3863.64, -3279.55, 0.000, 0.000, 0.000, 14:15:08.537
25, -3753.33, -3768.55, -3749.73, -3192.06, 0.000, 0.000, 0.000, 14:15:08.566
26, -3938.63, -3763.06, -3837.58, -3305.40, 0.000, 0.000, 0.000, 14:15:08.566
27, -4118.94, -3839.16, -3936.42, -3381.88, 0.000, 0.000, 0.000, 14:15:08.567
28, -3949.74, -3829.70, -3861.31, -3305.94, 0.000, 0.000, 0.000, 14:15:08.567
29, -3729.18, -3770.07, -3746.11, -3203.71, 0.000, 0.000, 0.000, 14:15:08.568
30, -3902.07, -3762.78, -3829.53, -3319.52, 0.000, 0.000, 0.000, 14:15:08.568
31, -4100.82, -3840.54, -3937.56, -3385.17, 0.000, 0.000, 0.000, 14:15:08.581
32, -3937.26, -3834.33, -3857.58, -3299.44, 0.000, 0.000, 0.000, 14:15:08.581
33, -3743.20, -3772.14, -3752.75, -3192.09, 0.000, 0.000, 0.000, 14:15:08.596
34, -3945.45, -3773.00, -3836.96, -3312.67, 0.000, 0.000, 0.000, 14:15:08.596
35, -4104.37, -3838.51, -3926.64, -3381.46, 0.000, 0.000, 0.000, 14:15:08.597
36, -3952.52, -3833.21, -3853.79, -3299.92, 0.000, 0.000, 0.000, 14:15:08.597
37, -3734.50, -3762.42, -3738.62, -3194.31, 0.000, 0.000, 0.000, 14:15:08.641
38, -3959.57, -3765.77, -3838.16, -3310.26, 0.000, 0.000, 0.000, 14:15:08.641
39, -4109.59, -3846.44, -3934.05, -3388.21, 0.000, 0.000, 0.000, 14:15:08.642
40, -3943.56, -3836.16, -3851.24, -3288.36, 0.000, 0.000, 0.000, 14:15:08.642
41, -3738.21, -3764.03, -3729.00, -3184.98, 0.000, 0.000, 0.000, 14:15:08.642
42, -3960.46, -3771.18, -3846.52, -3316.92, 0.000, 0.000, 0.000, 14:15:08.642
43, -4094.33, -3838.98, -3927.35, -3367.43, 0.000, 0.000, 0.000, 14:15:08.643
44, -3936.58, -3835.51, -3862.82, -3291.04, 0.000, 0.000, 0.000, 14:15:08.643
45, -3725.22, -3766.15, -3738.51, -3189.76, 0.000, 0.000, 0.000, 14:15:08.644
46, -3935.36, -3773.99, -3837.28, -3317.29, 0.000, 0.000, 0.000, 14:15:08.644
47, -4094.60, -3856.19, -3933.59, -3373.28, 0.000, 0.000, 0.000, 14:15:08.657
48, -3936.40, -3835.13, -3852.29, -3285.77, 0.000, 0.000, 0.000, 14:15:08.657
49, -3739.05, -3763.15, -3732.66, -3189.05, 0.000, 0.000, 0.000, 14:15:08.686
50, -3953.70, -3773.42, -3838.52, -3306.95, 0.000, 0.000, 0.000, 14:15:08.686
51, -4104.38, -3845.46, -3932.65, -3370.28, 0.000, 0.000, 0.000, 14:15:08.687
52, -3939.39, -3828.23, -3846.72, -3288.51, 0.000, 0.000, 0.000, 14:15:08.687
53, -3742.83, -3770.47, -3739.05, -3200.58, 0.000, 0.000, 0.000, 14:15:08.688
54, -3941.19, -3760.87, -3832.74, -3302.96, 0.000, 0.000, 0.000, 14:15:08.688
55, -4115.29, -3855.24, -3943.92, -3361.66, 0.000, 0.000, 0.000, 14:15:08.702
56, -3925.89, -3831.05, -3844.94, -3265.44, 0.000, 0.000, 0.000, 14:15:08.702
57, -3749.55, -3772.29, -3738.94, -3194.33, 0.000, 0.000, 0.000, 14:15:08.716
58, -3954.95, -3773.72, -3833.80, -3320.74, 0.000, 0.000, 0.000, 14:15:08.716
59, -4112.55, -3850.86, -3927.58, -3379.36, 0.000, 0.000, 0.000, 14:15:08.724
60, -3911.85, -3818.21, -3840.98, -3277.53, 0.000, 0.000, 0.000, 14:15:08.724
61, -3748.42, -3774.08, -3742.12, -3205.56, 0.000, 0.000, 0.000, 14:15:08.731
62, -3934.57, -3764.12, -3833.47, -3312.38, 0.000, 0.000, 0.000, 14:15:08.731
63, -4125.83, -3848.00, -3934.97, -3366.87, 0.000, 0.000, 0.000, 14:15:08.747
64, -3951.62, -3836.90, -3852.47, -3284.23, 0.000, 0.000, 0.000, 14:15:08.747
65, -3749.86, -3771.05, -3733.11, -3188.96, 0.000, 0.000, 0.000, 14:15:08.761
66, -3947.48, -3773.28, -3838.53, -3321.71, 0.000, 0.000, 0.000, 14:15:08.761
67, -4078.75, -3852.86, -3939.98, -3383.43, 0.000, 0.000, 0.000, 14:15:08.762
68, -3923.73, -3829.52, -3851.48, -3277.53, 0.000, 0.000, 0.000, 14:15:08.762
69, -3731.88, -3749.10, -3721.17, -3182.95, 0.000, 0.000, 0.000, 14:15:08.777
70, -3986.15, -3767.87, -3835.55, -3305.48, 0.000, 0.000, 0.000, 14:15:08.777
71, -4118.46, -3852.41, -3936.59, -3365.21, 0.000, 0.000, 0.000, 14:15:08.777
72, -3925.57, -3830.70, -3851.35, -3278.37, 0.000, 0.000, 0.000, 14:15:08.777
73, -3720.03, -3766.61, -3729.13, -3181.46, 0.000, 0.000, 0.000, 14:15:08.807
74, -3946.93, -3777.75, -3842.76, -3313.24, 0.000, 0.000, 0.000, 14:15:08.807
75, -4099.10, -3868.03, -3937.65, -3376.91, 0.000, 0.000, 0.000, 14:15:08.807
76, -3933.19, -3834.20, -3847.07, -3286.60, 0.000, 0.000, 0.000, 14:15:08.807
77, -3717.03, -3755.93, -3730.17, -3191.07, 0.000, 0.000, 0.000, 14:15:08.807
78, -3954.63, -3769.08, -3841.76, -3312.07, 0.000, 0.000, 0.000, 14:15:08.807
79, -4093.71, -3851.86, -3928.50, -3367.88, 0.000, 0.000, 0.000, 14:15:08.821
80, -3922.47, -3834.82, -3840.87, -3276.38, 0.000, 0.000, 0.000, 14:15:08.822
81, -3744.03, -3767.78, -3738.22, -3180.34, 0.000, 0.000, 0.000, 14:15:08.837
82, -3966.18, -3775.89, -3844.08, -3305.56, 0.000, 0.000, 0.000, 14:15:08.837
83, -4082.65, -3855.23, -3923.42, -3344.65, 0.000, 0.000, 0.000, 14:15:08.837
84, -3919.03, -3832.18, -3837.23, -3252.62, 0.000, 0.000, 0.000, 14:15:08.838
85, -3726.29, -3760.50, -3745.09, -3153.95, 0.000, 0.000, 0.000, 14:15:08.851
86, -3977.48, -3774.26, -3841.51, -3292.10, 0.000, 0.000, 0.000, 14:15:08.851
87, -4114.68, -3856.60, -3923.30, -3328.25, 0.000, 0.000, 0.000, 14:15:08.866
88, -3941.04, -3837.26, -3849.08, -3243.66, 0.000, 0.000, 0.000, 14:15:08.866
89, -3737.53, -3768.46, -3736.55, -3158.02, 0.000, 0.000, 0.000, 14:15:08.867
90, -3986.36, -3788.71, -3862.44, -3305.12, 0.000, 0.000, 0.000, 14:15:08.867
91, -4103.98, -3852.16, -3939.95, -3352.47, 0.000, 0.000, 0.000, 14:15:08.896
92, -3912.73, -3823.54, -3839.27, -3250.72, 0.000, 0.000, 0.000, 14:15:08.896
93, -3742.37, -3762.28, -3745.22, -3167.43, 0.000, 0.000, 0.000, 14:15:08.897
94, -3984.67, -3766.67, -3845.73, -3313.62, 0.000, 0.000, 0.000, 14:15:08.897
95, -4090.95, -3849.85, -3934.59, -3369.68, 0.000, 0.000, 0.000, 14:15:08.897
96, -3923.76, -3832.90, -3851.70, -3267.87, 0.000, 0.000, 0.000, 14:15:08.897
97, -3755.32, -3764.82, -3737.81, -3178.19, 0.000, 0.000, 0.000, 14:15:08.926
98, -3991.44, -3781.84, -3853.25, -3308.42, 0.000, 0.000, 0.000, 14:15:08.926
99, -4083.82, -3852.70, -3931.88, -3354.32, 0.000, 0.000, 0.000, 14:15:08.927
100, -3907.11, -3819.68, -3829.20, -3258.68, 0.000, 0.000, 0.000, 14:15:08.927
101, -3730.85, -3769.31, -3742.83, -3183.93, 0.000, 0.000, 0.000, 14:15:08.928
102, -3965.65, -3777.75, -3857.10, -3315.50, 0.000, 0.000, 0.000, 14:15:08.928
103, -4087.34, -3844.48, -3943.18, -3365.46, 0.000, 0.000, 0.000, 14:15:08.957
104, -3914.63, -3827.05, -3832.90, -3275.32, 0.000, 0.000, 0.000, 14:15:08.957
105, -3749.93, -3769.23, -3726.97, -3184.65, 0.000, 0.000, 0.000, 14:15:08.958
106, -3997.31, -3781.66, -3858.00, -3322.70, 0.000, 0.000, 0.000, 14:15:08.958
107, -4124.26, -3849.17, -3934.28, -3373.70, 0.000, 0.000, 0.000, 14:15:08.958
108, -3923.00, -3813.77, -3838.67, -3262.70, 0.000, 0.000, 0.000, 14:15:08.958
109, -3741.88, -3757.47, -3735.96, -3178.76, 0.000, 0.000, 0.000, 14:15:08.973
110, -3960.31, -3768.52, -3854.13, -3337.00, 0.000, 0.000, 0.000, 14:15:08.973
111, -4094.48, -3845.22, -3939.33, -3378.05, 0.000, 0.000, 0.000, 14:15:08.988
112, -3911.56, -3814.19, -3831.39, -3260.29, 0.000, 0.000, 0.000, 14:15:08.988
113, -3717.94, -3759.96, -3727.76, -3175.67, 0.000, 0.000, 0.000, 14:15:08.989
114, -3982.41, -3780.04, -3847.45, -3327.82, 0.000, 0.000, 0.000, 14:15:08.989
115, -4087.85, -3856.48, -3932.09, -3365.02, 0.000, 0.000, 0.000, 14:15:09.002
116, -3922.01, -3836.90, -3858.30, -3273.06, 0.000, 0.000, 0.000, 14:15:09.002
117, -3744.59, -3759.82, -3753.39, -3190.73, 0.000, 0.000, 0.000, 14:15:09.017
118, -3981.62, -3776.80, -3856.64, -3319.12, 0.000, 0.000, 0.000, 14:15:09.017
119, -4116.11, -3845.50, -3929.61, -3365.65, 0.000, 0.000, 0.000, 14:15:09.017
120, -3907.50, -3815.56, -3835.69, -3261.91, 0.000, 0.000, 0.000, 14:15:09.017
121, -3734.45, -3764.25, -3737.83, -3192.84, 0.000, 0.000, 0.000, 14:15:09.031
122, -3981.42, -3782.40, -3852.67, -3328.37, 0.000, 0.000, 0.000, 14:15:09.031
123, -4091.27, -3851.30, -3932.27, -3364.28, 0.000, 0.000, 0.000, 14:15:09.046
124, -3908.40, -3822.34, -3832.98, -3261.41, 0.000, 0.000, 0.000, 14:15:09.046
125, -3752.56, -3767.59, -3755.03, -3183.50, 0.000, 0.000, 0.000, 14:15:09.047
126, -3995.15, -3783.10, -3865.20, -3336.97, 0.000, 0.000, 0.000, 14:15:09.047
127, -4109.21, -3857.98, -3940.57, -3369.60, 0.000, 0.000, 0.000, 14:15:09.076
128, -3902.24, -3814.07, -3836.25, -3262.88, 0.000, 0.000, 0.000, 14:15:09.077
129, -3726.53, -3756.29, -3742.18, -3190.37, 0.000, 0.000, 0.000, 14:15:09.077
130, -4001.70, -3784.82, -3859.44, -3319.16, 0.000, 0.000, 0.000, 14:15:09.077
131, -4115.26, -3859.49, -3937.64, -3361.16, 0.000, 0.000, 0.000, 14:15:09.078
132, -3912.94, -3832.24, -3843.39, -3258.05, 0.000, 0.000, 0.000, 14:15:09.078
133, -3746.06, -3753.54, -3727.95, -3188.98, 0.000, 0.000, 0.000, 14:15:09.091
134, -3994.69, -3785.71, -3868.06, -3330.34, 0.000, 0.000, 0.000, 14:15:09.092
135, -4074.06, -3850.36, -3933.13, -3378.94, 0.000, 0.000, 0.000, 14:15:09.123
136, -3905.27, -3824.39, -3841.09, -3275.44, 0.000, 0.000, 0.000, 14:15:09.123
137, -3722.84, -3743.10, -3730.01, -3170.10, 0.000, 0.000, 0.000, 14:15:09.123
138, -4020.99, -3788.03, -3880.14, -3340.53, 0.000, 0.000, 0.000, 14:15:09.123
139, -4118.55, -3848.65, -3931.13, -3376.92, 0.000, 0.000, 0.000, 14:15:09.125
140, -3912.71, -3824.06, -3832.52, -3282.09, 0.000, 0.000, 0.000, 14:15:09.125
141, -3722.30, -3765.15, -3740.33, -3206.16, 0.000, 0.000, 0.000, 14:15:09.125
142, -3987.71, -3786.54, -3863.87, -3340.72, 0.000, 0.000, 0.000, 14:15:09.125
143, -4098.61, -3853.51, -3932.47, -3363.64, 0.000, 0.000, 0.000, 14:15:09.137
144, -3915.98, -3820.44, -3834.35, -3258.69, 0.000, 0.000, 0.000, 14:15:09.137
145, -3749.81, -3762.29, -3736.79, -3180.70, 0.000, 0.000, 0.000, 14:15:09.152
146, -3989.27, -3776.45, -3866.90, -3328.36, 0.000, 0.000, 0.000, 14:15:09.152
147, -4084.42, -3840.64, -3930.16, -3368.52, 0.000, 0.000, 0.000, 14:15:09.181
148, -3929.88, -3831.91, -3854.11, -3284.71, 0.000, 0.000, 0.000, 14:15:09.182
149, -3731.93, -3753.85, -3737.58, -3177.67, 0.000, 0.000, 0.000, 14:15:09.182
150, -4006.47, -3786.02, -3872.62, -3340.75, 0.000, 0.000, 0.000, 14:15:09.182
151, -4100.62, -3852.27, -3942.50, -3359.45, 0.000, 0.000, 0.000, 14:15:09.183
152, -3920.45, -3818.79, -3836.84, -3275.21, 0.000, 0.000, 0.000, 14:15:09.183
153, -3732.73, -3748.42, -3713.23, -3186.48, 0.000, 0.000, 0.000, 14:15:09.183
154, -4019.21, -3788.13, -3861.50, -3345.76, 0.000, 0.000, 0.000, 14:15:09.183
155, -4096.97, -3851.41, -3935.74, -3363.00, 0.000, 0.000, 0.000, 14:15:09.203
156, -3892.84, -3814.33, -3835.90, -3252.76, 0.000, 0.000, 0.000, 14:15:09.204
157, -3730.19, -3746.13, -3726.14, -3184.62, 0.000, 0.000, 0.000, 14:15:09.211
158, -4006.85, -3779.12, -3861.03, -3348.58, 0.000, 0.000, 0.000, 14:15:09.211
159, -4088.93, -3845.51, -3923.70, -3362.67, 0.000, 0.000, 0.000, 14:15:09.226
160, -3898.36, -3824.75, -3826.24, -3265.35, 0.000, 0.000, 0.000, 14:15:09.227
161, -3731.38, -3752.58, -3732.50, -3177.40, 0.000, 0.000, 0.000, 14:15:09.227
162, -3998.63, -3783.02, -3878.47, -3338.48, 0.000, 0.000, 0.000, 14:15:09.227
163, -4080.12, -3841.57, -3923.80, -3363.58, 0.000, 0.000, 0.000, 14:15:09.257
164, -3885.04, -3823.14, -3837.99, -3264.96, 0.000, 0.000, 0.000, 14:15:09.257
165, -3723.48, -3740.64, -3726.98, -3166.79, 0.000, 0.000, 0.000, 14:15:09.258
166, -3988.13, -3783.32, -3861.64, -3335.06, 0.000, 0.000, 0.000, 14:15:09.258
167, -4103.38, -3854.64, -3927.55, -3365.23, 0.000, 0.000, 0.000, 14:15:09.258
168, -3911.14, -3815.01, -3831.45, -3259.20, 0.000, 0.000, 0.000, 14:15:09.258
169, -3734.01, -3762.38, -3732.90, -3183.74, 0.000, 0.000, 0.000, 14:15:09.272
170, -4006.01, -3788.05, -3871.96, -3351.41, 0.000, 0.000, 0.000, 14:15:09.272
171, -4096.94, -3854.21, -3924.48, -3367.36, 0.000, 0.000, 0.000, 14:15:09.287
172, -3886.18, -3809.81, -3825.39, -3244.38, 0.000, 0.000, 0.000, 14:15:09.287
173, -3743.40, -3763.47, -3744.28, -3191.08, 0.000, 0.000, 0.000, 14:15:09.316
174, -4015.62, -3789.80, -3869.76, -3346.94, 0.000, 0.000, 0.000, 14:15:09.316
175, -4084.25, -3850.76, -3923.68, -3351.16, 0.000, 0.000, 0.000, 14:15:09.317
176, -3876.72, -3812.50, -3824.21, -3247.10, 0.000, 0.000, 0.000, 14:15:09.317
177, -3741.18, -3752.02, -3726.50, -3184.32, 0.000, 0.000, 0.000, 14:15:09.317
178, -4029.04, -3792.43, -3882.25, -3344.64, 0.000, 0.000, 0.000, 14:15:09.317
179, -4097.37, -3857.24, -3930.03, -3364.07, 0.000, 0.000, 0.000, 14:15:09.318
180, -3887.32, -3824.12, -3840.24, -3259.49, 0.000, 0.000, 0.000, 14:15:09.318
181, -3741.95, -3756.95, -3734.17, -3193.31, 0.000, 0.000, 0.000, 14:15:09.331
182, -4003.26, -3787.76, -3873.15, -3333.20, 0.000, 0.000, 0.000, 14:15:09.331
183, -4084.63, -3853.65, -3924.50, -3352.62, 0.000, 0.000, 0.000, 14:15:09.346
184, -3875.89, -3813.51, -3819.28, -3255.24, 0.000, 0.000, 0.000, 14:15:09.346
185, -3736.29, -3749.19, -3727.79, -3195.72, 0.000, 0.000, 0.000, 14:15:09.346
186, -4022.09, -3791.03, -3878.05, -3348.18, 0.000, 0.000, 0.000, 14:15:09.346
187, -4097.49, -3854.50, -3930.12, -3376.83, 0.000, 0.000, 0.000, 14:15:09.361
188, -3882.53, -3820.49, -3821.72, -3255.52, 0.000, 0.000, 0.000, 14:15:09.361
189, -3738.36, -3755.30, -3732.44, -3194.76, 0.000, 0.000, 0.000, 14:15:09.377
190, -3999.82, -3787.40, -3875.80, -3343.58, 0.000, 0.000, 0.000, 14:15:09.377
191, -4069.87, -3844.40, -3927.52, -3355.63, 0.000, 0.000, 0.000, 14:15:09.377
192, -3886.45, -3815.77, -3831.67, -3251.83, 0.000, 0.000, 0.000, 14:15:09.377
193, -3735.78, -3763.96, -3737.39, -3197.18, 0.000, 0.000, 0.000, 14:15:09.391
194, -4032.32, -3793.85, -3877.52, -3337.96, 0.000, 0.000, 0.000, 14:15:09.391
195, -4096.72, -3857.53, -3931.33, -3347.58, 0.000, 0.000, 0.000, 14:15:09.407
196, -3890.81, -3824.08, -3824.52, -3250.10, 0.000, 0.000, 0.000, 14:15:09.407
197, -3755.28, -3766.84, -3750.16, -3194.77, 0.000, 0.000, 0.000, 14:15:09.407
198, -4018.75, -3799.45, -3887.72, -3353.59, 0.000, 0.000, 0.000, 14:15:09.407
199, -4083.42, -3858.23, -3936.14, -3362.25, 0.000, 0.000, 0.000, 14:15:09.421
200, -3879.89, -3822.57, -3837.37, -3269.13, 0.000, 0.000, 0.000, 14:15:09.421
0, -3736.71, -3751.59, -3727.86, -3187.59, 0.000, 0.000, 0.000, 14:15:09.422
1, -4040.58, -3811.32, -3894.13, -3368.72, 0.000, 0.000, 0.000, 14:15:09.437
2, -4085.44, -3857.87, -3929.34, -3365.78, 0.000, 0.000, 0.000, 14:15:09.437
3, -3903.42, -3822.88, -3826.03, -3249.44, 0.000, 0.000, 0.000, 14:15:09.452
4, -3727.33, -3750.27, -3735.94, -3195.34, 0.000, 0.000, 0.000, 14:15:09.452
5, -4006.96, -3794.47, -3873.79, -3357.92, 0.000, 0.000, 0.000, 14:15:09.452
6, -4078.61, -3855.35, -3925.07, -3357.94, 0.000, 0.000, 0.000, 14:15:09.452
7, -3889.89, -3819.74, -3823.53, -3262.83, 0.000, 0.000, 0.000, 14:15:09.466
8, -3730.92, -3757.87, -3743.04, -3195.22, 0.000, 0.000, 0.000, 14:15:09.466
9, -4024.61, -3792.20, -3881.77, -3357.85, 0.000, 0.000, 0.000, 14:15:09.482
10, -4092.13, -3853.14, -3926.72, -3363.32, 0.000, 0.000, 0.000, 14:15:09.482
11, -3897.18, -3836.79, -3832.49, -3261.75, 0.000, 0.000, 0.000, 14:15:09.482
12, -3752.16, -3757.43, -3734.03, -3189.88, 0.000, 0.000, 0.000, 14:15:09.482
13, -4037.51, -3808.12, -3891.23, -3361.99, 0.000, 0.000, 0.000, 14:15:09.511
14, -4078.10, -3851.02, -3923.77, -3347.06, 0.000, 0.000, 0.000, 14:15:09.511
15, -3900.65, -3820.95, -3835.90, -3245.26, 0.000, 0.000, 0.000, 14:15:09.512
16, -3743.89, -3759.37, -3732.64, -3180.19, 0.000, 0.000, 0.000, 14:15:09.512
17, -4011.81, -3793.52, -3887.98, -3345.22, 0.000, 0.000, 0.000, 14:15:09.512
18, -4060.24, -3856.52, -3917.10, -3372.82, 0.000, 0.000, 0.000, 14:15:09.513
19, -3869.40, -3830.89, -3812.48, -3274.43, 0.000, 0.000, 0.000, 14:15:09.541
20, -3746.89, -3761.15, -3731.18, -3190.01, 0.000, 0.000, 0.000, 14:15:09.541
21, -4034.15, -3802.40, -3877.13, -3357.27, 0.000, 0.000, 0.000, 14:15:09.542
22, -4071.92, -3852.47, -3922.03, -3345.22, 0.000, 0.000, 0.000, 14:15:09.542
23, -3901.78, -3829.98, -3825.45, -3254.89, 0.000, 0.000, 0.000, 14:15:09.542
24, -3750.40, -3760.97, -3733.90, -3188.99, 0.000, 0.000, 0.000, 14:15:09.542
25, -4032.45, -3805.54, -3894.63, -3357.18, 0.000, 0.000, 0.000, 14:15:09.571
26, -4091.70, -3860.47, -3929.49, -3360.48, 0.000, 0.000, 0.000, 14:15:09.571
27, -3883.47, -3818.02, -3821.43, -3251.43, 0.000, 0.000, 0.000, 14:15:09.572
28, -3724.40, -3764.52, -3726.21, -3189.81, 0.000, 0.000, 0.000, 14:15:09.572
29, -4017.82, -3802.23, -3878.01, -3362.47, 0.000, 0.000, 0.000, 14:15:09.574
30, -4068.18, -3844.52, -3916.32, -3356.18, 0.000, 0.000, 0.000, 14:15:09.574
31, -3878.13, -3866.19, -3811.96, -3246.08, 0.000, 0.000, 0.000, 14:15:09.587
32, -3727.86, -3763.78, -3739.12, -3191.62, 0.000, 0.000, 0.000, 14:15:09.587
33, -4008.38, -3808.12, -3882.90, -3351.00, 0.000, 0.000, 0.000, 14:15:09.602
34, -4038.05, -3910.23, -3917.79, -3350.71, 0.000, 0.000, 0.000, 14:15:09.602
35, -3833.59, -3815.19, -3817.23, -3245.10, 0.000, 0.000, 0.000, 14:15:09.616
36, -3684.33, -3754.77, -3716.69, -3175.67, 0.000, 0.000, 0.000, 14:15:09.616
37, -3977.06, -3841.66, -3891.87, -3353.74, 0.000, 0.000, 0.000, 14:15:09.617
38, -4017.96, -3877.95, -3904.55, -3348.69, 0.000, 0.000, 0.000, 14:15:09.617
39, -3788.40, -3868.23, -3800.09, -3233.03, 0.000, 0.000, 0.000, 14:15:09.631
40, -3627.96, -3808.75, -3727.99, -3177.68, 0.000, 0.000, 0.000, 14:15:09.631
41, -3913.17, -3845.43, -3866.69, -3329.67, 0.000, 0.000, 0.000, 14:15:09.632
42, -3940.92, -3920.01, -3902.83, -3341.09, 0.000, 0.000, 0.000, 14:15:09.632
43, -3733.28, -3889.25, -3807.29, -3229.96, 0.000, 0.000, 0.000, 14:15:09.646
44, -3627.27, -3817.54, -3730.12, -3186.29, 0.000, 0.000, 0.000, 14:15:09.646
45, -3945.41, -3862.84, -3883.72, -3340.99, 0.000, 0.000, 0.000, 14:15:09.661
46, -3999.16, -3911.83, -3932.17, -3348.80, 0.000, 0.000, 0.000, 14:15:09.661
47, -3814.52, -3871.35, -3821.47, -3250.21, 0.000, 0.000, 0.000, 14:15:09.662
48, -3691.21, -3786.87, -3739.02, -3195.90, 0.000, 0.000, 0.000, 14:15:09.662
49, -3994.98, -3813.35, -3895.35, -3359.68, 0.000, 0.000, 0.000, 14:15:09.692
50, -4053.86, -3869.40, -3927.24, -3359.51, 0.000, 0.000, 0.000, 14:15:09.692
51, -3851.63, -3816.50, -3816.44, -3237.74, 0.000, 0.000, 0.000, 14:15:09.694
52, -3754.61, -3742.52, -3740.22, -3196.25, 0.000, 0.000, 0.000, 14:15:09.694
53, -4074.29, -3783.02, -3906.67, -3343.87, 0.000, 0.000, 0.000, 14:15:09.694
54, -4102.51, -3846.99, -3939.99, -3362.02, 0.000, 0.000, 0.000, 14:15:09.694
55, -3907.13, -3797.42, -3823.18, -3267.02, 0.000, 0.000, 0.000, 14:15:09.707
56, -3795.78, -3729.43, -3751.11, -3211.97, 0.000, 0.000, 0.000, 14:15:09.707
57, -4094.85, -3779.37, -3918.50, -3371.21, 0.000, 0.000, 0.000, 14:15:09.722
58, -4128.28, -3822.76, -3913.80, -3359.29, 0.000, 0.000, 0.000, 14:15:09.722
59, -3938.92, -3802.27, -3833.07, -3282.15, 0.000, 0.000, 0.000, 14:15:09.722
60, -3822.45, -3735.18, -3749.71, -3203.87, 0.000, 0.000, 0.000, 14:15:09.723
61, -4118.85, -3775.60, -3901.66, -3366.20, 0.000, 0.000, 0.000, 14:15:09.737
62, -4128.51, -3826.80, -3929.91, -3364.60, 0.000, 0.000, 0.000, 14:15:09.738
63, -3896.69, -3766.79, -3811.83, -3241.52, 0.000, 0.000, 0.000, 14:15:09.752
64, -3802.35, -3721.10, -3748.32, -3199.45, 0.000, 0.000, 0.000, 14:15:09.752
65, -4093.38, -3770.79, -3898.14, -3364.66, 0.000, 0.000, 0.000, 14:15:09.752
66, -4109.01, -3824.62, -3908.49, -3349.11, 0.000, 0.000, 0.000, 14:15:09.752
67, -3916.70, -3793.55, -3812.41, -3251.62, 0.000, 0.000, 0.000, 14:15:09.766
68, -3797.16, -3733.34, -3746.15, -3211.61, 0.000, 0.000, 0.000, 14:15:09.766
69, -4092.85, -3781.19, -3904.35, -3369.10, 0.000, 0.000, 0.000, 14:15:09.796
70, -4109.15, -3828.80, -3927.68, -3350.11, 0.000, 0.000, 0.000, 14:15:09.796
71, -3897.88, -3801.05, -3820.44, -3255.94, 0.000, 0.000, 0.000, 14:15:09.796
72, -3779.64, -3730.35, -3738.77, -3204.28, 0.000, 0.000, 0.000, 14:15:09.796
73, -4084.91, -3792.89, -3896.59, -3383.84, 0.000, 0.000, 0.000, 14:15:09.797
74, -4116.73, -3845.75, -3928.61, -3373.82, 0.000, 0.000, 0.000, 14:15:09.797
75, -3900.79, -3797.23, -3801.51, -3263.95, 0.000, 0.000, 0.000, 14:15:09.798
76, -3772.46, -3723.76, -3730.46, -3188.16, 0.000, 0.000, 0.000, 14:15:09.798
77, -4086.89, -3801.34, -3917.31, -3373.04, 0.000, 0.000, 0.000, 14:15:09.811
78, -4112.35, -3845.93, -3924.36, -3363.45, 0.000, 0.000, 0.000, 14:15:09.811
79, -3885.16, -3797.77, -3822.19, -3245.09, 0.000, 0.000, 0.000, 14:15:09.827
80, -3771.63, -3738.10, -3741.28, -3208.29, 0.000, 0.000, 0.000, 14:15:09.827
81, -4085.22, -3794.34, -3887.15, -3359.47, 0.000, 0.000, 0.000, 14:15:09.842
82, -4095.37, -3847.01, -3921.63, -3356.14, 0.000, 0.000, 0.000, 14:15:09.842
83, -3862.69, -3798.27, -3803.44, -3251.42, 0.000, 0.000, 0.000, 14:15:09.842
84, -3765.45, -3745.62, -3744.02, -3202.76, 0.000, 0.000, 0.000, 14:15:09.842
85, -4067.20, -3797.54, -3896.43, -3369.83, 0.000, 0.000, 0.000, 14:15:09.872
86, -4077.92, -3836.28, -3918.12, -3358.52, 0.000, 0.000, 0.000, 14:15:09.872
87, -3879.93, -3805.59, -3816.75, -3241.43, 0.000, 0.000, 0.000, 14:15:09.872
88, -3778.04, -3744.64, -3741.71, -3209.07, 0.000, 0.000, 0.000, 14:15:09.872
89, -4071.67, -3791.37, -3887.05, -3371.32, 0.000, 0.000, 0.000, 14:15:09.874
90, -4106.22, -3852.72, -3930.95, -3352.67, 0.000, 0.000, 0.000, 14:15:09.874
91, -3871.27, -3792.90, -3790.33, -3226.65, 0.000, 0.000, 0.000, 14:15:09.887
92, -3763.83, -3738.23, -3733.78, -3210.90, 0.000, 0.000, 0.000, 14:15:09.887
93, -4060.90, -3801.07, -3910.08, -3390.27, 0.000, 0.000, 0.000, 14:15:09.902
94, -4073.90, -3840.23, -3911.39, -3348.03, 0.000, 0.000, 0.000, 14:15:09.902
95, -3877.39, -3817.80, -3809.77, -3245.85, 0.000, 0.000, 0.000, 14:15:09.903
96, -3768.15, -3751.00, -3735.92, -3210.29, 0.000, 0.000, 0.000, 14:15:09.903
97, -4081.41, -3805.57, -3902.14, -3361.88, 0.000, 0.000, 0.000, 14:15:09.917
98, -4081.82, -3841.86, -3911.15, -3336.66, 0.000, 0.000, 0.000, 14:15:09.917
99, -3842.46, -3800.82, -3800.16, -3231.12, 0.000, 0.000, 0.000, 14:15:09.932
100, -3742.29, -3732.84, -3732.15, -3192.83, 0.000, 0.000, 0.000, 14:15:09.932
101, -4057.10, -3784.22, -3891.97, -3367.67, 0.000, 0.000, 0.000, 14:15:09.932
102, -4073.50, -3852.64, -3915.93, -3361.35, 0.000, 0.000, 0.000, 14:15:09.932
103, -3857.03, -3804.17, -3793.77, -3239.14, 0.000, 0.000, 0.000, 14:15:09.946
104, -3759.68, -3751.20, -3746.61, -3199.26, 0.000, 0.000, 0.000, 14:15:09.946
105, -4060.67, -3804.54, -3912.95, -3354.49, 0.000, 0.000, 0.000, 14:15:09.961
106, -4075.72, -3854.94, -3921.54, -3362.77, 0.000, 0.000, 0.000, 14:15:09.961
107, -3854.29, -3814.62, -3805.50, -3233.84, 0.000, 0.000, 0.000, 14:15:09.962
108, -3760.41, -3743.50, -3741.45, -3202.69, 0.000, 0.000, 0.000, 14:15:09.962
109, -4073.91, -3800.47, -3903.79, -3367.97, 0.000, 0.000, 0.000, 14:15:09.976
110, -4071.16, -3842.39, -3914.60, -3345.96, 0.000, 0.000, 0.000, 14:15:09.976
111, -3835.16, -3792.97, -3784.72, -3238.10, 0.000, 0.000, 0.000, 14:15:10.007
112, -3762.80, -3750.49, -3746.70, -3208.91, 0.000, 0.000, 0.000, 14:15:10.007
113, -4070.92, -3821.08, -3917.91, -3368.12, 0.000, 0.000, 0.000, 14:15:10.007
114, -4061.66, -3863.31, -3930.41, -3353.33, 0.000, 0.000, 0.000, 14:15:10.007
115, -3829.42, -3800.19, -3786.69, -3216.95, 0.000, 0.000, 0.000, 14:15:10.008
116, -3750.85, -3742.84, -3740.05, -3200.03, 0.000, 0.000, 0.000, 14:15:10.008
117, -4059.50, -3804.92, -3902.76, -3370.23, 0.000, 0.000, 0.000, 14:15:10.008
118, -4048.18, -3853.62, -3905.43, -3365.84, 0.000, 0.000, 0.000, 14:15:10.008
119, -3854.68, -3807.44, -3791.98, -3245.07, 0.000, 0.000, 0.000, 14:15:10.021
120, -3754.72, -3743.97, -3743.21, -3204.51, 0.000, 0.000, 0.000, 14:15:10.021
121, -4086.98, -3820.04, -3919.00, -3367.37, 0.000, 0.000, 0.000, 14:15:10.037
122, -4072.99, -3861.54, -3912.05, -3355.99, 0.000, 0.000, 0.000, 14:15:10.037
123, -3844.98, -3806.70, -3800.99, -3237.53, 0.000, 0.000, 0.000, 14:15:10.051
124, -3754.10, -3754.57, -3746.05, -3194.06, 0.000, 0.000, 0.000, 14:15:10.051
125, -4056.43, -3811.27, -3902.24, -3367.26, 0.000, 0.000, 0.000, 14:15:10.052
126, -4053.70, -3856.58, -3920.50, -3352.97, 0.000, 0.000, 0.000, 14:15:10.052
127, -3845.48, -3804.95, -3793.70, -3238.66, 0.000, 0.000, 0.000, 14:15:10.067
128, -3751.74, -3744.37, -3737.90, -3227.39, 0.000, 0.000, 0.000, 14:15:10.067
129, -4090.79, -3818.78, -3919.35, -3404.62, 0.000, 0.000, 0.000, 14:15:10.082
130, -4066.76, -3854.40, -3923.38, -3357.91, 0.000, 0.000, 0.000, 14:15:10.082
131, -3857.73, -3814.66, -3804.84, -3241.61, 0.000, 0.000, 0.000, 14:15:10.082
132, -3777.40, -3751.43, -3743.74, -3190.92, 0.000, 0.000, 0.000, 14:15:10.082
133, -4083.90, -3818.89, -3909.74, -3368.18, 0.000, 0.000, 0.000, 14:15:10.096
134, -4071.46, -3854.09, -3921.85, -3343.06, 0.000, 0.000, 0.000, 14:15:10.096
135, -3833.71, -3796.96, -3794.70, -3237.17, 0.000, 0.000, 0.000, 14:15:10.127
136, -3753.07, -3730.46, -3745.99, -3199.40, 0.000, 0.000, 0.000, 14:15:10.127
137, -4082.13, -3814.78, -3910.84, -3392.64, 0.000, 0.000, 0.000, 14:15:10.127
138, -4078.35, -3853.37, -3915.14, -3353.66, 0.000, 0.000, 0.000, 14:15:10.127
139, -3852.45, -3813.69, -3806.41, -3249.14, 0.000, 0.000, 0.000, 14:15:10.128
140, -3777.39, -3757.00, -3752.79, -3216.65, 0.000, 0.000, 0.000, 14:15:10.128
141, -4082.55, -3811.60, -3920.13, -3372.29, 0.000, 0.000, 0.000, 14:15:10.129
142, -4064.75, -3855.85, -3923.24, -3344.98, 0.000, 0.000, 0.000, 14:15:10.129
143, -3846.50, -3808.10, -3806.69, -3229.70, 0.000, 0.000, 0.000, 14:15:10.141
144, -3751.88, -3738.37, -3740.03, -3208.98, 0.000, 0.000, 0.000, 14:15:10.141
145, -4077.94, -3818.33, -3904.51, -3382.67, 0.000, 0.000, 0.000, 14:15:10.157
146, -4035.28, -3840.77, -3902.94, -3337.04, 0.000, 0.000, 0.000, 14:15:10.157
147, -3821.74, -3804.42, -3793.24, -3226.72, 0.000, 0.000, 0.000, 14:15:10.187
148, -3768.74, -3761.18, -3752.92, -3232.40, 0.000, 0.000, 0.000, 14:15:10.187
149, -4096.05, -3825.70, -3917.01, -3373.29, 0.000, 0.000, 0.000, 14:15:10.187
150, -4059.88, -3854.55, -3905.14, -3343.30, 0.000, 0.000, 0.000, 14:15:10.187
151, -3838.14, -3817.19, -3801.27, -3245.69, 0.000, 0.000, 0.000, 14:15:10.187
152, -3798.98, -3765.85, -3763.09, -3225.10, 0.000, 0.000, 0.000, 14:15:10.187
153, -4091.73, -3817.99, -3917.24, -3378.85, 0.000, 0.000, 0.000, 14:15:10.188
154, -4051.12, -3851.51, -3926.41, -3360.54, 0.000, 0.000, 0.000, 14:15:10.188
155, -3819.33, -3806.18, -3791.18, -3226.22, 0.000, 0.000, 0.000, 14:15:10.201
156, -3763.21, -3745.51, -3743.58, -3202.24, 0.000, 0.000, 0.000, 14:15:10.201
157, -4058.06, -3811.06, -3912.69, -3367.00, 0.000, 0.000, 0.000, 14:15:10.231
158, -4039.45, -3833.56, -3893.73, -3331.36, 0.000, 0.000, 0.000, 14:15:10.231
159, -3821.57, -3799.80, -3781.70, -3226.10, 0.000, 0.000, 0.000, 14:15:10.232
160, -3773.52, -3744.51, -3742.04, -3220.71, 0.000, 0.000, 0.000, 14:15:10.232
161, -4096.67, -3807.41, -3908.91, -3367.56, 0.000, 0.000, 0.000, 14:15:10.233
162, -4064.72, -3845.43, -3907.85, -3337.42, 0.000, 0.000, 0.000, 14:15:10.233
163, -3825.22, -3803.02, -3790.47, -3234.23, 0.000, 0.000, 0.000, 14:15:10.247
164, -3770.14, -3753.09, -3748.90, -3222.82, 0.000, 0.000, 0.000, 14:15:10.247
165, -4083.32, -3824.00, -3916.92, -3376.09, 0.000, 0.000, 0.000, 14:15:10.262
166, -4049.89, -3860.15, -3916.35, -3346.02, 0.000, 0.000, 0.000, 14:15:10.262
167, -3829.66, -3805.11, -3797.58, -3236.38, 0.000, 0.000, 0.000, 14:15:10.262
168, -3801.58, -3755.16, -3754.59, -3222.89, 0.000, 0.000, 0.000, 14:15:10.262
169, -4108.45, -3818.90, -3904.82, -3377.92, 0.000, 0.000, 0.000, 14:15:10.277
170, -4054.64, -3847.61, -3905.69, -3345.25, 0.000, 0.000, 0.000, 14:15:10.277
171, -3842.42, -3806.90, -3800.63, -3233.26, 0.000, 0.000, 0.000, 14:15:10.292
172, -3769.25, -3750.81, -3749.36, -3211.81, 0.000, 0.000, 0.000, 14:15:10.293
173, -4071.45, -3816.09, -3921.86, -3380.37, 0.000, 0.000, 0.000, 14:15:10.293
174, -4047.35, -3853.69, -3906.44, -3346.35, 0.000, 0.000, 0.000, 14:15:10.293
175, -3826.72, -3798.00, -3780.81, -3227.76, 0.000, 0.000, 0.000, 14:15:10.313
176, -3781.15, -3754.33, -3749.53, -3217.25, 0.000, 0.000, 0.000, 14:15:10.313
177, -4104.00, -3815.25, -3916.74, -3369.64, 0.000, 0.000, 0.000, 14:15:10.322
178, -4058.15, -3851.32, -3904.30, -3334.08, 0.000, 0.000, 0.000, 14:15:10.323
179, -3826.01, -3805.82, -3793.26, -3226.57, 0.000, 0.000, 0.000, 14:15:10.323
180, -3776.65, -3748.97, -3756.19, -3221.52, 0.000, 0.000, 0.000, 14:15:10.323
181, -4071.34, -3810.04, -3905.41, -3362.21, 0.000, 0.000, 0.000, 14:15:10.337
182, -4031.47, -3844.44, -3901.23, -3331.36, 0.000, 0.000, 0.000, 14:15:10.338
183, -3822.04, -3799.74, -3795.18, -3226.85, 0.000, 0.000, 0.000, 14:15:10.366
184, -3773.91, -3745.67, -3751.56, -3234.49, 0.000, 0.000, 0.000, 14:15:10.366
185, -4098.57, -3817.27, -3922.60, -3406.86, 0.000, 0.000, 0.000, 14:15:10.367
186, -4054.64, -3852.71, -3915.56, -3359.96, 0.000, 0.000, 0.000, 14:15:10.367
187, -3813.29, -3803.62, -3787.11, -3241.37, 0.000, 0.000, 0.000, 14:15:10.368
188, -3777.74, -3751.42, -3747.71, -3244.72, 0.000, 0.000, 0.000, 14:15:10.368
189, -4074.85, -3813.13, -3911.48, -3392.60, 0.000, 0.000, 0.000, 14:15:10.368
190, -4049.03, -3856.59, -3900.62, -3338.83, 0.000, 0.000, 0.000, 14:15:10.368
191, -3806.19, -3797.25, -3781.49, -3234.93, 0.000, 0.000, 0.000, 14:15:10.382
192, -3767.82, -3746.07, -3756.44, -3220.01, 0.000, 0.000, 0.000, 14:15:10.382
193, -4104.86, -3827.97, -3932.51, -3404.46, 0.000, 0.000, 0.000, 14:15:10.396
194, -4038.39, -3852.54, -3912.31, -3346.82, 0.000, 0.000, 0.000, 14:15:10.396
195, -3819.40, -3802.89, -3789.27, -3224.69, 0.000, 0.000, 0.000, 14:15:10.411
196, -3775.29, -3743.61, -3740.82, -3219.69, 0.000, 0.000, 0.000, 14:15:10.412
197, -4087.68, -3818.37, -3912.74, -3367.95, 0.000, 0.000, 0.000, 14:15:10.412
198, -4035.51, -3851.16, -3905.20, -3349.72, 0.000, 0.000, 0.000, 14:15:10.412
199, -3817.94, -3807.76, -3788.83, -3228.08, 0.000, 0.000, 0.000, 14:15:10.427
200, -3789.70, -3757.45, -3761.71, -3236.69, 0.000, 0.000, 0.000, 14:15:10.427
0, -4073.52, -3814.76, -3914.12, -3381.32, 0.000, 0.000, 0.000, 14:15:10.427
1, -4049.45, -3851.23, -3900.40, -3342.49, 0.000, 0.000, 0.000, 14:15:10.457
2, -3839.06, -3815.99, -3795.51, -3226.53, 0.000, 0.000, 0.000, 14:15:10.457
3, -3821.07, -3762.75, -3767.88, -3234.19, 0.000, 0.000, 0.000, 14:15:10.471
4, -4104.79, -3827.93, -3934.23, -3403.51, 0.000, 0.000, 0.000, 14:15:10.471
5, -4039.74, -3846.20, -3897.33, -3343.41, 0.000, 0.000, 0.000, 14:15:10.472
6, -3802.86, -3798.69, -3775.02, -3217.97, 0.000, 0.000, 0.000, 14:15:10.472
7, -3787.73, -3752.71, -3757.75, -3216.74, 0.000, 0.000, 0.000, 14:15:10.473
8, -4088.43, -3825.70, -3915.99, -3387.23, 0.000, 0.000, 0.000, 14:15:10.473
9, -4044.70, -3855.44, -3907.46, -3342.63, 0.000, 0.000, 0.000, 14:15:10.473
10, -3824.59, -3811.90, -3790.61, -3223.67, 0.000, 0.000, 0.000, 14:15:10.473
11, -3784.30, -3752.87, -3771.38, -3218.23, 0.000, 0.000, 0.000, 14:15:10.487
12, -4100.55, -3816.83, -3932.18, -3366.97, 0.000, 0.000, 0.000, 14:15:10.488
13, -4071.82, -3853.89, -3910.51, -3342.79, 0.000, 0.000, 0.000, 14:15:10.501
14, -3815.13, -3798.90, -3781.77, -3235.14, 0.000, 0.000, 0.000, 14:15:10.501
15, -3774.98, -3739.74, -3741.37, -3238.30, 0.000, 0.000, 0.000, 14:15:10.517
16, -4087.96, -3822.95, -3923.31, -3399.98, 0.000, 0.000, 0.000, 14:15:10.517
17, -4036.82, -3845.23, -3902.26, -3347.27, 0.000, 0.000, 0.000, 14:15:10.518
18, -3824.98, -3800.83, -3785.72, -3218.45, 0.000, 0.000, 0.000, 14:15:10.518
19, -3796.38, -3743.19, -3756.16, -3227.19, 0.000, 0.000, 0.000, 14:15:10.531
20, -4089.35, -3816.72, -3925.51, -3384.39, 0.000, 0.000, 0.000, 14:15:10.531
21, -4050.19, -3851.48, -3908.39, -3341.47, 0.000, 0.000, 0.000, 14:15:10.546
22, -3818.09, -3794.83, -3777.24, -3222.06, 0.000, 0.000, 0.000, 14:15:10.546
23, -3786.90, -3757.66, -3778.05, -3253.40, 0.000, 0.000, 0.000, 14:15:10.547
24, -4105.50, -3823.99, -3914.92, -3387.15, 0.000, 0.000, 0.000, 14:15:10.547
25, -4054.52, -3851.90, -3896.12, -3341.30, 0.000, 0.000, 0.000, 14:15:10.562
26, -3812.85, -3799.64, -3779.10, -3219.16, 0.000, 0.000, 0.000, 14:15:10.562
27, -3785.16, -3746.18, -3765.39, -3234.42, 0.000, 0.000, 0.000, 14:15:10.576
28, -4089.50, -3822.63, -3924.49, -3381.85, 0.000, 0.000, 0.000, 14:15:10.576
29, -4042.05, -3849.56, -3890.97, -3349.59, 0.000, 0.000, 0.000, 14:15:10.576
30, -3808.07, -3805.24, -3777.90, -3227.95, 0.000, 0.000, 0.000, 14:15:10.577
31, -3795.22, -3749.19, -3764.18, -3236.97, 0.000, 0.000, 0.000, 14:15:10.592
32, -4092.31, -3819.10, -3922.30, -3381.34, 0.000, 0.000, 0.000, 14:15:10.592
33, -4024.99, -3852.98, -3902.71, -3337.45, 0.000, 0.000, 0.000, 14:15:10.607
34, -3793.06, -3796.68, -3775.69, -3216.23, 0.000, 0.000, 0.000, 14:15:10.608
35, -3784.19, -3753.75, -3760.98, -3233.23, 0.000, 0.000, 0.000, 14:15:10.622
36, -4096.16, -3826.93, -3918.80, -3377.17, 0.000, 0.000, 0.000, 14:15:10.622
37, -4053.85, -3855.75, -3907.24, -3346.37, 0.000, 0.000, 0.000, 14:15:10.623
38, -3807.44, -3813.53, -3786.23, -3217.97, 0.000, 0.000, 0.000, 14:15:10.623
39, -3802.79, -3797.83, -3751.84, -3220.40, 0.000, 0.000, 0.000, 14:15:10.651
40, -4095.74, -3855.27, -3918.08, -3363.77, 0.000, 0.000, 0.000, 14:15:10.651
41, -4011.34, -3864.49, -3900.58, -3322.69, 0.000, 0.000, 0.000, 14:15:10.652
42, -3776.58, -3822.04, -3768.48, -3211.66, 0.000, 0.000, 0.000, 14:15:10.652
43, -3767.63, -3755.57, -3748.11, -3217.68, 0.000, 0.000, 0.000, 14:15:10.653
44, -4066.34, -3826.26, -3918.75, -3373.00, 0.000, 0.000, 0.000, 14:15:10.653
45, -3975.60, -3915.73, -3886.15, -3327.41, 0.000, 0.000, 0.000, 14:15:10.654
46, -3708.67, -3804.25, -3772.04, -3209.86, 0.000, 0.000, 0.000, 14:15:10.654
47, -3703.01, -3779.35, -3746.44, -3212.16, 0.000, 0.000, 0.000, 14:15:10.667
48, -3982.38, -3864.29, -3904.08, -3346.18, 0.000, 0.000, 0.000, 14:15:10.667
49, -3889.17, -3915.28, -3881.29, -3296.91, 0.000, 0.000, 0.000, 14:15:10.682
50, -3626.60, -3881.41, -3758.38, -3193.52, 0.000, 0.000, 0.000, 14:15:10.682
51, -3624.71, -3831.30, -3746.99, -3214.52, 0.000, 0.000, 0.000, 14:15:10.696
52, -3925.15, -3914.16, -3926.83, -3370.77, 0.000, 0.000, 0.000, 14:15:10.696
53, -3876.50, -3937.33, -3905.15, -3324.25, 0.000, 0.000, 0.000, 14:15:10.697
54, -3677.47, -3872.47, -3776.40, -3205.54, 0.000, 0.000, 0.000, 14:15:10.697
55, -3675.67, -3813.02, -3763.14, -3210.38, 0.000, 0.000, 0.000, 14:15:10.742
56, -4020.98, -3898.13, -3922.66, -3372.57, 0.000, 0.000, 0.000, 14:15:10.742
57, -3944.68, -3890.67, -3886.70, -3315.86, 0.000, 0.000, 0.000, 14:15:10.742
58, -3755.69, -3822.86, -3779.61, -3198.89, 0.000, 0.000, 0.000, 14:15:10.742
59, -3784.85, -3767.82, -3774.71, -3235.96, 0.000, 0.000, 0.000, 14:15:10.743
60, -4079.66, -3846.60, -3929.06, -3386.31, 0.000, 0.000, 0.000, 14:15:10.743
61, -4027.18, -3856.57, -3910.37, -3339.38, 0.000, 0.000, 0.000, 14:15:10.743
62, -3807.67, -3784.12, -3774.40, -3208.96, 0.000, 0.000, 0.000, 14:15:10.743
63, -3829.07, -3738.49, -3774.24, -3234.86, 0.000, 0.000, 0.000, 14:15:10.744
64, -4137.30, -3814.69, -3941.99, -3388.63, 0.000, 0.000, 0.000, 14:15:10.744
65, -4076.84, -3831.02, -3919.34, -3333.44, 0.000, 0.000, 0.000, 14:15:10.757
66, -3839.53, -3766.99, -3790.00, -3221.47, 0.000, 0.000, 0.000, 14:15:10.757
67, -3857.62, -3726.01, -3779.66, -3267.75, 0.000, 0.000, 0.000, 14:15:10.787
68, -4162.30, -3802.23, -3931.68, -3389.84, 0.000, 0.000, 0.000, 14:15:10.787
69, -4083.67, -3815.32, -3895.83, -3332.27, 0.000, 0.000, 0.000, 14:15:10.788
70, -3864.25, -3759.25, -3778.27, -3228.21, 0.000, 0.000, 0.000, 14:15:10.788
71, -3884.51, -3732.17, -3782.73, -3248.70, 0.000, 0.000, 0.000, 14:15:10.801
72, -4158.82, -3800.49, -3936.57, -3391.14, 0.000, 0.000, 0.000, 14:15:10.801
73, -4061.65, -3809.75, -3901.71, -3324.45, 0.000, 0.000, 0.000, 14:15:10.803
74, -3836.52, -3760.13, -3774.68, -3213.63, 0.000, 0.000, 0.000, 14:15:10.803
75, -3864.61, -3725.34, -3781.19, -3247.07, 0.000, 0.000, 0.000, 14:15:10.816
76, -4179.45, -3810.90, -3933.09, -3393.98, 0.000, 0.000, 0.000, 14:15:10.817
77, -4083.05, -3830.78, -3903.72, -3338.19, 0.000, 0.000, 0.000, 14:15:10.817
78, -3844.28, -3762.55, -3762.40, -3176.93, 0.000, 0.000, 0.000, 14:15:10.817
79, -3861.98, -3739.23, -3777.79, -3228.41, 0.000, 0.000, 0.000, 14:15:10.847
80, -4151.66, -3814.00, -3936.44, -3361.42, 0.000, 0.000, 0.000, 14:15:10.847
81, -4045.68, -3830.36, -3897.25, -3295.75, 0.000, 0.000, 0.000, 14:15:10.847
82, -3818.00, -3773.75, -3779.21, -3182.39, 0.000, 0.000, 0.000, 14:15:10.847
83, -3854.77, -3740.23, -3774.93, -3232.21, 0.000, 0.000, 0.000, 14:15:10.848
84, -4142.80, -3821.35, -3931.74, -3371.63, 0.000, 0.000, 0.000, 14:15:10.848
85, -4041.91, -3833.13, -3898.42, -3302.17, 0.000, 0.000, 0.000, 14:15:10.862
86, -3840.59, -3788.43, -3782.46, -3206.97, 0.000, 0.000, 0.000, 14:15:10.862
87, -3854.92, -3744.33, -3783.01, -3240.23, 0.000, 0.000, 0.000, 14:15:10.876
88, -4128.95, -3821.74, -3933.19, -3370.12, 0.000, 0.000, 0.000, 14:15:10.876
89, -4030.35, -3836.93, -3893.96, -3330.08, 0.000, 0.000, 0.000, 14:15:10.877
90, -3812.60, -3781.08, -3767.45, -3211.88, 0.000, 0.000, 0.000, 14:15:10.877
91, -3840.45, -3746.35, -3773.95, -3241.29, 0.000, 0.000, 0.000, 14:15:10.891
92, -4125.08, -3824.53, -3938.15, -3378.18, 0.000, 0.000, 0.000, 14:15:10.891
93, -4037.88, -3837.56, -3890.33, -3321.10, 0.000, 0.000, 0.000, 14:15:10.908
94, -3815.54, -3784.78, -3773.34, -3208.17, 0.000, 0.000, 0.000, 14:15:10.908
95, -3847.79, -3746.22, -3773.77, -3238.31, 0.000, 0.000, 0.000, 14:15:10.908
96, -4108.98, -3807.58, -3923.41, -3375.68, 0.000, 0.000, 0.000, 14:15:10.908
97, -4030.16, -3829.53, -3892.78, -3327.22, 0.000, 0.000, 0.000, 14:15:10.922
98, -3779.73, -3787.06, -3771.40, -3203.16, 0.000, 0.000, 0.000, 14:15:10.923
99, -3820.39, -3746.73, -3774.62, -3241.03, 0.000, 0.000, 0.000, 14:15:10.937
100, -4111.03, -3828.28, -3929.64, -3384.56, 0.000, 0.000, 0.000, 14:15:10.937
101, -4029.21, -3846.85, -3886.19, -3327.08, 0.000, 0.000, 0.000, 14:15:10.952
102, -3770.59, -3777.17, -3749.49, -3212.66, 0.000, 0.000, 0.000, 14:15:10.952
103, -3854.94, -3750.17, -3791.29, -3258.66, 0.000, 0.000, 0.000, 14:15:10.952
104, -4099.76, -3824.19, -3929.10, -3388.66, 0.000, 0.000, 0.000, 14:15:10.952
105, -3998.73, -3844.51, -3893.30, -3328.01, 0.000, 0.000, 0.000, 14:15:10.967
106, -3788.24, -3783.77, -3765.62, -3212.12, 0.000, 0.000, 0.000, 14:15:10.967
107, -3826.44, -3748.37, -3789.32, -3249.54, 0.000, 0.000, 0.000, 14:15:10.967
108, -4099.13, -3825.52, -3932.13, -3376.17, 0.000, 0.000, 0.000, 14:15:10.967
109, -4002.21, -3842.40, -3880.51, -3321.30, 0.000, 0.000, 0.000, 14:15:10.982
110, -3774.71, -3776.69, -3761.40, -3214.35, 0.000, 0.000, 0.000, 14:15:10.982
111, -3823.93, -3756.05, -3778.26, -3253.43, 0.000, 0.000, 0.000, 14:15:10.997
112, -4121.16, -3851.49, -3933.77, -3385.41, 0.000, 0.000, 0.000, 14:15:10.997
113, -4003.35, -3843.88, -3888.80, -3315.84, 0.000, 0.000, 0.000, 14:15:10.997
114, -3772.93, -3783.87, -3755.62, -3211.62, 0.000, 0.000, 0.000, 14:15:10.997
115, -3836.64, -3760.99, -3776.77, -3268.72, 0.000, 0.000, 0.000, 14:15:11.012
116, -4115.55, -3837.26, -3925.91, -3405.24, 0.000, 0.000, 0.000, 14:15:11.012
117, -3995.67, -3838.18, -3878.54, -3321.42, 0.000, 0.000, 0.000, 14:15:11.026
118, -3759.71, -3786.54, -3762.70, -3200.08, 0.000, 0.000, 0.000, 14:15:11.026
119, -3802.42, -3746.35, -3773.03, -3248.94, 0.000, 0.000, 0.000, 14:15:11.026
120, -4104.52, -3826.27, -3925.23, -3392.15, 0.000, 0.000, 0.000, 14:15:11.027
121, -4032.86, -3854.00, -3890.55, -3319.42, 0.000, 0.000, 0.000, 14:15:11.041
122, -3790.42, -3793.20, -3767.09, -3201.15, 0.000, 0.000, 0.000, 14:15:11.041
123, -3824.32, -3760.90, -3785.22, -3250.92, 0.000, 0.000, 0.000, 14:15:11.057
124, -4099.08, -3831.13, -3928.15, -3378.30, 0.000, 0.000, 0.000, 14:15:11.057
125, -4017.59, -3853.39, -3892.03, -3316.91, 0.000, 0.000, 0.000, 14:15:11.057
126, -3775.94, -3791.79, -3759.42, -3207.27, 0.000, 0.000, 0.000, 14:15:11.057
127, -3835.68, -3751.48, -3775.84, -3244.68, 0.000, 0.000, 0.000, 14:15:11.077
128, -4109.85, -3834.41, -3924.78, -3384.76, 0.000, 0.000, 0.000, 14:15:11.078
129, -3999.74, -3841.80, -3873.44, -3320.69, 0.000, 0.000, 0.000, 14:15:11.088
130, -3780.66, -3791.75, -3757.43, -3195.25, 0.000, 0.000, 0.000, 14:15:11.088
131, -3844.09, -3757.63, -3781.09, -3252.26, 0.000, 0.000, 0.000, 14:15:11.088
132, -4098.69, -3834.91, -3930.01, -3373.32, 0.000, 0.000, 0.000, 14:15:11.088
133, -3987.72, -3844.30, -3895.30, -3315.88, 0.000, 0.000, 0.000, 14:15:11.102
134, -3759.67, -3793.91, -3765.28, -3218.11, 0.000, 0.000, 0.000, 14:15:11.102
135, -3829.75, -3754.79, -3781.90, -3262.54, 0.000, 0.000, 0.000, 14:15:11.116
136, -4096.22, -3832.55, -3939.71, -3381.03, 0.000, 0.000, 0.000, 14:15:11.116
137, -4023.27, -3852.96, -3890.26, -3326.88, 0.000, 0.000, 0.000, 14:15:11.117
138, -3806.54, -3794.85, -3755.93, -3208.35, 0.000, 0.000, 0.000, 14:15:11.117
139, -3843.65, -3760.59, -3782.83, -3256.36, 0.000, 0.000, 0.000, 14:15:11.147
140, -4109.65, -3837.95, -3939.70, -3394.38, 0.000, 0.000, 0.000, 14:15:11.147
141, -3999.58, -3850.25, -3895.11, -3339.18, 0.000, 0.000, 0.000, 14:15:11.147
142, -3773.39, -3792.28, -3764.79, -3202.73, 0.000, 0.000, 0.000, 14:15:11.147
143, -3820.83, -3751.71, -3780.87, -3254.23, 0.000, 0.000, 0.000, 14:15:11.148
144, -4108.98, -3841.68, -3931.40, -3382.19, 0.000, 0.000, 0.000, 14:15:11.148
145, -4008.33, -3848.10, -3877.96, -3331.56, 0.000, 0.000, 0.000, 14:15:11.162
146, -3797.77, -3789.71, -3756.23, -3216.33, 0.000, 0.000, 0.000, 14:15:11.162
147, -3849.56, -3762.76, -3792.09, -3274.86, 0.000, 0.000, 0.000, 14:15:11.177
148, -4097.24, -3840.63, -3940.80, -3387.66, 0.000, 0.000, 0.000, 14:15:11.177
149, -3969.73, -3837.90, -3878.65, -3308.52, 0.000, 0.000, 0.000, 14:15:11.177
150, -3774.59, -3794.15, -3758.51, -3197.61, 0.000, 0.000, 0.000, 14:15:11.177
151, -3827.47, -3755.77, -3791.22, -3259.43, 0.000, 0.000, 0.000, 14:15:11.206
152, -4115.00, -3845.48, -3945.58, -3385.39, 0.000, 0.000, 0.000, 14:15:11.206
153, -4015.27, -3850.05, -3894.54, -3320.95, 0.000, 0.000, 0.000, 14:15:11.207
154, -3765.72, -3783.03, -3748.31, -3205.70, 0.000, 0.000, 0.000, 14:15:11.207
155, -3836.29, -3757.57, -3790.23, -3247.61, 0.000, 0.000, 0.000, 14:15:11.207
156, -4099.57, -3848.17, -3938.00, -3396.40, 0.000, 0.000, 0.000, 14:15:11.207
157, -3985.91, -3848.41, -3875.07, -3323.60, 0.000, 0.000, 0.000, 14:15:11.222
158, -3757.33, -3781.01, -3753.52, -3201.60, 0.000, 0.000, 0.000, 14:15:11.223
159, -3833.01, -3752.05, -3788.44, -3251.37, 0.000, 0.000, 0.000, 14:15:11.237
160, -4124.31, -3840.81, -3938.41, -3396.93, 0.000, 0.000, 0.000, 14:15:11.237
161, -4010.60, -3848.43, -3896.71, -3317.26, 0.000, 0.000, 0.000, 14:15:11.237
162, -3777.95, -3788.72, -3766.29, -3210.25, 0.000, 0.000, 0.000, 14:15:11.237
163, -3854.41, -3761.61, -3792.91, -3266.37, 0.000, 0.000, 0.000, 14:15:11.252
164, -4086.43, -3835.11, -3932.33, -3381.21, 0.000, 0.000, 0.000, 14:15:11.252
165, -3969.06, -3837.23, -3872.89, -3316.01, 0.000, 0.000, 0.000, 14:15:11.267
166, -3770.93, -3781.87, -3752.70, -3205.14, 0.000, 0.000, 0.000, 14:15:11.267
167, -3865.74, -3759.69, -3794.49, -3262.06, 0.000, 0.000, 0.000, 14:15:11.282
168, -4111.89, -3842.40, -3930.89, -3389.04, 0.000, 0.000, 0.000, 14:15:11.282
169, -3999.29, -3845.12, -3877.67, -3316.08, 0.000, 0.000, 0.000, 14:15:11.283
170, -3766.02, -3792.14, -3756.20, -3213.30, 0.000, 0.000, 0.000, 14:15:11.283
171, -3852.25, -3752.33, -3796.43, -3270.57, 0.000, 0.000, 0.000, 14:15:11.284
172, -4117.06, -3843.63, -3928.64, -3397.53, 0.000, 0.000, 0.000, 14:15:11.284
173, -3990.52, -3840.23, -3897.30, -3322.21, 0.000, 0.000, 0.000, 14:15:11.296
174, -3753.82, -3780.56, -3760.86, -3185.37, 0.000, 0.000, 0.000, 14:15:11.296
175, -3851.31, -3751.45, -3791.51, -3243.44, 0.000, 0.000, 0.000, 14:15:11.311
176, -4116.16, -3843.82, -3938.58, -3372.27, 0.000, 0.000, 0.000, 14:15:11.311
177, -4018.01, -3855.89, -3901.57, -3314.88, 0.000, 0.000, 0.000, 14:15:11.341
178, -3769.68, -3785.81, -3766.63, -3190.81, 0.000, 0.000, 0.000, 14:15:11.342
179, -3852.77, -3756.38, -3798.09, -3255.73, 0.000, 0.000, 0.000, 14:15:11.357
180, -4110.37, -3839.93, -3941.92, -3378.07, 0.000, 0.000, 0.000, 14:15:11.357
181, -3994.19, -3842.56, -3894.53, -3309.32, 0.000, 0.000, 0.000, 14:15:11.357
182, -3765.37, -3777.51, -3761.68, -3196.30, 0.000, 0.000, 0.000, 14:15:11.357
183, -3850.43, -3754.27, -3795.02, -3253.69, 0.000, 0.000, 0.000, 14:15:11.358
184, -4103.51, -3842.37, -3947.83, -3376.11, 0.000, 0.000, 0.000, 14:15:11.358
185, -3969.79, -3850.28, -3887.42, -3308.97, 0.000, 0.000, 0.000, 14:15:11.358
186, -3760.68, -3789.21, -3769.62, -3197.61, 0.000, 0.000, 0.000, 14:15:11.358
187, -3866.62, -3763.95, -3794.31, -3263.91, 0.000, 0.000, 0.000, 14:15:11.371
188, -4116.11, -3839.95, -3938.09, -3394.62, 0.000, 0.000, 0.000, 14:15:11.371
189, -3983.97, -3846.72, -3882.96, -3319.81, 0.000, 0.000, 0.000, 14:15:11.387
190, -3772.80, -3780.47, -3751.85, -3199.91, 0.000, 0.000, 0.000, 14:15:11.387
191, -3858.73, -3759.79, -3798.15, -3264.79, 0.000, 0.000, 0.000, 14:15:11.387
192, -4114.36, -3846.84, -3949.09, -3390.15, 0.000, 0.000, 0.000, 14:15:11.387
193, -3974.58, -3843.63, -3884.49, -3304.71, 0.000, 0.000, 0.000, 14:15:11.402
194, -3773.57, -3789.78, -3749.70, -3197.80, 0.000, 0.000, 0.000, 14:15:11.403
195, -3876.46, -3764.06, -3794.89, -3275.71, 0.000, 0.000, 0.000, 14:15:11.417
196, -4117.51, -3838.60, -3935.85, -3384.54, 0.000, 0.000, 0.000, 14:15:11.417
197, -4002.07, -3849.17, -3884.11, -3319.88, 0.000, 0.000, 0.000, 14:15:11.418
198, -3752.19, -3783.68, -3753.16, -3202.68, 0.000, 0.000, 0.000, 14:15:11.418
199, -3864.15, -3759.09, -3795.59, -3273.53, 0.000, 0.000, 0.000, 14:15:11.431
200, -4107.26, -3840.82, -3936.74, -3390.66, 0.000, 0.000, 0.000, 14:15:11.431
0, -3972.93, -3846.28, -3879.04, -3303.20, 0.000, 0.000, 0.000, 14:15:11.432
1, -3751.79, -3778.18, -3746.15, -3207.23, 0.000, 0.000, 0.000, 14:15:11.447
2, -3850.45, -3753.30, -3785.55, -3261.68, 0.000, 0.000, 0.000, 14:15:11.447
3, -4124.55, -3848.03, -3937.63, -3385.56, 0.000, 0.000, 0.000, 14:15:11.477
4, -3996.23, -3843.60, -3887.09, -3298.97, 0.000, 0.000, 0.000, 14:15:11.477
5, -3753.41, -3781.40, -3745.11, -3188.85, 0.000, 0.000, 0.000, 14:15:11.477
6, -3883.44, -3761.75, -3797.79, -3281.12, 0.000, 0.000, 0.000, 14:15:11.477
7, -4118.81, -3841.77, -3944.01, -3396.15, 0.000, 0.000, 0.000, 14:15:11.478
8, -3984.27, -3839.47, -3873.57, -3307.36, 0.000, 0.000, 0.000, 14:15:11.478
9, -3737.11, -3776.58, -3745.17, -3186.07, 0.000, 0.000, 0.000, 14:15:11.479
10, -3864.70, -3758.34, -3807.09, -3280.93, 0.000, 0.000, 0.000, 14:15:11.479
11, -4118.85, -3845.56, -3941.04, -3383.64, 0.000, 0.000, 0.000, 14:15:11.491
12, -3982.69, -3843.41, -3874.50, -3308.93, 0.000, 0.000, 0.000, 14:15:11.491
13, -3753.02, -3784.72, -3748.08, -3203.57, 0.000, 0.000, 0.000, 14:15:11.521
14, -3871.65, -3766.16, -3800.12, -3281.46, 0.000, 0.000, 0.000, 14:15:11.522
15, -4100.26, -3842.87, -3941.88, -3389.39, 0.000, 0.000, 0.000, 14:15:11.524
16, -3962.38, -3843.46, -3880.86, -3303.22, 0.000, 0.000, 0.000, 14:15:11.524
17, -3747.57, -3787.27, -3749.73, -3197.87, 0.000, 0.000, 0.000, 14:15:11.524
18, -3875.48, -3760.22, -3803.32, -3266.56, 0.000, 0.000, 0.000, 14:15:11.524
19, -4113.77, -3844.72, -3943.62, -3377.06, 0.000, 0.000, 0.000, 14:15:11.539
20, -3978.77, -3835.82, -3866.89, -3308.73, 0.000, 0.000, 0.000, 14:15:11.539
21, -3757.82, -3776.68, -3740.33, -3188.36, 0.000, 0.000, 0.000, 14:15:11.552
22, -3878.30, -3762.46, -3801.56, -3283.89, 0.000, 0.000, 0.000, 14:15:11.552
23, -4117.29, -3849.36, -3948.66, -3395.64, 0.000, 0.000, 0.000, 14:15:11.566
24, -3980.30, -3846.03, -3889.67, -3311.65, 0.000, 0.000, 0.000, 14:15:11.566
25, -3755.90, -3780.65, -3750.02, -3199.51, 0.000, 0.000, 0.000, 14:15:11.567
26, -3885.75, -3763.95, -3807.57, -3278.53, 0.000, 0.000, 0.000, 14:15:11.567
27, -4119.45, -3844.54, -3936.94, -3383.90, 0.000, 0.000, 0.000, 14:15:11.581
28, -3991.74, -3845.61, -3881.40, -3310.13, 0.000, 0.000, 0.000, 14:15:11.581
29, -3735.54, -3784.61, -3752.98, -3195.71, 0.000, 0.000, 0.000, 14:15:11.581
30, -3869.96, -3773.58, -3810.13, -3268.25, 0.000, 0.000, 0.000, 14:15:11.583
31, -4109.91, -3850.25, -3946.96, -3382.00, 0.000, 0.000, 0.000, 14:15:11.597
32, -3977.43, -3832.74, -3878.57, -3310.32, 0.000, 0.000, 0.000, 14:15:11.597
33, -3752.24, -3784.31, -3744.28, -3193.73, 0.000, 0.000, 0.000, 14:15:11.612
34, -3871.20, -3763.79, -3796.57, -3287.68, 0.000, 0.000, 0.000, 14:15:11.612
35, -4106.61, -3839.80, -3929.08, -3386.08, 0.000, 0.000, 0.000, 14:15:11.612
36, -3966.72, -3833.05, -3869.04, -3301.93, 0.000, 0.000, 0.000, 14:15:11.612
37, -3738.68, -3776.23, -3749.89, -3205.94, 0.000, 0.000, 0.000, 14:15:11.626
38, -3878.36, -3755.18, -3797.98, -3279.12, 0.000, 0.000, 0.000, 14:15:11.626
39, -4121.64, -3849.68, -3944.32, -3390.62, 0.000, 0.000, 0.000, 14:15:11.641
40, -3975.67, -3848.95, -3884.23, -3310.72, 0.000, 0.000, 0.000, 14:15:11.641
41, -3751.58, -3780.80, -3741.85, -3196.74, 0.000, 0.000, 0.000, 14:15:11.642
42, -3897.49, -3771.04, -3813.55, -3283.01, 0.000, 0.000, 0.000, 14:15:11.642
43, -4118.97, -3848.20, -3942.80, -3376.86, 0.000, 0.000, 0.000, 14:15:11.657
44, -3978.13, -3846.73, -3879.68, -3310.20, 0.000, 0.000, 0.000, 14:15:11.657
45, -3748.22, -3778.74, -3750.34, -3198.09, 0.000, 0.000, 0.000, 14:15:11.672
46, -3882.47, -3764.63, -3807.93, -3292.60, 0.000, 0.000, 0.000, 14:15:11.672
47, -4121.32, -3848.12, -3938.66, -3392.95, 0.000, 0.000, 0.000, 14:15:11.673
48, -3984.96, -3848.06, -3882.72, -3309.69, 0.000, 0.000, 0.000, 14:15:11.673
49, -3759.13, -3784.56, -3759.54, -3191.91, 0.000, 0.000, 0.000, 14:15:11.702
50, -3891.26, -3765.23, -3820.26, -3280.80, 0.000, 0.000, 0.000, 14:15:11.702
51, -4087.81, -3841.03, -3923.48, -3374.63, 0.000, 0.000, 0.000, 14:15:11.702
52, -3972.97, -3851.57, -3872.69, -3310.82, 0.000, 0.000, 0.000, 14:15:11.702
53, -3752.59, -3784.40, -3748.76, -3207.82, 0.000, 0.000, 0.000, 14:15:11.702
54, -3888.01, -3772.77, -3826.07, -3293.63, 0.000, 0.000, 0.000, 14:15:11.702
55, -4125.05, -3846.96, -3948.57, -3382.73, 0.000, 0.000, 0.000, 14:15:11.717
56, -3969.80, -3843.59, -3869.02, -3310.54, 0.000, 0.000, 0.000, 14:15:11.717
57, -3739.85, -3780.50, -3749.01, -3202.33, 0.000, 0.000, 0.000, 14:15:11.731
58, -3890.61, -3760.14, -3810.08, -3289.76, 0.000, 0.000, 0.000, 14:15:11.731
59, -4128.74, -3850.54, -3938.16, -3387.68, 0.000, 0.000, 0.000, 14:15:11.732
60, -3978.18, -3836.82, -3856.32, -3307.42, 0.000, 0.000, 0.000, 14:15:11.732
61, -3747.45, -3773.98, -3748.28, -3198.21, 0.000, 0.000, 0.000, 14:15:11.761
62, -3881.62, -3753.94, -3805.02, -3271.38, 0.000, 0.000, 0.000, 14:15:11.761
63, -4105.13, -3842.25, -3943.49, -3379.62, 0.000, 0.000, 0.000, 14:15:11.762
64, -3968.85, -3854.37, -3880.50, -3302.54, 0.000, 0.000, 0.000, 14:15:11.762
65, -3763.40, -3780.41, -3750.58, -3201.33, 0.000, 0.000, 0.000, 14:15:11.776
66, -3898.53, -3766.32, -3819.16, -3289.26, 0.000, 0.000, 0.000, 14:15:11.776
67, -4103.90, -3848.20, -3935.09, -3387.93, 0.000, 0.000, 0.000, 14:15:11.777
68, -3972.90, -3842.72, -3864.50, -3308.35, 0.000, 0.000, 0.000, 14:15:11.777
69, -3751.81, -3768.82, -3748.65, -3186.68, 0.000, 0.000, 0.000, 14:15:11.791
70, -3914.18, -3765.76, -3827.04, -3296.58, 0.000, 0.000, 0.000, 14:15:11.791
71, -4131.11, -3851.41, -3935.85, -3396.95, 0.000, 0.000, 0.000, 14:15:11.792
72, -3971.67, -3838.99, -3852.94, -3286.48, 0.000, 0.000, 0.000, 14:15:11.792
73, -3733.41, -3773.42, -3745.09, -3189.61, 0.000, 0.000, 0.000, 14:15:11.807
74, -3902.64, -3760.91, -3815.92, -3291.48, 0.000, 0.000, 0.000, 14:15:11.807
75, -4107.85, -3833.96, -3928.74, -3383.52, 0.000, 0.000, 0.000, 14:15:11.821
76, -3977.91, -3832.80, -3872.43, -3316.84, 0.000, 0.000, 0.000, 14:15:11.821
77, -3739.91, -3769.06, -3741.80, -3191.84, 0.000, 0.000, 0.000, 14:15:11.852
78, -3897.70, -3766.22, -3821.03, -3290.89, 0.000, 0.000, 0.000, 14:15:11.852
79, -4107.23, -3841.31, -3923.10, -3380.02, 0.000, 0.000, 0.000, 14:15:11.852
80, -3967.24, -3833.26, -3865.17, -3303.08, 0.000, 0.000, 0.000, 14:15:11.852
81, -3759.35, -3775.25, -3750.95, -3212.90, 0.000, 0.000, 0.000, 14:15:11.852
82, -3905.13, -3762.19, -3811.76, -3286.73, 0.000, 0.000, 0.000, 14:15:11.852
83, -4115.25, -3854.48, -3949.00, -3380.79, 0.000, 0.000, 0.000, 14:15:11.854
84, -3950.26, -3834.85, -3863.72, -3296.45, 0.000, 0.000, 0.000, 14:15:11.855
85, -3743.19, -3765.05, -3741.40, -3199.56, 0.000, 0.000, 0.000, 14:15:11.867
86, -3902.60, -3756.30, -3816.43, -3286.93, 0.000, 0.000, 0.000, 14:15:11.867
87, -4111.98, -3846.08, -3944.28, -3379.06, 0.000, 0.000, 0.000, 14:15:11.896
88, -3960.06, -3829.49, -3868.24, -3297.43, 0.000, 0.000, 0.000, 14:15:11.896
89, -3746.76, -3770.14, -3748.26, -3198.84, 0.000, 0.000, 0.000, 14:15:11.897
90, -3903.95, -3764.94, -3810.45, -3291.08, 0.000, 0.000, 0.000, 14:15:11.897
91, -4108.37, -3843.22, -3936.34, -3391.38, 0.000, 0.000, 0.000, 14:15:11.897
92, -3955.44, -3826.64, -3867.83, -3291.35, 0.000, 0.000, 0.000, 14:15:11.897
93, -3735.20, -3776.04, -3751.18, -3207.63, 0.000, 0.000, 0.000, 14:15:11.899
94, -3904.58, -3773.47, -3829.78, -3300.50, 0.000, 0.000, 0.000, 14:15:11.899
95, -4118.75, -3848.52, -3940.87, -3380.44, 0.000, 0.000, 0.000, 14:15:11.918
96, -3962.42, -3833.80, -3852.46, -3300.03, 0.000, 0.000, 0.000, 14:15:11.918
97, -3752.44, -3773.43, -3745.56, -3193.25, 0.000, 0.000, 0.000, 14:15:11.926
98, -3934.44, -3767.44, -3830.08, -3291.96, 0.000, 0.000, 0.000, 14:15:11.926
99, -4113.79, -3844.25, -3939.35, -3380.44, 0.000, 0.000, 0.000, 14:15:11.942
100, -3952.61, -3828.77, -3866.07, -3295.79, 0.000, 0.000, 0.000, 14:15:11.942
101, -3758.65, -3788.89, -3757.49, -3200.11, 0.000, 0.000, 0.000, 14:15:11.957
102, -3921.20, -3774.14, -3827.17, -3291.97, 0.000, 0.000, 0.000, 14:15:11.957
103, -4119.46, -3845.08, -3926.39, -3377.53, 0.000, 0.000, 0.000, 14:15:11.957
104, -3955.64, -3841.49, -3869.07, -3296.06, 0.000, 0.000, 0.000, 14:15:11.958
105, -3743.85, -3775.03, -3742.83, -3190.16, 0.000, 0.000, 0.000, 14:15:11.972
106, -3934.34, -3764.82, -3828.27, -3300.99, 0.000, 0.000, 0.000, 14:15:11.972
107, -4104.38, -3847.75, -3930.89, -3371.41, 0.000, 0.000, 0.000, 14:15:11.973
108, -3960.86, -3833.64, -3862.44, -3299.36, 0.000, 0.000, 0.000, 14:15:11.973
109, -3734.74, -3774.63, -3749.99, -3197.67, 0.000, 0.000, 0.000, 14:15:11.986
110, -3922.31, -3767.42, -3831.43, -3308.30, 0.000, 0.000, 0.000, 14:15:11.987
111, -4108.21, -3841.37, -3925.98, -3379.78, 0.000, 0.000, 0.000, 14:15:12.017
112, -3959.27, -3826.12, -3853.59, -3292.13, 0.000, 0.000, 0.000, 14:15:12.017
113, -3740.98, -3770.10, -3747.07, -3182.93, 0.000, 0.000, 0.000, 14:15:12.018
114, -3918.09, -3770.05, -3824.60, -3293.34, 0.000, 0.000, 0.000, 14:15:12.018
115, -4115.85, -3851.21, -3930.46, -3377.87, 0.000, 0.000, 0.000, 14:15:12.018
116, -3965.07, -3846.19, -3866.52, -3305.86, 0.000, 0.000, 0.000, 14:15:12.018
117, -3749.00, -3776.39, -3751.55, -3187.41, 0.000, 0.000, 0.000, 14:15:12.019
118, -3916.35, -3767.71, -3824.20, -3296.90, 0.000, 0.000, 0.000, 14:15:12.019
119, -4110.14, -3848.99, -3935.99, -3391.56, 0.000, 0.000, 0.000, 14:15:12.031
120, -3948.62, -3843.09, -3858.12, -3295.49, 0.000, 0.000, 0.000, 14:15:12.031
121, -3758.47, -3773.97, -3751.56, -3194.13, 0.000, 0.000, 0.000, 14:15:12.046
122, -3933.51, -3773.63, -3828.31, -3301.43, 0.000, 0.000, 0.000, 14:15:12.046
123, -4114.53, -3860.08, -3937.80, -3384.51, 0.000, 0.000, 0.000, 14:15:12.062
124, -3950.73, -3840.73, -3864.02, -3302.12, 0.000, 0.000, 0.000, 14:15:12.062
125, -3746.23, -3769.28, -3746.61, -3193.40, 0.000, 0.000, 0.000, 14:15:12.062
126, -3956.55, -3773.30, -3838.26, -3307.00, 0.000, 0.000, 0.000, 14:15:12.062
127, -4133.20, -3854.63, -3938.85, -3392.74, 0.000, 0.000, 0.000, 14:15:12.077
128, -3959.96, -3839.53, -3856.90, -3306.59, 0.000, 0.000, 0.000, 14:15:12.077
129, -3764.61, -3776.44, -3751.39, -3198.92, 0.000, 0.000, 0.000, 14:15:12.092
130, -3933.10, -3766.72, -3834.60, -3299.33, 0.000, 0.000, 0.000, 14:15:12.092
131, -4103.36, -3852.29, -3938.63, -3381.88, 0.000, 0.000, 0.000, 14:15:12.092
132, -3950.03, -3826.74, -3859.86, -3287.92, 0.000, 0.000, 0.000, 14:15:12.093
133, -3739.26, -3764.90, -3745.15, -3186.93, 0.000, 0.000, 0.000, 14:15:12.107
134, -3929.03, -3766.16, -3822.40, -3294.62, 0.000, 0.000, 0.000, 14:15:12.107
135, -4111.99, -3854.28, -3942.95, -3393.74, 0.000, 0.000, 0.000, 14:15:12.121
136, -3966.22, -3830.03, -3860.59, -3288.52, 0.000, 0.000, 0.000, 14:15:12.122
137, -3755.01, -3764.20, -3728.22, -3183.35, 0.000, 0.000, 0.000, 14:15:12.123
138, -3910.16, -3770.17, -3827.64, -3311.31, 0.000, 0.000, 0.000, 14:15:12.123
139, -4093.82, -3843.66, -3932.31, -3377.89, 0.000, 0.000, 0.000, 14:15:12.137
140, -3941.24, -3826.22, -3853.67, -3292.26, 0.000, 0.000, 0.000, 14:15:12.137
141, -3732.13, -3753.42, -3729.74, -3186.92, 0.000, 0.000, 0.000, 14:15:12.152
142, -3939.64, -3771.26, -3843.80, -3313.68, 0.000, 0.000, 0.000, 14:15:12.152
143, -4123.85, -3844.90, -3925.37, -3374.57, 0.000, 0.000, 0.000, 14:15:12.153
144, -3945.32, -3833.60, -3852.39, -3298.74, 0.000, 0.000, 0.000, 14:15:12.153
145, -3718.33, -3767.57, -3738.54, -3195.15, 0.000, 0.000, 0.000, 14:15:12.167
146, -3932.39, -3783.62, -3844.82, -3314.85, 0.000, 0.000, 0.000, 14:15:12.167
147, -4105.57, -3847.73, -3933.06, -3383.02, 0.000, 0.000, 0.000, 14:15:12.196
148, -3946.08, -3829.30, -3851.26, -3296.33, 0.000, 0.000, 0.000, 14:15:12.197
149, -3746.00, -3773.03, -3749.20, -3203.11, 0.000, 0.000, 0.000, 14:15:12.197
150, -3956.23, -3778.14, -3843.84, -3318.94, 0.000, 0.000, 0.000, 14:15:12.197
151, -4135.44, -3848.96, -3944.35, -3378.36, 0.000, 0.000, 0.000, 14:15:12.198
152, -3937.09, -3832.06, -3855.35, -3289.24, 0.000, 0.000, 0.000, 14:15:12.198
153, -3738.29, -3763.81, -3736.94, -3194.23, 0.000, 0.000, 0.000, 14:15:12.198
154, -3952.03, -3782.14, -3843.39, -3326.89, 0.000, 0.000, 0.000, 14:15:12.199
155, -4106.93, -3857.63, -3940.29, -3386.99, 0.000, 0.000, 0.000, 14:15:12.227
156, -3944.44, -3840.91, -3847.15, -3289.38, 0.000, 0.000, 0.000, 14:15:12.227
157, -3751.67, -3789.97, -3730.76, -3183.49, 0.000, 0.000, 0.000, 14:15:12.227
158, -3947.48, -3794.88, -3839.31, -3316.93, 0.000, 0.000, 0.000, 14:15:12.227
159, -4093.72, -3876.80, -3923.85, -3362.84, 0.000, 0.000, 0.000, 14:15:12.242
160, -3897.09, -3832.77, -3844.99, -3278.29, 0.000, 0.000, 0.000, 14:15:12.242
161, -3681.07, -3741.86, -3725.21, -3174.92, 0.000, 0.000, 0.000, 14:15:12.242
162, -3902.82, -3788.55, -3824.16, -3286.75, 0.000, 0.000, 0.000, 14:15:12.242
163, -4085.96, -3924.63, -3922.40, -3356.72, 0.000, 0.000, 0.000, 14:15:12.257
164, -3868.48, -3840.71, -3856.08, -3278.76, 0.000, 0.000, 0.000, 14:15:12.257
165, -3641.22, -3795.46, -3725.51, -3187.22, 0.000, 0.000, 0.000, 14:15:12.272
166, -3841.12, -3815.34, -3828.67, -3301.91, 0.000, 0.000, 0.000, 14:15:12.273
167, -3975.65, -3909.88, -3920.58, -3370.04, 0.000, 0.000, 0.000, 14:15:12.273
168, -3828.49, -3892.42, -3845.20, -3278.63, 0.000, 0.000, 0.000, 14:15:12.273
169, -3613.26, -3816.41, -3708.14, -3161.02, 0.000, 0.000, 0.000, 14:15:12.287
170, -3837.48, -3839.87, -3829.67, -3304.88, 0.000, 0.000, 0.000, 14:15:12.287
171, -4030.19, -3910.64, -3936.97, -3379.81, 0.000, 0.000, 0.000, 14:15:12.316
172, -3865.90, -3878.30, -3854.12, -3282.58, 0.000, 0.000, 0.000, 14:15:12.316
173, -3693.54, -3807.07, -3733.58, -3190.94, 0.000, 0.000, 0.000, 14:15:12.317
174, -3945.04, -3802.09, -3847.59, -3320.26, 0.000, 0.000, 0.000, 14:15:12.317
175, -4092.19, -3862.60, -3937.71, -3375.91, 0.000, 0.000, 0.000, 14:15:12.317
176, -3924.52, -3834.07, -3854.69, -3291.24, 0.000, 0.000, 0.000, 14:15:12.317
177, -3744.46, -3769.65, -3740.19, -3189.17, 0.000, 0.000, 0.000, 14:15:12.319
178, -3969.25, -3776.52, -3856.50, -3318.43, 0.000, 0.000, 0.000, 14:15:12.319
179, -4125.54, -3845.35, -3938.70, -3374.60, 0.000, 0.000, 0.000, 14:15:12.347
180, -3974.29, -3820.56, -3856.67, -3294.21, 0.000, 0.000, 0.000, 14:15:12.347
181, -3786.27, -3751.66, -3739.80, -3188.80, 0.000, 0.000, 0.000, 14:15:12.347
182, -3989.73, -3752.71, -3857.17, -3323.00, 0.000, 0.000, 0.000, 14:15:12.348
183, -4168.95, -3837.92, -3953.60, -3389.57, 0.000, 0.000, 0.000, 14:15:12.362
184, -3990.58, -3810.46, -3857.82, -3311.45, 0.000, 0.000, 0.000, 14:15:12.362
185, -3790.77, -3746.67, -3743.07, -3197.66, 0.000, 0.000, 0.000, 14:15:12.362
186, -4010.91, -3750.17, -3851.11, -3335.19, 0.000, 0.000, 0.000, 14:15:12.362
187, -4138.96, -3817.38, -3933.52, -3383.13, 0.000, 0.000, 0.000, 14:15:12.392
188, -3974.49, -3801.66, -3850.47, -3288.07, 0.000, 0.000, 0.000, 14:15:12.392
189, -3791.52, -3734.32, -3738.33, -3190.27, 0.000, 0.000, 0.000, 14:15:12.392
190, -4024.59, -3753.88, -3857.47, -3326.05, 0.000, 0.000, 0.000, 14:15:12.392
191, -4151.60, -3838.29, -3939.18, -3391.80, 0.000, 0.000, 0.000, 14:15:12.393
192, -3940.95, -3797.44, -3840.79, -3271.00, 0.000, 0.000, 0.000, 14:15:12.393
193, -3771.78, -3756.74, -3755.98, -3221.93, 0.000, 0.000, 0.000, 14:15:12.406
194, -3999.71, -3763.04, -3864.71, -3315.33, 0.000, 0.000, 0.000, 14:15:12.406
195, -4143.13, -3832.17, -3944.24, -3379.05, 0.000, 0.000, 0.000, 14:15:12.422
196, -3972.42, -3817.09, -3852.73, -3280.20, 0.000, 0.000, 0.000, 14:15:12.422
197, -3790.86, -3756.30, -3743.73, -3196.37, 0.000, 0.000, 0.000, 14:15:12.423
198, -4017.07, -3759.62, -3852.70, -3323.94, 0.000, 0.000, 0.000, 14:15:12.423
199, -4115.42, -3836.27, -3942.58, -3377.74, 0.000, 0.000, 0.000, 14:15:12.437
200, -3965.91, -3818.40, -3855.59, -3280.10, 0.000, 0.000, 0.000, 14:15:12.437
0, -3737.16, -3739.59, -3719.34, -3182.07, 0.000, 0.000, 0.000, 14:15:12.452
1, -3983.98, -3771.02, -3848.91, -3324.69, 0.000, 0.000, 0.000, 14:15:12.466
2, -4120.54, -3845.79, -3934.56, -3375.86, 0.000, 0.000, 0.000, 14:15:12.466
3, -3960.30, -3821.55, -3857.85, -3295.73, 0.000, 0.000, 0.000, 14:15:12.466
4, -3763.87, -3755.24, -3747.87, -3193.49, 0.000, 0.000, 0.000, 14:15:12.468
5, -4003.00, -3767.02, -3854.45, -3323.42, 0.000, 0.000, 0.000, 14:15:12.468
6, -4108.72, -3843.32, -3941.31, -3370.85, 0.000, 0.000, 0.000, 14:15:12.468
7, -3944.15, -3819.40, -3846.90, -3272.21, 0.000, 0.000, 0.000, 14:15:12.481
8, -3736.44, -3750.11, -3737.08, -3188.50, 0.000, 0.000, 0.000, 14:15:12.481
9, -3979.57, -3770.99, -3847.68, -3354.37, 0.000, 0.000, 0.000, 14:15:12.496
10, -4096.37, -3841.73, -3934.66, -3393.19, 0.000, 0.000, 0.000, 14:15:12.496
11, -3924.92, -3817.10, -3851.29, -3296.39, 0.000, 0.000, 0.000, 14:15:12.526
12, -3745.61, -3758.98, -3742.34, -3203.39, 0.000, 0.000, 0.000, 14:15:12.526
13, -3973.02, -3772.19, -3856.12, -3327.77, 0.000, 0.000, 0.000, 14:15:12.527
14, -4115.17, -3849.65, -3937.02, -3375.73, 0.000, 0.000, 0.000, 14:15:12.527
15, -3932.98, -3808.31, -3838.73, -3286.72, 0.000, 0.000, 0.000, 14:15:12.527
16, -3733.02, -3757.72, -3748.57, -3215.88, 0.000, 0.000, 0.000, 14:15:12.528
17, -3967.83, -3774.96, -3854.22, -3346.50, 0.000, 0.000, 0.000, 14:15:12.528
18, -4114.46, -3846.44, -3927.61, -3396.74, 0.000, 0.000, 0.000, 14:15:12.528
19, -3939.64, -3835.44, -3848.15, -3292.33, 0.000, 0.000, 0.000, 14:15:12.541
20, -3749.30, -3761.16, -3729.58, -3185.94, 0.000, 0.000, 0.000, 14:15:12.541
21, -3973.94, -3775.86, -3858.47, -3335.70, 0.000, 0.000, 0.000, 14:15:12.572
22, -4117.72, -3849.73, -3938.51, -3381.08, 0.000, 0.000, 0.000, 14:15:12.573
23, -3948.03, -3818.44, -3841.83, -3281.13, 0.000, 0.000, 0.000, 14:15:12.573
24, -3746.76, -3757.44, -3742.62, -3182.53, 0.000, 0.000, 0.000, 14:15:12.573
25, -3975.45, -3779.04, -3848.55, -3325.52, 0.000, 0.000, 0.000, 14:15:12.573
26, -4127.43, -3856.06, -3933.06, -3377.36, 0.000, 0.000, 0.000, 14:15:12.573
27, -3927.44, -3829.30, -3843.84, -3279.90, 0.000, 0.000, 0.000, 14:15:12.587
28, -3742.59, -3765.52, -3743.19, -3201.91, 0.000, 0.000, 0.000, 14:15:12.587
29, -3978.36, -3791.04, -3867.40, -3335.71, 0.000, 0.000, 0.000, 14:15:12.587
30, -4084.68, -3852.85, -3941.79, -3376.83, 0.000, 0.000, 0.000, 14:15:12.587
31, -3914.58, -3812.98, -3844.93, -3274.79, 0.000, 0.000, 0.000, 14:15:12.601
32, -3740.59, -3753.84, -3733.82, -3196.26, 0.000, 0.000, 0.000, 14:15:12.601
33, -3991.40, -3789.28, -3866.12, -3340.69, 0.000, 0.000, 0.000, 14:15:12.617
34, -4108.07, -3852.22, -3930.54, -3372.11, 0.000, 0.000, 0.000, 14:15:12.617
35, -3940.82, -3825.79, -3834.73, -3272.32, 0.000, 0.000, 0.000, 14:15:12.618
36, -3735.58, -3754.28, -3732.80, -3176.39, 0.000, 0.000, 0.000, 14:15:12.618
37, -3991.63, -3784.92, -3865.79, -3314.25, 0.000, 0.000, 0.000, 14:15:12.632
38, -4113.91, -3851.08, -3940.55, -3373.29, 0.000, 0.000, 0.000, 14:15:12.633
39, -3936.82, -3838.93, -3858.81, -3266.84, 0.000, 0.000, 0.000, 14:15:12.647
40, -3743.21, -3767.49, -3738.90, -3185.13, 0.000, 0.000, 0.000, 14:15:12.647
41, -3987.89, -3782.67, -3860.84, -3327.04, 0.000, 0.000, 0.000, 14:15:12.647
42, -4093.27, -3847.74, -3924.13, -3364.33, 0.000, 0.000, 0.000, 14:15:12.647
43, -3928.48, -3829.38, -3844.28, -3292.78, 0.000, 0.000, 0.000, 14:15:12.661
44, -3740.28, -3763.50, -3741.76, -3209.18, 0.000, 0.000, 0.000, 14:15:12.661
45, -4012.46, -3786.76, -3873.04, -3340.22, 0.000, 0.000, 0.000, 14:15:12.677
46, -4098.46, -3848.10, -3934.39, -3357.80, 0.000, 0.000, 0.000, 14:15:12.677
47, -3915.39, -3822.89, -3834.24, -3258.80, 0.000, 0.000, 0.000, 14:15:12.677
48, -3727.53, -3755.22, -3727.12, -3187.31, 0.000, 0.000, 0.000, 14:15:12.677
49, -3992.66, -3788.64, -3871.08, -3333.48, 0.000, 0.000, 0.000, 14:15:12.691
50, -4109.43, -3849.61, -3931.00, -3374.30, 0.000, 0.000, 0.000, 14:15:12.692
51, -3933.00, -3825.98, -3848.44, -3281.83, 0.000, 0.000, 0.000, 14:15:12.706
52, -3747.40, -3763.81, -3736.74, -3194.27, 0.000, 0.000, 0.000, 14:15:12.706
53, -4000.23, -3789.61, -3865.10, -3338.03, 0.000, 0.000, 0.000, 14:15:12.707
54, -4105.59, -3864.32, -3943.01, -3375.86, 0.000, 0.000, 0.000, 14:15:12.707
55, -3909.71, -3823.18, -3835.53, -3275.77, 0.000, 0.000, 0.000, 14:15:12.721
56, -3745.32, -3765.61, -3756.21, -3185.27, 0.000, 0.000, 0.000, 14:15:12.722
57, -3991.37, -3781.54, -3871.26, -3345.69, 0.000, 0.000, 0.000, 14:15:12.736
58, -4110.54, -3851.78, -3935.46, -3376.52, 0.000, 0.000, 0.000, 14:15:12.736
59, -3922.67, -3825.24, -3845.05, -3273.70, 0.000, 0.000, 0.000, 14:15:12.737
60, -3740.32, -3763.66, -3727.02, -3187.95, 0.000, 0.000, 0.000, 14:15:12.737
61, -4031.95, -3790.09, -3870.98, -3327.40, 0.000, 0.000, 0.000, 14:15:12.752
62, -4121.60, -3855.71, -3932.76, -3377.42, 0.000, 0.000, 0.000, 14:15:12.752
63, -3925.07, -3824.72, -3843.17, -3275.18, 0.000, 0.000, 0.000, 14:15:12.767
64, -3745.40, -3764.76, -3759.07, -3188.32, 0.000, 0.000, 0.000, 14:15:12.767
65, -4001.62, -3781.24, -3875.43, -3347.13, 0.000, 0.000, 0.000, 14:15:12.767
66, -4095.08, -3852.92, -3938.76, -3382.13, 0.000, 0.000, 0.000, 14:15:12.767
67, -3918.23, -3820.53, -3834.01, -3271.10, 0.000, 0.000, 0.000, 14:15:12.782
68, -3744.07, -3760.86, -3735.43, -3188.78, 0.000, 0.000, 0.000, 14:15:12.782
69, -4013.06, -3792.57, -3871.48, -3337.35, 0.000, 0.000, 0.000, 14:15:12.811
70, -4119.44, -3858.82, -3940.89, -3376.82, 0.000, 0.000, 0.000, 14:15:12.811
71, -3928.32, -3821.79, -3840.45, -3261.85, 0.000, 0.000, 0.000, 14:15:12.812
72, -3761.04, -3751.61, -3742.59, -3185.00, 0.000, 0.000, 0.000, 14:15:12.812
73, -4012.45, -3791.96, -3881.61, -3339.77, 0.000, 0.000, 0.000, 14:15:12.812
74, -4099.34, -3862.40, -3951.42, -3373.99, 0.000, 0.000, 0.000, 14:15:12.812
75, -3902.92, -3823.06, -3845.75, -3277.45, 0.000, 0.000, 0.000, 14:15:12.813
76, -3727.18, -3745.62, -3719.79, -3173.19, 0.000, 0.000, 0.000, 14:15:12.813
77, -4021.80, -3796.89, -3877.01, -3344.86, 0.000, 0.000, 0.000, 14:15:12.826
78, -4095.62, -3849.77, -3929.52, -3371.11, 0.000, 0.000, 0.000, 14:15:12.826
79, -3916.47, -3828.36, -3837.28, -3276.80, 0.000, 0.000, 0.000, 14:15:12.842
80, -3758.16, -3760.21, -3742.05, -3202.18, 0.000, 0.000, 0.000, 14:15:12.842
81, -4002.21, -3787.37, -3877.63, -3345.14, 0.000, 0.000, 0.000, 14:15:12.856
82, -4101.67, -3864.31, -3951.62, -3373.03, 0.000, 0.000, 0.000, 14:15:12.856
83, -3906.84, -3820.50, -3838.38, -3266.92, 0.000, 0.000, 0.000, 14:15:12.857
84, -3736.97, -3761.03, -3737.50, -3181.64, 0.000, 0.000, 0.000, 14:15:12.857
85, -4026.79, -3791.52, -3879.19, -3347.00, 0.000, 0.000, 0.000, 14:15:12.873
86, -4118.84, -3858.14, -3946.53, -3370.03, 0.000, 0.000, 0.000, 14:15:12.873
87, -3902.13, -3811.46, -3823.64, -3250.21, 0.000, 0.000, 0.000, 14:15:12.901
88, -3759.22, -3761.34, -3736.75, -3203.16, 0.000, 0.000, 0.000, 14:15:12.902
89, -4008.67, -3796.76, -3878.57, -3353.63, 0.000, 0.000, 0.000, 14:15:12.902
90, -4109.71, -3863.33, -3941.61, -3373.77, 0.000, 0.000, 0.000, 14:15:12.902
91, -3906.12, -3833.76, -3844.10, -3259.17, 0.000, 0.000, 0.000, 14:15:12.902
92, -3738.72, -3764.02, -3728.39, -3195.21, 0.000, 0.000, 0.000, 14:15:12.903
93, -4003.19, -3795.18, -3870.85, -3349.23, 0.000, 0.000, 0.000, 14:15:12.903
94, -4097.90, -3844.12, -3933.27, -3367.42, 0.000, 0.000, 0.000, 14:15:12.903
95, -3914.55, -3832.06, -3842.11, -3279.27, 0.000, 0.000, 0.000, 14:15:12.917
96, -3744.28, -3759.22, -3734.90, -3205.47, 0.000, 0.000, 0.000, 14:15:12.917
97, -4004.77, -3786.59, -3866.57, -3342.57, 0.000, 0.000, 0.000, 14:15:12.932
98, -4084.98, -3853.16, -3929.64, -3362.67, 0.000, 0.000, 0.000, 14:15:12.932
99, -3906.78, -3827.95, -3844.56, -3258.50, 0.000, 0.000, 0.000, 14:15:12.962
100, -3722.81, -3768.29, -3741.54, -3182.08, 0.000, 0.000, 0.000, 14:15:12.962
101, -4015.39, -3804.94, -3879.33, -3350.74, 0.000, 0.000, 0.000, 14:15:12.962
102, -4093.85, -3851.29, -3929.67, -3361.35, 0.000, 0.000, 0.000, 14:15:12.962
103, -3906.02, -3826.93, -3835.80, -3252.23, 0.000, 0.000, 0.000, 14:15:12.963
104, -3748.77, -3765.81, -3739.18, -3206.73, 0.000, 0.000, 0.000, 14:15:12.963
105, -4021.15, -3792.54, -3875.62, -3353.09, 0.000, 0.000, 0.000, 14:15:12.963
106, -4107.47, -3862.10, -3939.35, -3371.22, 0.000, 0.000, 0.000, 14:15:12.964
107, -3884.93, -3824.55, -3837.14, -3268.59, 0.000, 0.000, 0.000, 14:15:12.976
108, -3735.60, -3762.93, -3748.55, -3198.60, 0.000, 0.000, 0.000, 14:15:12.976
109, -4030.72, -3803.97, -3884.56, -3353.04, 0.000, 0.000, 0.000, 14:15:13.006
110, -4096.33, -3852.22, -3924.26, -3371.78, 0.000, 0.000, 0.000, 14:15:13.006
111, -3896.76, -3824.82, -3838.67, -3285.65, 0.000, 0.000, 0.000, 14:15:13.022
112, -3747.92, -3763.84, -3740.25, -3184.99, 0.000, 0.000, 0.000, 14:15:13.022
113, -4018.47, -3797.10, -3879.58, -3351.49, 0.000, 0.000, 0.000, 14:15:13.023
114, -4082.08, -3852.81, -3935.61, -3359.33, 0.000, 0.000, 0.000, 14:15:13.023
115, -3893.56, -3825.38, -3832.55, -3259.98, 0.000, 0.000, 0.000, 14:15:13.023
116, -3727.43, -3756.00, -3728.72, -3179.44, 0.000, 0.000, 0.000, 14:15:13.023
117, -4021.18, -3797.33, -3877.42, -3351.46, 0.000, 0.000, 0.000, 14:15:13.024
118, -4097.33, -3866.29, -3935.84, -3374.58, 0.000, 0.000, 0.000, 14:15:13.024
119, -3907.11, -3830.05, -3823.15, -3264.48, 0.000, 0.000, 0.000, 14:15:13.037
120, -3743.38, -3758.80, -3743.86, -3189.61, 0.000, 0.000, 0.000, 14:15:13.037
121, -4023.41, -3800.92, -3887.91, -3348.68, 0.000, 0.000, 0.000, 14:15:13.081
122, -4079.76, -3851.43, -3933.18, -3352.84, 0.000, 0.000, 0.000, 14:15:13.082
123, -3890.13, -3835.76, -3846.55, -3269.96, 0.000, 0.000, 0.000, 14:15:13.082
124, -3749.18, -3757.93, -3741.21, -3198.31, 0.000, 0.000, 0.000, 14:15:13.082
125, -4023.09, -3788.62, -3876.75, -3341.61, 0.000, 0.000, 0.000, 14:15:13.083
126, -4115.70, -3864.35, -3934.08, -3374.32, 0.000, 0.000, 0.000, 14:15:13.083
127, -3902.72, -3824.41, -3830.29, -3255.33, 0.000, 0.000, 0.000, 14:15:13.083
128, -3731.19, -3757.10, -3741.70, -3186.71, 0.000, 0.000, 0.000, 14:15:13.084
129, -4025.25, -3800.12, -3878.97, -3348.03, 0.000, 0.000, 0.000, 14:15:13.084
130, -4106.49, -3859.29, -3931.87, -3386.31, 0.000, 0.000, 0.000, 14:15:13.085
131, -3904.33, -3829.09, -3821.78, -3273.73, 0.000, 0.000, 0.000, 14:15:13.096
132, -3753.65, -3757.99, -3742.04, -3188.29, 0.000, 0.000, 0.000, 14:15:13.096
133, -4045.07, -3798.40, -3889.65, -3360.35, 0.000, 0.000, 0.000, 14:15:13.126
134, -4089.72, -3858.02, -3931.03, -3353.95, 0.000, 0.000, 0.000, 14:15:13.127
135, -3900.20, -3841.15, -3839.85, -3257.73, 0.000, 0.000, 0.000, 14:15:13.128
136, -3744.39, -3754.64, -3737.18, -3195.97, 0.000, 0.000, 0.000, 14:15:13.128
137, -4023.85, -3797.13, -3875.74, -3350.88, 0.000, 0.000, 0.000, 14:15:13.141
138, -4092.74, -3851.94, -3925.37, -3353.44, 0.000, 0.000, 0.000, 14:15:13.141
139, -3881.42, -3823.26, -3831.64, -3264.34, 0.000, 0.000, 0.000, 14:15:13.142
140, -3740.08, -3753.23, -3743.85, -3198.83, 0.000, 0.000, 0.000, 14:15:13.142
141, -4038.38, -3797.65, -3880.55, -3349.33, 0.000, 0.000, 0.000, 14:15:13.156
142, -4085.69, -3867.71, -3940.54, -3361.98, 0.000, 0.000, 0.000, 14:15:13.157
143, -3891.01, -3833.09, -3826.68, -3267.65, 0.000, 0.000, 0.000, 14:15:13.157
144, -3743.00, -3751.39, -3745.22, -3188.56, 0.000, 0.000, 0.000, 14:15:13.157
145, -4023.63, -3803.05, -3892.38, -3366.55, 0.000, 0.000, 0.000, 14:15:13.187
146, -4076.83, -3843.99, -3925.69, -3363.84, 0.000, 0.000, 0.000, 14:15:13.187
147, -3893.69, -3833.47, -3843.30, -3259.07, 0.000, 0.000, 0.000, 14:15:13.187
148, -3753.19, -3761.52, -3735.95, -3190.95, 0.000, 0.000, 0.000, 14:15:13.187
149, -4043.13, -3804.34, -3892.76, -3357.83, 0.000, 0.000, 0.000, 14:15:13.187
150, -4099.56, -3862.27, -3942.96, -3369.15, 0.000, 0.000, 0.000, 14:15:13.188
151, -3892.14, -3811.70, -3820.83, -3244.98, 0.000, 0.000, 0.000, 14:15:13.201
152, -3755.34, -3752.08, -3739.57, -3183.84, 0.000, 0.000, 0.000, 14:15:13.202
153, -4039.27, -3806.04, -3896.69, -3349.51, 0.000, 0.000, 0.000, 14:15:13.217
154, -4079.68, -3855.80, -3930.51, -3369.73, 0.000, 0.000, 0.000, 14:15:13.217
155, -3895.17, -3822.97, -3822.08, -3263.72, 0.000, 0.000, 0.000, 14:15:13.217
156, -3744.44, -3762.02, -3741.41, -3189.34, 0.000, 0.000, 0.000, 14:15:13.217
157, -4048.05, -3809.65, -3895.69, -3367.74, 0.000, 0.000, 0.000, 14:15:13.231
158, -4078.19, -3851.43, -3931.93, -3352.94, 0.000, 0.000, 0.000, 14:15:13.231
159, -3873.72, -3811.19, -3812.37, -3249.37, 0.000, 0.000, 0.000, 14:15:13.247
160, -3766.67, -3772.17, -3750.48, -3201.14, 0.000, 0.000, 0.000, 14:15:13.247
161, -4043.60, -3807.75, -3890.10, -3359.65, 0.000, 0.000, 0.000, 14:15:13.247
162, -4084.07, -3866.11, -3942.96, -3372.89, 0.000, 0.000, 0.000, 14:15:13.247
163, -3889.40, -3822.10, -3842.53, -3269.29, 0.000, 0.000, 0.000, 14:15:13.261
164, -3761.19, -3757.55, -3745.00, -3200.15, 0.000, 0.000, 0.000, 14:15:13.261
165, -4037.53, -3794.12, -3876.83, -3348.84, 0.000, 0.000, 0.000, 14:15:13.277
166, -4078.94, -3845.78, -3915.53, -3343.36, 0.000, 0.000, 0.000, 14:15:13.277
167, -3879.26, -3832.27, -3833.94, -3253.91, 0.000, 0.000, 0.000, 14:15:13.277
168, -3759.70, -3764.65, -3742.43, -3195.00, 0.000, 0.000, 0.000, 14:15:13.277
169, -4041.82, -3804.30, -3890.28, -3358.96, 0.000, 0.000, 0.000, 14:15:13.292
170, -4090.68, -3861.77, -3923.86, -3359.97, 0.000, 0.000, 0.000, 14:15:13.292
171, -3889.72, -3821.21, -3813.45, -3263.95, 0.000, 0.000, 0.000, 14:15:13.306
172, -3734.08, -3751.34, -3736.81, -3195.63, 0.000, 0.000, 0.000, 14:15:13.306
173, -4033.37, -3791.94, -3896.18, -3362.04, 0.000, 0.000, 0.000, 14:15:13.307
174, -4074.45, -3841.47, -3926.17, -3343.60, 0.000, 0.000, 0.000, 14:15:13.307
175, -3878.24, -3821.12, -3816.87, -3256.79, 0.000, 0.000, 0.000, 14:15:13.322
176, -3749.88, -3752.90, -3741.57, -3202.58, 0.000, 0.000, 0.000, 14:15:13.322
177, -4066.25, -3816.75, -3898.63, -3373.34, 0.000, 0.000, 0.000, 14:15:13.337
178, -4105.78, -3863.99, -3933.65, -3376.53, 0.000, 0.000, 0.000, 14:15:13.337
179, -3892.47, -3822.50, -3833.32, -3266.09, 0.000, 0.000, 0.000, 14:15:13.337
180, -3759.01, -3757.31, -3746.41, -3199.45, 0.000, 0.000, 0.000, 14:15:13.338
181, -4056.27, -3807.60, -3903.28, -3363.37, 0.000, 0.000, 0.000, 14:15:13.352
182, -4088.24, -3846.61, -3925.58, -3362.73, 0.000, 0.000, 0.000, 14:15:13.353
183, -3858.96, -3794.99, -3804.99, -3243.46, 0.000, 0.000, 0.000, 14:15:13.366
184, -3762.24, -3768.29, -3755.89, -3210.41, 0.000, 0.000, 0.000, 14:15:13.366
185, -4052.55, -3811.08, -3886.27, -3355.66, 0.000, 0.000, 0.000, 14:15:13.367
186, -4099.75, -3863.02, -3934.24, -3367.14, 0.000, 0.000, 0.000, 14:15:13.367
187, -3868.52, -3824.54, -3816.74, -3244.86, 0.000, 0.000, 0.000, 14:15:13.396
188, -3754.91, -3760.46, -3747.56, -3198.40, 0.000, 0.000, 0.000, 14:15:13.396
189, -4052.20, -3799.32, -3898.43, -3363.68, 0.000, 0.000, 0.000, 14:15:13.397
190, -4070.97, -3851.66, -3922.02, -3356.20, 0.000, 0.000, 0.000, 14:15:13.397
191, -3882.15, -3809.28, -3817.55, -3259.14, 0.000, 0.000, 0.000, 14:15:13.398
192, -3743.26, -3758.68, -3746.47, -3201.80, 0.000, 0.000, 0.000, 14:15:13.398
193, -4050.27, -3806.09, -3906.34, -3371.99, 0.000, 0.000, 0.000, 14:15:13.418
194, -4080.79, -3851.76, -3919.26, -3358.73, 0.000, 0.000, 0.000, 14:15:13.418
195, -3868.04, -3820.96, -3818.52, -3251.31, 0.000, 0.000, 0.000, 14:15:13.441
196, -3767.98, -3753.17, -3745.75, -3207.42, 0.000, 0.000, 0.000, 14:15:13.441
197, -4067.33, -3816.12, -3909.00, -3366.94, 0.000, 0.000, 0.000, 14:15:13.442
198, -4101.00, -3862.71, -3922.63, -3373.46, 0.000, 0.000, 0.000, 14:15:13.442
199, -3872.34, -3812.51, -3815.07, -3253.43, 0.000, 0.000, 0.000, 14:15:13.442
200, -3714.13, -3727.61, -3723.69, -3190.64, 0.000, 0.000, 0.000, 14:15:13.442
0, -4049.25, -3803.17, -3898.16, -3366.32, 0.000, 0.000, 0.000, 14:15:13.443
1, -4066.75, -3862.48, -3930.32, -3359.66, 0.000, 0.000, 0.000, 14:15:13.456
2, -3844.67, -3810.48, -3805.06, -3244.49, 0.000, 0.000, 0.000, 14:15:13.457
3, -3759.17, -3753.82, -3742.68, -3216.75, 0.000, 0.000, 0.000, 14:15:13.473
4, -4063.40, -3809.51, -3906.27, -3382.53, 0.000, 0.000, 0.000, 14:15:13.473
5, -4092.89, -3848.92, -3928.06, -3371.16, 0.000, 0.000, 0.000, 14:15:13.473
6, -3861.20, -3803.84, -3806.52, -3247.37, 0.000, 0.000, 0.000, 14:15:13.474
7, -3777.32, -3758.91, -3756.11, -3215.84, 0.000, 0.000, 0.000, 14:15:13.487
8, -4065.48, -3804.81, -3900.13, -3371.89, 0.000, 0.000, 0.000, 14:15:13.487
9, -4068.65, -3858.53, -3927.10, -3353.55, 0.000, 0.000, 0.000, 14:15:13.517
10, -3872.30, -3819.45, -3809.40, -3249.22, 0.000, 0.000, 0.000, 14:15:13.517
11, -3761.21, -3759.93, -3743.43, -3203.14, 0.000, 0.000, 0.000, 14:15:13.517
12, -4070.46, -3813.46, -3904.39, -3371.54, 0.000, 0.000, 0.000, 14:15:13.517
13, -4079.74, -3853.74, -3927.12, -3346.19, 0.000, 0.000, 0.000, 14:15:13.518
14, -3868.94, -3807.99, -3805.97, -3239.13, 0.000, 0.000, 0.000, 14:15:13.518
15, -3758.18, -3761.09, -3746.60, -3207.07, 0.000, 0.000, 0.000, 14:15:13.518
16, -4059.28, -3810.58, -3911.00, -3367.51, 0.000, 0.000, 0.000, 14:15:13.521
17, -4062.71, -3847.07, -3917.68, -3353.36, 0.000, 0.000, 0.000, 14:15:13.531
18, -3851.43, -3813.85, -3810.13, -3251.13, 0.000, 0.000, 0.000, 14:15:13.531
19, -3763.96, -3759.53, -3745.56, -3212.09, 0.000, 0.000, 0.000, 14:15:13.546
20, -4076.04, -3801.36, -3894.81, -3362.63, 0.000, 0.000, 0.000, 14:15:13.546
21, -4092.90, -3869.38, -3927.00, -3356.80, 0.000, 0.000, 0.000, 14:15:13.577
22, -3879.72, -3818.00, -3814.03, -3233.78, 0.000, 0.000, 0.000, 14:15:13.577
23, -3743.04, -3758.86, -3742.14, -3200.60, 0.000, 0.000, 0.000, 14:15:13.577
24, -4066.40, -3809.10, -3903.80, -3362.37, 0.000, 0.000, 0.000, 14:15:13.577
25, -4081.33, -3857.85, -3919.94, -3351.68, 0.000, 0.000, 0.000, 14:15:13.578
26, -3872.10, -3816.13, -3816.30, -3252.12, 0.000, 0.000, 0.000, 14:15:13.578
27, -3735.26, -3730.46, -3732.72, -3201.53, 0.000, 0.000, 0.000, 14:15:13.579
28, -4059.61, -3808.75, -3910.27, -3370.54, 0.000, 0.000, 0.000, 14:15:13.579
29, -4073.53, -3864.21, -3928.08, -3357.13, 0.000, 0.000, 0.000, 14:15:13.592
30, -3876.51, -3817.13, -3828.48, -3248.31, 0.000, 0.000, 0.000, 14:15:13.592
31, -3773.09, -3753.75, -3741.82, -3213.55, 0.000, 0.000, 0.000, 14:15:13.607
32, -4057.25, -3808.75, -3898.98, -3376.05, 0.000, 0.000, 0.000, 14:15:13.607
33, -4056.19, -3853.22, -3913.20, -3363.74, 0.000, 0.000, 0.000, 14:15:13.637
34, -3876.50, -3809.96, -3817.82, -3229.70, 0.000, 0.000, 0.000, 14:15:13.637
35, -3774.87, -3752.99, -3760.13, -3206.62, 0.000, 0.000, 0.000, 14:15:13.637
36, -4077.84, -3811.04, -3915.39, -3375.25, 0.000, 0.000, 0.000, 14:15:13.637
37, -4069.15, -3849.95, -3919.85, -3363.42, 0.000, 0.000, 0.000, 14:15:13.638
38, -3851.58, -3813.33, -3799.42, -3227.43, 0.000, 0.000, 0.000, 14:15:13.638
39, -3748.04, -3754.42, -3748.40, -3188.63, 0.000, 0.000, 0.000, 14:15:13.639
40, -4056.68, -3811.18, -3907.67, -3357.64, 0.000, 0.000, 0.000, 14:15:13.639
41, -4055.50, -3850.53, -3908.25, -3346.47, 0.000, 0.000, 0.000, 14:15:13.652
42, -3861.18, -3817.15, -3812.15, -3230.58, 0.000, 0.000, 0.000, 14:15:13.653
43, -3774.79, -3755.66, -3747.80, -3200.93, 0.000, 0.000, 0.000, 14:15:13.696
44, -4074.08, -3811.40, -3899.47, -3370.63, 0.000, 0.000, 0.000, 14:15:13.696
45, -4074.36, -3854.52, -3913.17, -3360.77, 0.000, 0.000, 0.000, 14:15:13.696
46, -3853.67, -3824.29, -3816.69, -3249.37, 0.000, 0.000, 0.000, 14:15:13.696
47, -3750.32, -3758.03, -3755.75, -3207.84, 0.000, 0.000, 0.000, 14:15:13.697
48, -4078.32, -3819.49, -3912.59, -3373.95, 0.000, 0.000, 0.000, 14:15:13.697
49, -4075.02, -3865.24, -3935.01, -3359.14, 0.000, 0.000, 0.000, 14:15:13.699
50, -3871.53, -3817.52, -3812.64, -3240.04, 0.000, 0.000, 0.000, 14:15:13.699
51, -3774.31, -3760.94, -3738.42, -3228.24, 0.000, 0.000, 0.000, 14:15:13.700
52, -4092.28, -3821.27, -3908.12, -3384.57, 0.000, 0.000, 0.000, 14:15:13.700
53, -4072.48, -3858.91, -3920.14, -3351.29, 0.000, 0.000, 0.000, 14:15:13.712
54, -3846.26, -3817.94, -3809.76, -3238.83, 0.000, 0.000, 0.000, 14:15:13.712
55, -3758.98, -3758.30, -3760.17, -3210.36, 0.000, 0.000, 0.000, 14:15:13.726
56, -4078.95, -3813.44, -3908.93, -3369.46, 0.000, 0.000, 0.000, 14:15:13.727
57, -4062.04, -3854.48, -3909.10, -3353.13, 0.000, 0.000, 0.000, 14:15:13.742
58, -3844.55, -3812.06, -3807.52, -3245.05, 0.000, 0.000, 0.000, 14:15:13.743
59, -3773.36, -3751.03, -3761.49, -3212.83, 0.000, 0.000, 0.000, 14:15:13.743
60, -4086.59, -3817.21, -3906.78, -3377.84, 0.000, 0.000, 0.000, 14:15:13.743
61, -4074.44, -3862.08, -3925.47, -3344.90, 0.000, 0.000, 0.000, 14:15:13.763
62, -3858.47, -3819.06, -3812.78, -3224.59, 0.000, 0.000, 0.000, 14:15:13.763
63, -3767.06, -3754.83, -3754.36, -3221.91, 0.000, 0.000, 0.000, 14:15:13.772
64, -4077.41, -3816.05, -3910.69, -3392.66, 0.000, 0.000, 0.000, 14:15:13.773
65, -4063.11, -3860.92, -3919.95, -3361.58, 0.000, 0.000, 0.000, 14:15:13.773
66, -3847.07, -3814.99, -3796.99, -3234.06, 0.000, 0.000, 0.000, 14:15:13.773
67, -3773.01, -3758.97, -3752.16, -3219.19, 0.000, 0.000, 0.000, 14:15:13.802
68, -4064.87, -3816.79, -3912.13, -3381.01, 0.000, 0.000, 0.000, 14:15:13.802
69, -4088.28, -3863.39, -3919.97, -3342.69, 0.000, 0.000, 0.000, 14:15:13.803
70, -3841.54, -3813.53, -3798.81, -3240.60, 0.000, 0.000, 0.000, 14:15:13.803
71, -3751.39, -3746.65, -3748.03, -3201.37, 0.000, 0.000, 0.000, 14:15:13.803
72, -4068.27, -3815.64, -3915.60, -3388.55, 0.000, 0.000, 0.000, 14:15:13.803
73, -4070.13, -3859.19, -3920.32, -3345.77, 0.000, 0.000, 0.000, 14:15:13.816
74, -3867.98, -3826.93, -3820.80, -3253.71, 0.000, 0.000, 0.000, 14:15:13.816
75, -3782.37, -3760.87, -3762.34, -3216.46, 0.000, 0.000, 0.000, 14:15:13.831
76, -4087.65, -3814.97, -3917.06, -3375.27, 0.000, 0.000, 0.000, 14:15:13.831
77, -4072.96, -3859.80, -3922.02, -3359.12, 0.000, 0.000, 0.000, 14:15:13.832
78, -3843.53, -3800.87, -3798.50, -3229.56, 0.000, 0.000, 0.000, 14:15:13.832
79, -3786.44, -3759.05, -3758.41, -3222.71, 0.000, 0.000, 0.000, 14:15:13.846
80, -4091.10, -3818.94, -3915.46, -3385.03, 0.000, 0.000, 0.000, 14:15:13.846
81, -4064.01, -3864.32, -3912.32, -3355.33, 0.000, 0.000, 0.000, 14:15:13.862
82, -3849.93, -3812.32, -3800.73, -3237.87, 0.000, 0.000, 0.000, 14:15:13.862
83, -3766.42, -3758.25, -3754.21, -3213.75, 0.000, 0.000, 0.000, 14:15:13.862
84, -4087.98, -3828.02, -3925.65, -3375.17, 0.000, 0.000, 0.000, 14:15:13.862
85, -4069.65, -3852.06, -3917.93, -3348.90, 0.000, 0.000, 0.000, 14:15:13.891
86, -3857.34, -3818.79, -3797.66, -3238.72, 0.000, 0.000, 0.000, 14:15:13.891
87, -3755.61, -3759.60, -3761.45, -3213.02, 0.000, 0.000, 0.000, 14:15:13.892
88, -4068.58, -3819.85, -3921.02, -3372.52, 0.000, 0.000, 0.000, 14:15:13.892
89, -4062.94, -3858.29, -3919.81, -3351.00, 0.000, 0.000, 0.000, 14:15:13.892
90, -3850.97, -3814.88, -3806.27, -3239.36, 0.000, 0.000, 0.000, 14:15:13.892
91, -3769.27, -3744.35, -3747.30, -3210.52, 0.000, 0.000, 0.000, 14:15:13.922
92, -4095.35, -3812.54, -3907.10, -3370.83, 0.000, 0.000, 0.000, 14:15:13.923
93, -4077.06, -3864.66, -3923.55, -3364.69, 0.000, 0.000, 0.000, 14:15:13.923
94, -3840.10, -3810.66, -3798.21, -3235.75, 0.000, 0.000, 0.000, 14:15:13.923
95, -3778.15, -3757.17, -3760.11, -3216.59, 0.000, 0.000, 0.000, 14:15:13.923
96, -4078.57, -3834.03, -3925.18, -3380.39, 0.000, 0.000, 0.000, 14:15:13.923
97, -4050.51, -3881.57, -3909.88, -3343.43, 0.000, 0.000, 0.000, 14:15:13.952
98, -3822.59, -3831.69, -3782.82, -3229.24, 0.000, 0.000, 0.000, 14:15:13.952
99, -3750.50, -3769.25, -3750.48, -3203.45, 0.000, 0.000, 0.000, 14:15:13.952
100, -4059.89, -3816.53, -3905.78, -3370.50, 0.000, 0.000, 0.000, 14:15:13.952
101, -4026.94, -3891.09, -3916.48, -3344.40, 0.000, 0.000, 0.000, 14:15:13.953
102, -3801.67, -3842.52, -3801.03, -3220.41, 0.000, 0.000, 0.000, 14:15:13.953
103, -3726.30, -3788.06, -3745.04, -3209.42, 0.000, 0.000, 0.000, 14:15:13.981
104, -4008.10, -3839.76, -3909.85, -3379.71, 0.000, 0.000, 0.000, 14:15:13.982
105, -3963.00, -3893.08, -3906.17, -3326.80, 0.000, 0.000, 0.000, 14:15:13.982
106, -3722.62, -3852.51, -3776.64, -3204.63, 0.000, 0.000, 0.000, 14:15:13.982
107, -3669.95, -3817.17, -3743.65, -3190.29, 0.000, 0.000, 0.000, 14:15:13.983
108, -3960.28, -3887.27, -3903.71, -3344.29, 0.000, 0.000, 0.000, 14:15:13.983
109, -3929.85, -3910.77, -3900.48, -3317.25, 0.000, 0.000, 0.000, 14:15:14.011
110, -3709.53, -3856.21, -3775.86, -3206.46, 0.000, 0.000, 0.000, 14:15:14.011
111, -3698.88, -3804.51, -3757.04, -3208.76, 0.000, 0.000, 0.000, 14:15:14.012
112, -4027.48, -3863.04, -3923.02, -3378.51, 0.000, 0.000, 0.000, 14:15:14.012
113, -4024.54, -3897.80, -3920.42, -3344.92, 0.000, 0.000, 0.000, 14:15:14.012
114, -3812.02, -3832.67, -3795.54, -3227.44, 0.000, 0.000, 0.000, 14:15:14.012
115, -3760.83, -3757.36, -3743.99, -3217.46, 0.000, 0.000, 0.000, 14:15:14.026
116, -4096.32, -3824.39, -3923.24, -3387.01, 0.000, 0.000, 0.000, 14:15:14.026
117, -4065.81, -3860.21, -3937.66, -3352.98, 0.000, 0.000, 0.000, 14:15:14.056
118, -3867.95, -3795.99, -3813.90, -3235.18, 0.000, 0.000, 0.000, 14:15:14.056
119, -3815.43, -3747.56, -3772.61, -3231.37, 0.000, 0.000, 0.000, 14:15:14.058
120, -4123.77, -3813.19, -3927.09, -3393.59, 0.000, 0.000, 0.000, 14:15:14.058
121, -4093.52, -3844.34, -3930.77, -3367.15, 0.000, 0.000, 0.000, 14:15:14.073
122, -3873.03, -3785.08, -3805.24, -3220.43, 0.000, 0.000, 0.000, 14:15:14.073
123, -3833.08, -3736.41, -3759.84, -3214.98, 0.000, 0.000, 0.000, 14:15:14.073
124, -4168.67, -3809.17, -3942.91, -3402.07, 0.000, 0.000, 0.000, 14:15:14.073
125, -4106.09, -3835.11, -3915.86, -3363.53, 0.000, 0.000, 0.000, 14:15:14.073
126, -3862.25, -3794.96, -3796.75, -3238.44, 0.000, 0.000, 0.000, 14:15:14.073
127, -3821.27, -3719.32, -3763.91, -3223.27, 0.000, 0.000, 0.000, 14:15:14.087
128, -4139.52, -3791.04, -3918.83, -3373.69, 0.000, 0.000, 0.000, 14:15:14.087
129, -4065.20, -3825.14, -3910.40, -3333.16, 0.000, 0.000, 0.000, 14:15:14.117
130, -3860.17, -3780.50, -3785.41, -3224.75, 0.000, 0.000, 0.000, 14:15:14.117
131, -3815.06, -3729.42, -3764.46, -3218.53, 0.000, 0.000, 0.000, 14:15:14.117
132, -4128.66, -3804.21, -3933.03, -3390.18, 0.000, 0.000, 0.000, 14:15:14.117
133, -4081.40, -3837.59, -3920.25, -3347.41, 0.000, 0.000, 0.000, 14:15:14.118
134, -3845.11, -3792.77, -3799.07, -3234.11, 0.000, 0.000, 0.000, 14:15:14.118
135, -3824.56, -3752.97, -3766.05, -3237.23, 0.000, 0.000, 0.000, 14:15:14.119
136, -4112.68, -3814.10, -3934.43, -3399.34, 0.000, 0.000, 0.000, 14:15:14.119
137, -4076.42, -3849.52, -3919.06, -3356.52, 0.000, 0.000, 0.000, 14:15:14.132
138, -3840.37, -3790.48, -3789.45, -3240.02, 0.000, 0.000, 0.000, 14:15:14.132
139, -3797.32, -3736.48, -3749.82, -3217.56, 0.000, 0.000, 0.000, 14:15:14.146
140, -4121.47, -3814.18, -3925.51, -3392.80, 0.000, 0.000, 0.000, 14:15:14.146
141, -4096.59, -3856.40, -3927.07, -3362.42, 0.000, 0.000, 0.000, 14:15:14.191
142, -3847.43, -3802.06, -3806.87, -3215.65, 0.000, 0.000, 0.000, 14:15:14.191
143, -3787.47, -3741.20, -3762.61, -3214.76, 0.000, 0.000, 0.000, 14:15:14.192
144, -4108.25, -3816.95, -3925.39, -3397.22, 0.000, 0.000, 0.000, 14:15:14.192
145, -4075.01, -3855.96, -3920.17, -3362.65, 0.000, 0.000, 0.000, 14:15:14.192
146, -3850.97, -3804.80, -3791.40, -3228.00, 0.000, 0.000, 0.000, 14:15:14.192
147, -3801.33, -3749.28, -3756.61, -3220.19, 0.000, 0.000, 0.000, 14:15:14.193
148, -4107.57, -3825.03, -3927.45, -3379.53, 0.000, 0.000, 0.000, 14:15:14.193
149, -4059.03, -3838.34, -3905.15, -3335.03, 0.000, 0.000, 0.000, 14:15:14.194
150, -3835.64, -3799.44, -3790.38, -3231.82, 0.000, 0.000, 0.000, 14:15:14.194
151, -3777.46, -3732.60, -3756.42, -3209.09, 0.000, 0.000, 0.000, 14:15:14.206
152, -4108.54, -3832.86, -3941.46, -3400.05, 0.000, 0.000, 0.000, 14:15:14.207
153, -4072.06, -3852.83, -3913.08, -3354.51, 0.000, 0.000, 0.000, 14:15:14.224
154, -3831.10, -3799.34, -3795.27, -3222.72, 0.000, 0.000, 0.000, 14:15:14.224
155, -3790.87, -3740.46, -3750.00, -3213.73, 0.000, 0.000, 0.000, 14:15:14.224
156, -4098.39, -3813.33, -3916.75, -3373.94, 0.000, 0.000, 0.000, 14:15:14.224
157, -4047.70, -3847.66, -3910.23, -3351.12, 0.000, 0.000, 0.000, 14:15:14.253
158, -3826.81, -3796.90, -3793.69, -3222.11, 0.000, 0.000, 0.000, 14:15:14.253
159, -3788.25, -3747.57, -3767.65, -3233.30, 0.000, 0.000, 0.000, 14:15:14.253
160, -4117.15, -3825.17, -3934.82, -3393.97, 0.000, 0.000, 0.000, 14:15:14.253
161, -4060.18, -3850.53, -3927.19, -3344.86, 0.000, 0.000, 0.000, 14:15:14.254
162, -3814.62, -3789.01, -3770.11, -3212.90, 0.000, 0.000, 0.000, 14:15:14.254
163, -3800.03, -3751.22, -3750.84, -3218.67, 0.000, 0.000, 0.000, 14:15:14.266
164, -4103.10, -3821.55, -3925.53, -3388.10, 0.000, 0.000, 0.000, 14:15:14.266
165, -4053.47, -3852.53, -3917.22, -3346.34, 0.000, 0.000, 0.000, 14:15:14.282
166, -3828.62, -3801.84, -3781.70, -3219.40, 0.000, 0.000, 0.000, 14:15:14.282
167, -3794.03, -3753.43, -3763.99, -3221.95, 0.000, 0.000, 0.000, 14:15:14.282
168, -4102.23, -3822.13, -3932.87, -3387.33, 0.000, 0.000, 0.000, 14:15:14.282
169, -4050.58, -3850.72, -3918.11, -3333.37, 0.000, 0.000, 0.000, 14:15:14.297
170, -3810.20, -3790.70, -3788.02, -3210.29, 0.000, 0.000, 0.000, 14:15:14.297
171, -3783.28, -3747.49, -3751.15, -3222.02, 0.000, 0.000, 0.000, 14:15:14.312
172, -4112.70, -3841.33, -3939.40, -3409.63, 0.000, 0.000, 0.000, 14:15:14.312
173, -4061.23, -3866.12, -3924.90, -3350.36, 0.000, 0.000, 0.000, 14:15:14.312
174, -3831.49, -3795.37, -3783.09, -3221.69, 0.000, 0.000, 0.000, 14:15:14.312
175, -3787.06, -3750.44, -3763.65, -3223.87, 0.000, 0.000, 0.000, 14:15:14.326
176, -4110.69, -3825.85, -3944.64, -3399.15, 0.000, 0.000, 0.000, 14:15:14.326
177, -4058.81, -3868.68, -3923.19, -3354.66, 0.000, 0.000, 0.000, 14:15:14.357
178, -3803.28, -3795.63, -3784.31, -3222.31, 0.000, 0.000, 0.000, 14:15:14.357
179, -3784.59, -3751.49, -3753.53, -3227.59, 0.000, 0.000, 0.000, 14:15:14.357
180, -4112.78, -3833.79, -3930.00, -3406.26, 0.000, 0.000, 0.000, 14:15:14.357
181, -4046.85, -3861.36, -3903.49, -3341.71, 0.000, 0.000, 0.000, 14:15:14.358
182, -3800.20, -3795.11, -3776.00, -3202.68, 0.000, 0.000, 0.000, 14:15:14.358
183, -3787.02, -3747.93, -3755.07, -3219.19, 0.000, 0.000, 0.000, 14:15:14.358
184, -4126.36, -3836.46, -3928.20, -3395.42, 0.000, 0.000, 0.000, 14:15:14.358
185, -4041.53, -3854.51, -3924.35, -3344.12, 0.000, 0.000, 0.000, 14:15:14.372
186, -3813.29, -3800.01, -3797.38, -3235.01, 0.000, 0.000, 0.000, 14:15:14.372
187, -3776.80, -3743.76, -3753.49, -3231.32, 0.000, 0.000, 0.000, 14:15:14.387
188, -4124.97, -3844.56, -3934.77, -3406.25, 0.000, 0.000, 0.000, 14:15:14.387
189, -4068.57, -3864.88, -3915.10, -3342.67, 0.000, 0.000, 0.000, 14:15:14.402
190, -3811.53, -3797.38, -3781.36, -3209.02, 0.000, 0.000, 0.000, 14:15:14.405
191, -3808.11, -3747.39, -3749.90, -3219.62, 0.000, 0.000, 0.000, 14:15:14.406
192, -4138.00, -3833.91, -3941.98, -3396.09, 0.000, 0.000, 0.000, 14:15:14.406
193, -4041.21, -3849.24, -3920.34, -3338.48, 0.000, 0.000, 0.000, 14:15:14.417
194, -3796.26, -3792.66, -3768.97, -3219.90, 0.000, 0.000, 0.000, 14:15:14.417
195, -3797.11, -3744.80, -3751.34, -3221.38, 0.000, 0.000, 0.000, 14:15:14.432
196, -4137.94, -3852.16, -3941.60, -3415.61, 0.000, 0.000, 0.000, 14:15:14.432
197, -4068.58, -3872.30, -3920.45, -3357.21, 0.000, 0.000, 0.000, 14:15:14.447
198, -3793.05, -3789.72, -3776.94, -3202.80, 0.000, 0.000, 0.000, 14:15:14.447
199, -3772.24, -3728.56, -3752.37, -3201.59, 0.000, 0.000, 0.000, 14:15:14.447
200, -4140.49, -3841.54, -3944.68, -3390.86, 0.000, 0.000, 0.000, 14:15:14.447
0, -4068.91, -3859.96, -3919.39, -3333.80, 0.000, 0.000, 0.000, 14:15:14.448
1, -3785.29, -3792.58, -3785.06, -3194.95, 0.000, 0.000, 0.000, 14:15:14.477
2, -3765.63, -3727.84, -3746.71, -3229.55, 0.000, 0.000, 0.000, 14:15:14.477
3, -4127.14, -3835.94, -3953.50, -3418.74, 0.000, 0.000, 0.000, 14:15:14.477
4, -4038.13, -3856.03, -3910.43, -3350.05, 0.000, 0.000, 0.000, 14:15:14.477
5, -3781.85, -3790.86, -3767.32, -3212.53, 0.000, 0.000, 0.000, 14:15:14.478
6, -3785.08, -3743.23, -3755.04, -3220.70, 0.000, 0.000, 0.000, 14:15:14.478
7, -4148.47, -3846.32, -3960.11, -3403.15, 0.000, 0.000, 0.000, 14:15:14.507
8, -4088.35, -3870.19, -3929.35, -3353.51, 0.000, 0.000, 0.000, 14:15:14.507
9, -3788.34, -3797.51, -3776.84, -3200.49, 0.000, 0.000, 0.000, 14:15:14.507
10, -3770.32, -3744.12, -3750.08, -3217.23, 0.000, 0.000, 0.000, 14:15:14.507
11, -4132.74, -3842.42, -3948.55, -3412.00, 0.000, 0.000, 0.000, 14:15:14.508
12, -4055.04, -3863.38, -3927.76, -3354.26, 0.000, 0.000, 0.000, 14:15:14.508
13, -3771.37, -3770.48, -3759.35, -3196.74, 0.000, 0.000, 0.000, 14:15:14.567
14, -3783.73, -3742.78, -3758.70, -3218.20, 0.000, 0.000, 0.000, 14:15:14.567
15, -4128.71, -3844.22, -3953.09, -3401.74, 0.000, 0.000, 0.000, 14:15:14.567
16, -4079.50, -3868.77, -3925.13, -3350.00, 0.000, 0.000, 0.000, 14:15:14.567
17, -3813.73, -3797.99, -3772.68, -3197.70, 0.000, 0.000, 0.000, 14:15:14.568
18, -3791.74, -3746.97, -3757.55, -3232.75, 0.000, 0.000, 0.000, 14:15:14.568
19, -4140.98, -3856.52, -3954.66, -3415.64, 0.000, 0.000, 0.000, 14:15:14.569
20, -4068.90, -3868.56, -3928.74, -3354.77, 0.000, 0.000, 0.000, 14:15:14.570
21, -3786.24, -3787.59, -3765.68, -3204.90, 0.000, 0.000, 0.000, 14:15:14.570
22, -3773.88, -3737.24, -3754.00, -3224.91, 0.000, 0.000, 0.000, 14:15:14.570
23, -4139.97, -3849.37, -3953.24, -3411.51, 0.000, 0.000, 0.000, 14:15:14.571
24, -4055.29, -3861.86, -3920.22, -3350.55, 0.000, 0.000, 0.000, 14:15:14.571
25, -3775.72, -3777.69, -3766.11, -3186.19, 0.000, 0.000, 0.000, 14:15:14.582
26, -3781.31, -3736.20, -3746.43, -3215.20, 0.000, 0.000, 0.000, 14:15:14.582
27, -4129.33, -3850.19, -3943.26, -3409.16, 0.000, 0.000, 0.000, 14:15:14.597
28, -4063.91, -3869.98, -3921.35, -3345.74, 0.000, 0.000, 0.000, 14:15:14.597
29, -3778.20, -3784.93, -3763.52, -3192.09, 0.000, 0.000, 0.000, 14:15:14.597
30, -3785.70, -3733.77, -3744.00, -3217.89, 0.000, 0.000, 0.000, 14:15:14.597
31, -4149.89, -3848.93, -3963.08, -3406.76, 0.000, 0.000, 0.000, 14:15:14.627
32, -4064.65, -3879.06, -3937.34, -3358.99, 0.000, 0.000, 0.000, 14:15:14.627
33, -3778.51, -3783.62, -3759.51, -3194.85, 0.000, 0.000, 0.000, 14:15:14.627
34, -3768.45, -3736.35, -3739.60, -3212.47, 0.000, 0.000, 0.000, 14:15:14.627
35, -4133.26, -3866.07, -3955.46, -3420.91, 0.000, 0.000, 0.000, 14:15:14.628
36, -4057.26, -3872.35, -3927.11, -3348.57, 0.000, 0.000, 0.000, 14:15:14.628
37, -3789.18, -3788.06, -3768.24, -3203.24, 0.000, 0.000, 0.000, 14:15:14.642
38, -3782.82, -3738.22, -3759.89, -3222.38, 0.000, 0.000, 0.000, 14:15:14.642
39, -4152.79, -3845.10, -3952.65, -3403.00, 0.000, 0.000, 0.000, 14:15:14.673
40, -4079.80, -3879.70, -3936.53, -3351.49, 0.000, 0.000, 0.000, 14:15:14.673
41, -3783.89, -3787.43, -3753.83, -3189.18, 0.000, 0.000, 0.000, 14:15:14.673
42, -3771.87, -3738.77, -3750.45, -3222.72, 0.000, 0.000, 0.000, 14:15:14.673
43, -4150.28, -3855.38, -3957.00, -3407.51, 0.000, 0.000, 0.000, 14:15:14.674
44, -4047.24, -3868.75, -3919.62, -3348.24, 0.000, 0.000, 0.000, 14:15:14.674
45, -3763.02, -3785.88, -3759.99, -3201.84, 0.000, 0.000, 0.000, 14:15:14.675
46, -3777.89, -3737.23, -3759.99, -3220.77, 0.000, 0.000, 0.000, 14:15:14.675
47, -4162.16, -3847.38, -3949.44, -3409.60, 0.000, 0.000, 0.000, 14:15:14.687
48, -4080.03, -3873.95, -3918.02, -3368.89, 0.000, 0.000, 0.000, 14:15:14.687
49, -3764.96, -3795.17, -3765.47, -3200.11, 0.000, 0.000, 0.000, 14:15:14.701
50, -3770.08, -3742.43, -3756.30, -3219.24, 0.000, 0.000, 0.000, 14:15:14.701
51, -4148.24, -3862.05, -3972.57, -3409.02, 0.000, 0.000, 0.000, 14:15:14.717
52, -4069.45, -3872.81, -3921.63, -3350.74, 0.000, 0.000, 0.000, 14:15:14.717
53, -3783.31, -3780.63, -3757.38, -3190.60, 0.000, 0.000, 0.000, 14:15:14.747
54, -3789.91, -3731.77, -3753.02, -3221.43, 0.000, 0.000, 0.000, 14:15:14.747
55, -4155.50, -3851.65, -3969.01, -3423.18, 0.000, 0.000, 0.000, 14:15:14.747
56, -4034.79, -3859.43, -3921.48, -3355.49, 0.000, 0.000, 0.000, 14:15:14.747
57, -3757.28, -3779.01, -3747.62, -3189.86, 0.000, 0.000, 0.000, 14:15:14.748
58, -3790.62, -3737.90, -3753.00, -3220.74, 0.000, 0.000, 0.000, 14:15:14.748
59, -4154.89, -3849.96, -3951.21, -3409.42, 0.000, 0.000, 0.000, 14:15:14.749
60, -4049.92, -3862.73, -3920.55, -3351.84, 0.000, 0.000, 0.000, 14:15:14.749
61, -3742.04, -3769.76, -3750.42, -3188.35, 0.000, 0.000, 0.000, 14:15:14.761
62, -3784.69, -3722.14, -3751.32, -3222.90, 0.000, 0.000, 0.000, 14:15:14.761
63, -4153.26, -3850.05, -3957.93, -3425.64, 0.000, 0.000, 0.000, 14:15:14.807
64, -4051.22, -3866.08, -3925.96, -3355.64, 0.000, 0.000, 0.000, 14:15:14.807
65, -3765.26, -3772.71, -3752.98, -3193.60, 0.000, 0.000, 0.000, 14:15:14.807
66, -3774.32, -3727.86, -3745.18, -3227.38, 0.000, 0.000, 0.000, 14:15:14.808
67, -4149.37, -3855.33, -3952.07, -3419.92, 0.000, 0.000, 0.000, 14:15:14.808
68, -4059.36, -3859.68, -3913.32, -3345.72, 0.000, 0.000, 0.000, 14:15:14.808
69, -3773.44, -3773.00, -3745.94, -3180.42, 0.000, 0.000, 0.000, 14:15:14.808
70, -3801.19, -3739.75, -3756.92, -3240.38, 0.000, 0.000, 0.000, 14:15:14.808
71, -4162.73, -3865.16, -3980.02, -3433.09, 0.000, 0.000, 0.000, 14:15:14.809
72, -4057.59, -3868.37, -3931.49, -3354.48, 0.000, 0.000, 0.000, 14:15:14.809
73, -3766.26, -3769.80, -3741.37, -3180.64, 0.000, 0.000, 0.000, 14:15:14.822
74, -3800.19, -3740.06, -3758.99, -3231.77, 0.000, 0.000, 0.000, 14:15:14.822
75, -4152.59, -3865.07, -3965.62, -3430.08, 0.000, 0.000, 0.000, 14:15:14.837
76, -4037.71, -3866.53, -3916.82, -3338.58, 0.000, 0.000, 0.000, 14:15:14.837
77, -3750.08, -3772.62, -3744.98, -3187.42, 0.000, 0.000, 0.000, 14:15:14.837
78, -3790.45, -3728.16, -3749.95, -3228.50, 0.000, 0.000, 0.000, 14:15:14.838
79, -4160.16, -3863.32, -3976.99, -3419.04, 0.000, 0.000, 0.000, 14:15:14.852
80, -4045.63, -3859.57, -3912.14, -3345.29, 0.000, 0.000, 0.000, 14:15:14.852
81, -3748.26, -3779.12, -3757.20, -3190.89, 0.000, 0.000, 0.000, 14:15:14.866
82, -3793.36, -3731.17, -3750.57, -3228.75, 0.000, 0.000, 0.000, 14:15:14.866
83, -4173.20, -3868.29, -3966.98, -3420.91, 0.000, 0.000, 0.000, 14:15:14.867
84, -4042.40, -3873.27, -3907.95, -3347.00, 0.000, 0.000, 0.000, 14:15:14.867
85, -3743.51, -3769.78, -3744.03, -3174.84, 0.000, 0.000, 0.000, 14:15:14.881
86, -3805.15, -3742.45, -3763.43, -3236.91, 0.000, 0.000, 0.000, 14:15:14.881
87, -4182.10, -3869.09, -3967.73, -3434.04, 0.000, 0.000, 0.000, 14:15:14.911
88, -4050.48, -3869.15, -3910.19, -3343.51, 0.000, 0.000, 0.000, 14:15:14.911
89, -3735.17, -3776.71, -3750.01, -3182.26, 0.000, 0.000, 0.000, 14:15:14.912
90, -3791.01, -3738.10, -3757.51, -3230.21, 0.000, 0.000, 0.000, 14:15:14.912
91, -4158.63, -3859.92, -3969.25, -3425.43, 0.000, 0.000, 0.000, 14:15:14.912
92, -4035.59, -3863.61, -3912.90, -3334.66, 0.000, 0.000, 0.000, 14:15:14.912
93, -3739.48, -3767.27, -3739.23, -3173.32, 0.000, 0.000, 0.000, 14:15:14.913
94, -3811.07, -3746.86, -3768.21, -3232.04, 0.000, 0.000, 0.000, 14:15:14.913
95, -4196.16, -3874.16, -3977.65, -3440.95, 0.000, 0.000, 0.000, 14:15:14.926
96, -4037.09, -3868.22, -3923.21, -3338.92, 0.000, 0.000, 0.000, 14:15:14.926
97, -3743.34, -3773.13, -3748.38, -3178.94, 0.000, 0.000, 0.000, 14:15:14.942
98, -3812.61, -3745.73, -3765.27, -3236.69, 0.000, 0.000, 0.000, 14:15:14.942
99, -4162.93, -3869.63, -3965.93, -3430.36, 0.000, 0.000, 0.000, 14:15:14.972
100, -4051.26, -3869.25, -3914.09, -3339.03, 0.000, 0.000, 0.000, 14:15:14.972
