%OpenBCI Raw EEG Data
%
%Sample Rate = 200.0 Hz
%First Column = SampleIndex
%Last Column = Timestamp 
%Other Columns = EEG data in microvolts followed by Accel Data (in G) interleaved with Aux Data
0, -2083.36, -2318.59, -2754.69, -2372.57, 0.000, 0.000, 0.000, 14:20:41.714
1, -2353.93, -2599.12, -2988.68, -2579.76, 0.000, 0.000, 0.000, 14:20:41.744
2, -2193.08, -2433.95, -2837.71, -2449.87, 0.000, 0.000, 0.000, 14:20:41.744
3, -1943.12, -2152.22, -2602.21, -2241.25, 0.000, 0.000, 0.000, 14:20:41.759
4, -2074.90, -2314.22, -2747.05, -2362.42, 0.000, 0.000, 0.000, 14:20:41.759
5, -2330.30, -2587.79, -2985.77, -2568.26, 0.000, 0.000, 0.000, 14:20:41.759
6, -2204.31, -2422.57, -2833.04, -2443.62, 0.000, 0.000, 0.000, 14:20:41.760
7, -1936.44, -2141.89, -2590.69, -2231.02, 0.000, 0.000, 0.000, 14:20:41.760
8, -2066.07, -2301.73, -2734.73, -2363.85, 0.000, 0.000, 0.000, 14:20:41.760
9, -2321.94, -2583.38, -2973.78, -2568.38, 0.000, 0.000, 0.000, 14:20:41.761
10, -2185.72, -2422.28, -2821.02, -2429.33, 0.000, 0.000, 0.000, 14:20:41.761
11, -1916.33, -2137.95, -2581.26, -2223.56, 0.000, 0.000, 0.000, 14:20:41.774
12, -2059.10, -2305.25, -2734.52, -2356.66, 0.000, 0.000, 0.000, 14:20:41.774
13, -2326.22, -2578.24, -2966.89, -2564.00, 0.000, 0.000, 0.000, 14:20:41.789
14, -2176.17, -2419.67, -2820.32, -2431.65, 0.000, 0.000, 0.000, 14:20:41.789
15, -1904.96, -2133.95, -2576.73, -2221.13, 0.000, 0.000, 0.000, 14:20:41.804
16, -2049.56, -2290.37, -2725.92, -2360.91, 0.000, 0.000, 0.000, 14:20:41.804
17, -2319.74, -2571.16, -2962.31, -2560.96, 0.000, 0.000, 0.000, 14:20:41.806
18, -2173.85, -2412.22, -2807.95, -2423.38, 0.000, 0.000, 0.000, 14:20:41.806
19, -1914.61, -2134.34, -2573.74, -2216.20, 0.000, 0.000, 0.000, 14:20:41.820
20, -2049.69, -2293.56, -2723.32, -2348.97, 0.000, 0.000, 0.000, 14:20:41.820
21, -2317.83, -2572.25, -2953.29, -2558.54, 0.000, 0.000, 0.000, 14:20:41.834
22, -2178.23, -2402.47, -2805.95, -2425.01, 0.000, 0.000, 0.000, 14:20:41.834
23, -1903.69, -2128.54, -2559.84, -2208.61, 0.000, 0.000, 0.000, 14:20:41.835
24, -2063.64, -2296.17, -2727.05, -2358.15, 0.000, 0.000, 0.000, 14:20:41.835
25, -2309.18, -2560.88, -2947.38, -2548.75, 0.000, 0.000, 0.000, 14:20:41.850
26, -2166.66, -2405.71, -2801.54, -2425.01, 0.000, 0.000, 0.000, 14:20:41.850
27, -1904.65, -2123.46, -2575.78, -2209.57, 0.000, 0.000, 0.000, 14:20:41.864
28, -2046.04, -2290.71, -2728.18, -2355.19, 0.000, 0.000, 0.000, 14:20:41.864
29, -2311.24, -2560.53, -2956.25, -2548.87, 0.000, 0.000, 0.000, 14:20:41.865
30, -2166.05, -2397.41, -2798.92, -2410.99, 0.000, 0.000, 0.000, 14:20:41.865
31, -1896.12, -2115.79, -2563.57, -2212.69, 0.000, 0.000, 0.000, 14:20:41.879
32, -2050.57, -2292.12, -2726.76, -2354.40, 0.000, 0.000, 0.000, 14:20:41.879
33, -2298.34, -2560.09, -2953.57, -2548.08, 0.000, 0.000, 0.000, 14:20:41.894
34, -2160.91, -2400.97, -2808.63, -2418.91, 0.000, 0.000, 0.000, 14:20:41.894
35, -1902.48, -2120.14, -2563.54, -2206.99, 0.000, 0.000, 0.000, 14:20:41.895
36, -2070.31, -2304.72, -2731.70, -2354.63, 0.000, 0.000, 0.000, 14:20:41.895
37, -2307.33, -2566.69, -2961.54, -2549.58, 0.000, 0.000, 0.000, 14:20:41.909
38, -2173.23, -2398.32, -2809.04, -2421.07, 0.000, 0.000, 0.000, 14:20:41.910
39, -1905.77, -2123.32, -2562.13, -2209.03, 0.000, 0.000, 0.000, 14:20:41.925
40, -2054.45, -2291.09, -2733.56, -2364.18, 0.000, 0.000, 0.000, 14:20:41.925
41, -2314.72, -2569.80, -2961.46, -2559.38, 0.000, 0.000, 0.000, 14:20:41.925
42, -2162.81, -2406.99, -2804.99, -2417.94, 0.000, 0.000, 0.000, 14:20:41.925
43, -1908.12, -2124.14, -2564.76, -2212.20, 0.000, 0.000, 0.000, 14:20:41.939
44, -2060.72, -2298.38, -2739.76, -2360.36, 0.000, 0.000, 0.000, 14:20:41.939
45, -2309.22, -2571.87, -2964.06, -2553.07, 0.000, 0.000, 0.000, 14:20:41.954
46, -2160.57, -2395.81, -2803.43, -2411.37, 0.000, 0.000, 0.000, 14:20:41.955
47, -1905.54, -2124.21, -2568.33, -2207.46, 0.000, 0.000, 0.000, 14:20:41.956
48, -2064.09, -2310.04, -2745.79, -2357.37, 0.000, 0.000, 0.000, 14:20:41.956
49, -2322.88, -2569.38, -2957.96, -2553.49, 0.000, 0.000, 0.000, 14:20:41.970
50, -2161.89, -2397.16, -2802.70, -2411.68, 0.000, 0.000, 0.000, 14:20:41.970
51, -1908.18, -2125.30, -2574.21, -2206.97, 0.000, 0.000, 0.000, 14:20:41.985
52, -2069.21, -2299.40, -2734.85, -2353.51, 0.000, 0.000, 0.000, 14:20:41.985
53, -2311.47, -2565.66, -2964.54, -2557.62, 0.000, 0.000, 0.000, 14:20:41.986
54, -2166.17, -2406.07, -2815.67, -2416.04, 0.000, 0.000, 0.000, 14:20:41.986
55, -1892.96, -2115.01, -2561.48, -2202.15, 0.000, 0.000, 0.000, 14:20:41.999
56, -2063.94, -2300.40, -2743.28, -2356.79, 0.000, 0.000, 0.000, 14:20:41.999
57, -2313.90, -2565.29, -2965.22, -2556.37, 0.000, 0.000, 0.000, 14:20:42.015
58, -2161.72, -2392.55, -2806.72, -2415.73, 0.000, 0.000, 0.000, 14:20:42.015
59, -1890.08, -2110.92, -2561.27, -2201.10, 0.000, 0.000, 0.000, 14:20:42.015
60, -2050.39, -2301.06, -2733.90, -2359.61, 0.000, 0.000, 0.000, 14:20:42.015
61, -2310.52, -2562.16, -2951.77, -2553.00, 0.000, 0.000, 0.000, 14:20:42.029
62, -2153.19, -2394.69, -2801.03, -2414.83, 0.000, 0.000, 0.000, 14:20:42.029
63, -1912.50, -2125.07, -2569.23, -2212.86, 0.000, 0.000, 0.000, 14:20:42.044
64, -2073.52, -2301.66, -2743.33, -2364.87, 0.000, 0.000, 0.000, 14:20:42.044
65, -2319.84, -2557.67, -2954.49, -2550.90, 0.000, 0.000, 0.000, 14:20:42.045
66, -2157.35, -2395.48, -2799.05, -2419.86, 0.000, 0.000, 0.000, 14:20:42.045
67, -1911.99, -2127.33, -2578.89, -2208.07, 0.000, 0.000, 0.000, 14:20:42.059
68, -2065.89, -2310.49, -2750.09, -2365.02, 0.000, 0.000, 0.000, 14:20:42.059
69, -2323.50, -2563.87, -2958.20, -2555.58, 0.000, 0.000, 0.000, 14:20:42.074
70, -2168.06, -2392.39, -2800.57, -2409.30, 0.000, 0.000, 0.000, 14:20:42.074
71, -1900.51, -2123.38, -2572.09, -2210.28, 0.000, 0.000, 0.000, 14:20:42.074
72, -2082.24, -2310.49, -2750.24, -2366.06, 0.000, 0.000, 0.000, 14:20:42.075
73, -2325.41, -2570.60, -2964.73, -2555.28, 0.000, 0.000, 0.000, 14:20:42.089
74, -2166.30, -2407.40, -2812.20, -2422.31, 0.000, 0.000, 0.000, 14:20:42.089
75, -1906.20, -2128.15, -2574.02, -2207.69, 0.000, 0.000, 0.000, 14:20:42.104
76, -2063.07, -2315.16, -2746.16, -2360.05, 0.000, 0.000, 0.000, 14:20:42.104
77, -2300.72, -2558.81, -2945.43, -2546.78, 0.000, 0.000, 0.000, 14:20:42.105
78, -2154.48, -2376.47, -2782.90, -2414.22, 0.000, 0.000, 0.000, 14:20:42.105
79, -1894.18, -2109.93, -2560.71, -2204.33, 0.000, 0.000, 0.000, 14:20:42.125
80, -2064.90, -2306.29, -2744.10, -2356.96, 0.000, 0.000, 0.000, 14:20:42.126
81, -2302.78, -2560.18, -2953.38, -2544.68, 0.000, 0.000, 0.000, 14:20:42.134
82, -2157.38, -2380.64, -2796.25, -2412.18, 0.000, 0.000, 0.000, 14:20:42.135
83, -1903.70, -2111.83, -2562.83, -2202.80, 0.000, 0.000, 0.000, 14:20:42.135
84, -2067.06, -2314.59, -2744.76, -2365.72, 0.000, 0.000, 0.000, 14:20:42.135
85, -2329.20, -2571.54, -2965.89, -2555.15, 0.000, 0.000, 0.000, 14:20:42.149
86, -2160.72, -2388.92, -2794.41, -2411.91, 0.000, 0.000, 0.000, 14:20:42.149
87, -1896.21, -2111.11, -2567.90, -2203.46, 0.000, 0.000, 0.000, 14:20:42.179
88, -2077.49, -2313.31, -2756.74, -2369.16, 0.000, 0.000, 0.000, 14:20:42.179
89, -2328.24, -2565.69, -2961.43, -2558.56, 0.000, 0.000, 0.000, 14:20:42.179
90, -2155.14, -2393.61, -2801.26, -2412.75, 0.000, 0.000, 0.000, 14:20:42.179
91, -1911.03, -2125.04, -2572.41, -2203.50, 0.000, 0.000, 0.000, 14:20:42.180
92, -2069.79, -2318.49, -2752.86, -2365.57, 0.000, 0.000, 0.000, 14:20:42.180
93, -2313.90, -2561.06, -2958.39, -2550.19, 0.000, 0.000, 0.000, 14:20:42.181
94, -2142.04, -2386.15, -2795.66, -2413.19, 0.000, 0.000, 0.000, 14:20:42.181
95, -1906.42, -2109.80, -2564.45, -2211.60, 0.000, 0.000, 0.000, 14:20:42.194
96, -2074.73, -2323.87, -2757.06, -2372.79, 0.000, 0.000, 0.000, 14:20:42.194
97, -2332.15, -2565.11, -2964.11, -2557.41, 0.000, 0.000, 0.000, 14:20:42.209
98, -2164.30, -2395.53, -2796.60, -2412.91, 0.000, 0.000, 0.000, 14:20:42.209
99, -1892.82, -2107.15, -2556.62, -2194.54, 0.000, 0.000, 0.000, 14:20:42.224
100, -2083.81, -2322.05, -2751.50, -2369.31, 0.000, 0.000, 0.000, 14:20:42.224
101, -2318.87, -2566.42, -2965.39, -2553.72, 0.000, 0.000, 0.000, 14:20:42.224
102, -2165.84, -2384.41, -2792.02, -2406.96, 0.000, 0.000, 0.000, 14:20:42.224
103, -1897.27, -2112.03, -2562.95, -2207.31, 0.000, 0.000, 0.000, 14:20:42.239
104, -2084.61, -2323.83, -2757.91, -2368.88, 0.000, 0.000, 0.000, 14:20:42.240
105, -2312.49, -2571.44, -2960.40, -2548.04, 0.000, 0.000, 0.000, 14:20:42.256
106, -2151.27, -2392.26, -2798.70, -2410.86, 0.000, 0.000, 0.000, 14:20:42.256
107, -1908.10, -2112.25, -2556.97, -2197.72, 0.000, 0.000, 0.000, 14:20:42.256
108, -2085.41, -2314.76, -2756.98, -2373.33, 0.000, 0.000, 0.000, 14:20:42.256
109, -2315.65, -2565.75, -2960.70, -2554.26, 0.000, 0.000, 0.000, 14:20:42.269
110, -2158.75, -2390.76, -2792.58, -2401.83, 0.000, 0.000, 0.000, 14:20:42.269
111, -1888.61, -2120.50, -2562.04, -2201.01, 0.000, 0.000, 0.000, 14:20:42.285
112, -2090.61, -2331.25, -2752.40, -2377.24, 0.000, 0.000, 0.000, 14:20:42.285
113, -2320.83, -2566.02, -2954.85, -2546.33, 0.000, 0.000, 0.000, 14:20:42.286
114, -2148.43, -2393.83, -2794.96, -2406.24, 0.000, 0.000, 0.000, 14:20:42.286
115, -1897.77, -2124.08, -2566.44, -2202.61, 0.000, 0.000, 0.000, 14:20:42.301
116, -2080.67, -2328.84, -2757.58, -2378.11, 0.000, 0.000, 0.000, 14:20:42.301
117, -2323.50, -2575.23, -2961.00, -2545.94, 0.000, 0.000, 0.000, 14:20:42.314
118, -2158.38, -2382.55, -2791.86, -2405.08, 0.000, 0.000, 0.000, 14:20:42.314
119, -1888.53, -2114.26, -2564.83, -2202.98, 0.000, 0.000, 0.000, 14:20:42.315
120, -2084.36, -2326.56, -2761.44, -2369.66, 0.000, 0.000, 0.000, 14:20:42.315
121, -2313.22, -2558.13, -2957.14, -2547.27, 0.000, 0.000, 0.000, 14:20:42.329
122, -2147.51, -2384.37, -2797.39, -2408.18, 0.000, 0.000, 0.000, 14:20:42.329
123, -1896.12, -2104.09, -2559.38, -2197.80, 0.000, 0.000, 0.000, 14:20:42.344
124, -2089.58, -2332.23, -2759.30, -2373.03, 0.000, 0.000, 0.000, 14:20:42.344
125, -2317.74, -2567.11, -2962.40, -2549.30, 0.000, 0.000, 0.000, 14:20:42.344
126, -2168.70, -2390.83, -2795.02, -2404.72, 0.000, 0.000, 0.000, 14:20:42.344
127, -1894.98, -2116.83, -2561.18, -2203.00, 0.000, 0.000, 0.000, 14:20:42.359
128, -2092.03, -2332.41, -2762.59, -2380.51, 0.000, 0.000, 0.000, 14:20:42.359
129, -2308.63, -2556.14, -2949.01, -2549.73, 0.000, 0.000, 0.000, 14:20:42.389
130, -2156.76, -2379.22, -2789.45, -2401.99, 0.000, 0.000, 0.000, 14:20:42.389
131, -1894.98, -2112.74, -2556.21, -2209.73, 0.000, 0.000, 0.000, 14:20:42.390
132, -2097.26, -2327.51, -2764.23, -2382.16, 0.000, 0.000, 0.000, 14:20:42.390
133, -2317.38, -2571.49, -2957.83, -2558.80, 0.000, 0.000, 0.000, 14:20:42.390
134, -2152.43, -2380.68, -2784.41, -2401.86, 0.000, 0.000, 0.000, 14:20:42.390
135, -1895.02, -2110.38, -2557.43, -2200.87, 0.000, 0.000, 0.000, 14:20:42.391
136, -2101.65, -2332.66, -2772.77, -2389.33, 0.000, 0.000, 0.000, 14:20:42.391
137, -2311.33, -2560.76, -2950.13, -2550.72, 0.000, 0.000, 0.000, 14:20:42.405
138, -2157.81, -2377.38, -2791.41, -2404.04, 0.000, 0.000, 0.000, 14:20:42.405
139, -1895.20, -2119.35, -2564.84, -2202.85, 0.000, 0.000, 0.000, 14:20:42.419
140, -2090.61, -2330.87, -2769.97, -2381.93, 0.000, 0.000, 0.000, 14:20:42.419
141, -2302.30, -2558.84, -2956.41, -2544.59, 0.000, 0.000, 0.000, 14:20:42.435
142, -2149.66, -2381.07, -2788.97, -2406.16, 0.000, 0.000, 0.000, 14:20:42.435
143, -1891.99, -2109.53, -2549.71, -2201.64, 0.000, 0.000, 0.000, 14:20:42.436
144, -2089.41, -2328.64, -2756.26, -2388.77, 0.000, 0.000, 0.000, 14:20:42.436
145, -2309.45, -2566.70, -2952.22, -2554.19, 0.000, 0.000, 0.000, 14:20:42.450
146, -2156.30, -2379.35, -2785.91, -2399.68, 0.000, 0.000, 0.000, 14:20:42.450
147, -1902.61, -2121.59, -2562.94, -2203.16, 0.000, 0.000, 0.000, 14:20:42.464
148, -2088.87, -2336.37, -2767.93, -2380.21, 0.000, 0.000, 0.000, 14:20:42.464
149, -2309.04, -2559.69, -2950.17, -2555.88, 0.000, 0.000, 0.000, 14:20:42.464
150, -2148.82, -2383.38, -2787.63, -2407.73, 0.000, 0.000, 0.000, 14:20:42.465
151, -1887.43, -2110.54, -2555.96, -2195.68, 0.000, 0.000, 0.000, 14:20:42.479
152, -2081.76, -2340.68, -2766.13, -2381.03, 0.000, 0.000, 0.000, 14:20:42.479
153, -2314.73, -2559.88, -2949.32, -2546.74, 0.000, 0.000, 0.000, 14:20:42.494
154, -2140.95, -2370.84, -2780.77, -2397.12, 0.000, 0.000, 0.000, 14:20:42.494
155, -1890.98, -2113.54, -2552.00, -2202.36, 0.000, 0.000, 0.000, 14:20:42.502
156, -2085.70, -2337.03, -2769.28, -2386.37, 0.000, 0.000, 0.000, 14:20:42.502
157, -2311.27, -2560.64, -2951.93, -2545.60, 0.000, 0.000, 0.000, 14:20:42.509
158, -2134.22, -2379.95, -2784.40, -2401.08, 0.000, 0.000, 0.000, 14:20:42.509
159, -1891.33, -2108.56, -2555.11, -2200.81, 0.000, 0.000, 0.000, 14:20:42.524
160, -2095.09, -2345.08, -2769.37, -2384.38, 0.000, 0.000, 0.000, 14:20:42.524
161, -2320.35, -2562.72, -2953.22, -2550.72, 0.000, 0.000, 0.000, 14:20:42.525
162, -2137.03, -2381.43, -2784.75, -2399.30, 0.000, 0.000, 0.000, 14:20:42.525
163, -1894.61, -2113.11, -2559.45, -2206.62, 0.000, 0.000, 0.000, 14:20:42.539
164, -2096.51, -2344.37, -2775.69, -2390.54, 0.000, 0.000, 0.000, 14:20:42.540
165, -2318.64, -2571.43, -2957.69, -2551.47, 0.000, 0.000, 0.000, 14:20:42.555
166, -2137.22, -2370.98, -2782.02, -2397.86, 0.000, 0.000, 0.000, 14:20:42.555
167, -1899.31, -2104.25, -2562.66, -2202.74, 0.000, 0.000, 0.000, 14:20:42.556
168, -2106.76, -2347.12, -2778.58, -2392.58, 0.000, 0.000, 0.000, 14:20:42.556
169, -2311.80, -2570.00, -2959.39, -2555.51, 0.000, 0.000, 0.000, 14:20:42.570
170, -2148.72, -2385.41, -2792.23, -2404.11, 0.000, 0.000, 0.000, 14:20:42.570
171, -1891.51, -2113.93, -2556.78, -2197.92, 0.000, 0.000, 0.000, 14:20:42.585
172, -2108.66, -2348.00, -2778.00, -2387.59, 0.000, 0.000, 0.000, 14:20:42.585
173, -2309.56, -2561.22, -2953.69, -2544.26, 0.000, 0.000, 0.000, 14:20:42.586
174, -2143.02, -2371.21, -2778.96, -2400.19, 0.000, 0.000, 0.000, 14:20:42.586
175, -1895.83, -2108.72, -2548.51, -2197.65, 0.000, 0.000, 0.000, 14:20:42.599
176, -2092.62, -2347.68, -2770.33, -2391.47, 0.000, 0.000, 0.000, 14:20:42.600
177, -2305.77, -2564.46, -2947.15, -2552.09, 0.000, 0.000, 0.000, 14:20:42.614
178, -2124.37, -2368.50, -2773.49, -2395.71, 0.000, 0.000, 0.000, 14:20:42.615
179, -1877.76, -2110.90, -2556.91, -2195.52, 0.000, 0.000, 0.000, 14:20:42.615
180, -2086.27, -2346.36, -2770.94, -2395.69, 0.000, 0.000, 0.000, 14:20:42.615
181, -2309.68, -2560.54, -2946.30, -2548.75, 0.000, 0.000, 0.000, 14:20:42.629
182, -2140.25, -2374.80, -2776.49, -2395.85, 0.000, 0.000, 0.000, 14:20:42.629
183, -1879.83, -2113.77, -2551.60, -2198.61, 0.000, 0.000, 0.000, 14:20:42.644
184, -2096.06, -2349.56, -2771.08, -2390.00, 0.000, 0.000, 0.000, 14:20:42.644
185, -2310.71, -2553.52, -2947.43, -2545.22, 0.000, 0.000, 0.000, 14:20:42.645
186, -2126.16, -2367.01, -2773.58, -2397.85, 0.000, 0.000, 0.000, 14:20:42.645
187, -1881.31, -2102.81, -2551.15, -2196.31, 0.000, 0.000, 0.000, 14:20:42.659
188, -2105.97, -2346.77, -2776.27, -2396.30, 0.000, 0.000, 0.000, 14:20:42.659
189, -2302.79, -2562.82, -2947.53, -2544.20, 0.000, 0.000, 0.000, 14:20:42.674
190, -2134.66, -2368.07, -2774.38, -2397.47, 0.000, 0.000, 0.000, 14:20:42.675
191, -1882.03, -2099.49, -2547.26, -2203.10, 0.000, 0.000, 0.000, 14:20:42.675
192, -2115.65, -2349.55, -2781.26, -2398.01, 0.000, 0.000, 0.000, 14:20:42.675
193, -2302.18, -2560.06, -2950.13, -2552.75, 0.000, 0.000, 0.000, 14:20:42.689
194, -2146.37, -2369.44, -2777.93, -2401.10, 0.000, 0.000, 0.000, 14:20:42.689
195, -1886.00, -2107.99, -2554.96, -2201.54, 0.000, 0.000, 0.000, 14:20:42.705
196, -2105.34, -2348.58, -2775.30, -2404.08, 0.000, 0.000, 0.000, 14:20:42.705
197, -2312.91, -2553.00, -2945.24, -2555.41, 0.000, 0.000, 0.000, 14:20:42.706
198, -2144.13, -2365.53, -2772.73, -2396.72, 0.000, 0.000, 0.000, 14:20:42.706
199, -1878.35, -2104.45, -2548.57, -2191.48, 0.000, 0.000, 0.000, 14:20:42.719
200, -2106.62, -2349.62, -2773.31, -2394.53, 0.000, 0.000, 0.000, 14:20:42.719
0, -2304.56, -2559.76, -2953.24, -2550.53, 0.000, 0.000, 0.000, 14:20:42.720
1, -2128.91, -2359.69, -2769.41, -2392.39, 0.000, 0.000, 0.000, 14:20:42.734
2, -1888.48, -2099.33, -2550.56, -2193.37, 0.000, 0.000, 0.000, 14:20:42.734
3, -2096.93, -2346.82, -2776.75, -2395.13, 0.000, 0.000, 0.000, 14:20:42.750
4, -2304.87, -2565.65, -2950.01, -2549.56, 0.000, 0.000, 0.000, 14:20:42.750
5, -2127.37, -2367.77, -2769.67, -2397.07, 0.000, 0.000, 0.000, 14:20:42.750
6, -1878.39, -2107.81, -2548.95, -2194.81, 0.000, 0.000, 0.000, 14:20:42.750
7, -2109.37, -2354.96, -2775.04, -2396.45, 0.000, 0.000, 0.000, 14:20:42.779
8, -2299.22, -2557.15, -2954.08, -2548.35, 0.000, 0.000, 0.000, 14:20:42.779
9, -2123.75, -2366.69, -2779.69, -2391.87, 0.000, 0.000, 0.000, 14:20:42.779
10, -1887.27, -2108.59, -2560.44, -2198.48, 0.000, 0.000, 0.000, 14:20:42.779
11, -2116.70, -2366.37, -2799.46, -2406.78, 0.000, 0.000, 0.000, 14:20:42.780
12, -2323.39, -2575.49, -2969.31, -2558.85, 0.000, 0.000, 0.000, 14:20:42.780
13, -2139.40, -2381.48, -2788.56, -2397.81, 0.000, 0.000, 0.000, 14:20:42.795
14, -1886.11, -2118.54, -2567.21, -2198.99, 0.000, 0.000, 0.000, 14:20:42.795
15, -2114.43, -2366.10, -2791.45, -2404.38, 0.000, 0.000, 0.000, 14:20:42.811
16, -2305.62, -2560.80, -2951.83, -2557.44, 0.000, 0.000, 0.000, 14:20:42.811
17, -2132.11, -2360.11, -2774.59, -2399.46, 0.000, 0.000, 0.000, 14:20:42.811
18, -1878.89, -2099.37, -2549.79, -2196.84, 0.000, 0.000, 0.000, 14:20:42.811
19, -2118.19, -2354.97, -2791.30, -2396.15, 0.000, 0.000, 0.000, 14:20:42.831
20, -2310.42, -2560.27, -2952.72, -2549.18, 0.000, 0.000, 0.000, 14:20:42.831
21, -2120.80, -2357.98, -2771.43, -2391.76, 0.000, 0.000, 0.000, 14:20:42.839
22, -1884.46, -2097.02, -2547.11, -2198.43, 0.000, 0.000, 0.000, 14:20:42.839
23, -2122.33, -2366.71, -2793.03, -2405.73, 0.000, 0.000, 0.000, 14:20:42.839
24, -2312.49, -2561.06, -2949.47, -2551.62, 0.000, 0.000, 0.000, 14:20:42.839
25, -2138.14, -2355.10, -2772.65, -2386.86, 0.000, 0.000, 0.000, 14:20:42.870
26, -1877.70, -2097.81, -2549.75, -2189.81, 0.000, 0.000, 0.000, 14:20:42.870
27, -2108.64, -2360.88, -2785.58, -2399.01, 0.000, 0.000, 0.000, 14:20:42.870
28, -2298.44, -2555.39, -2948.75, -2544.49, 0.000, 0.000, 0.000, 14:20:42.870
29, -2120.70, -2356.27, -2766.19, -2379.66, 0.000, 0.000, 0.000, 14:20:42.872
30, -1873.46, -2105.16, -2546.13, -2186.78, 0.000, 0.000, 0.000, 14:20:42.872
31, -2114.16, -2356.24, -2786.41, -2397.57, 0.000, 0.000, 0.000, 14:20:42.885
32, -2306.43, -2560.65, -2951.36, -2549.35, 0.000, 0.000, 0.000, 14:20:42.885
33, -2126.93, -2360.58, -2767.07, -2387.85, 0.000, 0.000, 0.000, 14:20:42.899
34, -1881.38, -2096.48, -2544.17, -2192.70, 0.000, 0.000, 0.000, 14:20:42.899
35, -2125.67, -2361.09, -2795.81, -2408.20, 0.000, 0.000, 0.000, 14:20:42.900
36, -2317.42, -2567.54, -2961.30, -2556.90, 0.000, 0.000, 0.000, 14:20:42.900
37, -2132.37, -2363.83, -2771.73, -2394.27, 0.000, 0.000, 0.000, 14:20:42.914
38, -1890.38, -2112.78, -2556.74, -2201.09, 0.000, 0.000, 0.000, 14:20:42.914
39, -2128.19, -2373.26, -2801.50, -2407.12, 0.000, 0.000, 0.000, 14:20:42.930
40, -2323.18, -2561.53, -2953.79, -2548.83, 0.000, 0.000, 0.000, 14:20:42.930
41, -2133.38, -2369.37, -2766.78, -2392.78, 0.000, 0.000, 0.000, 14:20:42.930
42, -1875.91, -2093.95, -2542.27, -2189.17, 0.000, 0.000, 0.000, 14:20:42.930
43, -2133.68, -2376.66, -2793.05, -2411.95, 0.000, 0.000, 0.000, 14:20:42.945
44, -2312.66, -2559.19, -2944.05, -2547.11, 0.000, 0.000, 0.000, 14:20:42.945
45, -2126.48, -2353.98, -2767.71, -2386.25, 0.000, 0.000, 0.000, 14:20:42.959
46, -1880.52, -2092.05, -2543.84, -2194.12, 0.000, 0.000, 0.000, 14:20:42.959
47, -2126.22, -2369.21, -2799.98, -2407.06, 0.000, 0.000, 0.000, 14:20:42.959
48, -2315.94, -2568.78, -2953.35, -2550.42, 0.000, 0.000, 0.000, 14:20:42.959
49, -2131.32, -2355.75, -2760.93, -2385.29, 0.000, 0.000, 0.000, 14:20:42.974
50, -1885.74, -2098.76, -2543.56, -2191.40, 0.000, 0.000, 0.000, 14:20:42.974
51, -2123.91, -2373.61, -2797.92, -2415.69, 0.000, 0.000, 0.000, 14:20:42.990
52, -2320.77, -2559.09, -2953.37, -2552.00, 0.000, 0.000, 0.000, 14:20:42.990
53, -2120.44, -2354.85, -2767.32, -2385.96, 0.000, 0.000, 0.000, 14:20:42.990
54, -1878.67, -2091.99, -2547.76, -2194.33, 0.000, 0.000, 0.000, 14:20:42.990
55, -2125.40, -2377.50, -2800.17, -2418.46, 0.000, 0.000, 0.000, 14:20:43.005
56, -2323.86, -2562.79, -2955.75, -2556.70, 0.000, 0.000, 0.000, 14:20:43.005
57, -2128.63, -2357.56, -2769.42, -2389.10, 0.000, 0.000, 0.000, 14:20:43.019
58, -1883.78, -2096.96, -2546.53, -2195.94, 0.000, 0.000, 0.000, 14:20:43.019
59, -2130.17, -2365.99, -2795.00, -2419.01, 0.000, 0.000, 0.000, 14:20:43.020
60, -2320.65, -2558.45, -2959.44, -2548.31, 0.000, 0.000, 0.000, 14:20:43.020
61, -2126.33, -2356.85, -2765.21, -2379.09, 0.000, 0.000, 0.000, 14:20:43.035
62, -1875.94, -2091.43, -2544.99, -2191.52, 0.000, 0.000, 0.000, 14:20:43.035
63, -2121.20, -2370.83, -2795.99, -2414.87, 0.000, 0.000, 0.000, 14:20:43.049
64, -2307.16, -2564.66, -2953.72, -2548.89, 0.000, 0.000, 0.000, 14:20:43.049
65, -2120.72, -2350.57, -2766.29, -2387.38, 0.000, 0.000, 0.000, 14:20:43.050
66, -1877.69, -2092.50, -2538.61, -2192.55, 0.000, 0.000, 0.000, 14:20:43.050
67, -2130.75, -2372.89, -2797.56, -2418.33, 0.000, 0.000, 0.000, 14:20:43.064
68, -2303.40, -2559.19, -2952.34, -2552.01, 0.000, 0.000, 0.000, 14:20:43.064
69, -2126.88, -2357.02, -2766.86, -2381.72, 0.000, 0.000, 0.000, 14:20:43.079
70, -1869.92, -2100.05, -2546.11, -2192.94, 0.000, 0.000, 0.000, 14:20:43.079
71, -2139.02, -2384.24, -2804.38, -2417.17, 0.000, 0.000, 0.000, 14:20:43.080
72, -2319.22, -2562.24, -2952.21, -2548.14, 0.000, 0.000, 0.000, 14:20:43.080
73, -2129.86, -2344.29, -2766.20, -2382.66, 0.000, 0.000, 0.000, 14:20:43.094
74, -1874.82, -2093.72, -2545.34, -2196.55, 0.000, 0.000, 0.000, 14:20:43.095
75, -2126.82, -2379.07, -2806.30, -2426.06, 0.000, 0.000, 0.000, 14:20:43.110
76, -2315.83, -2555.23, -2955.99, -2557.24, 0.000, 0.000, 0.000, 14:20:43.110
77, -2129.36, -2356.71, -2766.73, -2380.39, 0.000, 0.000, 0.000, 14:20:43.110
78, -1874.53, -2095.14, -2547.91, -2195.24, 0.000, 0.000, 0.000, 14:20:43.110
79, -2132.31, -2372.37, -2797.97, -2415.00, 0.000, 0.000, 0.000, 14:20:43.125
80, -2317.03, -2551.79, -2952.29, -2549.73, 0.000, 0.000, 0.000, 14:20:43.125
81, -2122.51, -2349.17, -2764.06, -2380.01, 0.000, 0.000, 0.000, 14:20:43.140
82, -1882.54, -2098.02, -2553.51, -2196.37, 0.000, 0.000, 0.000, 14:20:43.140
83, -2145.93, -2385.84, -2809.56, -2425.94, 0.000, 0.000, 0.000, 14:20:43.140
84, -2317.14, -2559.08, -2955.21, -2544.06, 0.000, 0.000, 0.000, 14:20:43.140
85, -2122.15, -2347.63, -2763.01, -2377.88, 0.000, 0.000, 0.000, 14:20:43.155
86, -1882.92, -2095.59, -2549.78, -2188.53, 0.000, 0.000, 0.000, 14:20:43.155
87, -2142.14, -2375.44, -2807.23, -2419.41, 0.000, 0.000, 0.000, 14:20:43.170
88, -2318.69, -2554.74, -2951.75, -2543.19, 0.000, 0.000, 0.000, 14:20:43.170
89, -2126.21, -2347.29, -2761.16, -2381.07, 0.000, 0.000, 0.000, 14:20:43.170
90, -1885.70, -2099.37, -2550.28, -2189.94, 0.000, 0.000, 0.000, 14:20:43.170
91, -2129.32, -2386.71, -2812.03, -2424.94, 0.000, 0.000, 0.000, 14:20:43.185
92, -2302.64, -2558.23, -2946.73, -2547.30, 0.000, 0.000, 0.000, 14:20:43.185
93, -2123.22, -2347.13, -2760.35, -2381.98, 0.000, 0.000, 0.000, 14:20:43.199
94, -1888.66, -2089.78, -2540.87, -2192.38, 0.000, 0.000, 0.000, 14:20:43.199
95, -2143.57, -2374.57, -2804.95, -2422.00, 0.000, 0.000, 0.000, 14:20:43.200
96, -2313.22, -2564.37, -2948.40, -2541.44, 0.000, 0.000, 0.000, 14:20:43.200
97, -2112.41, -2338.42, -2753.61, -2370.92, 0.000, 0.000, 0.000, 14:20:43.214
98, -1865.00, -2094.10, -2540.83, -2181.96, 0.000, 0.000, 0.000, 14:20:43.214
99, -2135.77, -2389.61, -2810.01, -2419.74, 0.000, 0.000, 0.000, 14:20:43.229
100, -2312.63, -2558.13, -2948.92, -2543.04, 0.000, 0.000, 0.000, 14:20:43.229
101, -2103.73, -2341.39, -2753.25, -2370.94, 0.000, 0.000, 0.000, 14:20:43.230
102, -1875.38, -2092.12, -2543.39, -2193.66, 0.000, 0.000, 0.000, 14:20:43.230
103, -2147.13, -2386.89, -2814.97, -2422.16, 0.000, 0.000, 0.000, 14:20:43.244
104, -2310.95, -2563.62, -2947.14, -2545.79, 0.000, 0.000, 0.000, 14:20:43.245
105, -2121.03, -2345.68, -2753.84, -2374.05, 0.000, 0.000, 0.000, 14:20:43.259
106, -1886.22, -2096.21, -2547.03, -2187.98, 0.000, 0.000, 0.000, 14:20:43.259
107, -2146.63, -2391.48, -2816.83, -2427.94, 0.000, 0.000, 0.000, 14:20:43.259
108, -2307.82, -2547.94, -2946.93, -2541.96, 0.000, 0.000, 0.000, 14:20:43.259
109, -2117.79, -2334.32, -2759.41, -2375.77, 0.000, 0.000, 0.000, 14:20:43.290
110, -1876.81, -2095.66, -2548.75, -2191.92, 0.000, 0.000, 0.000, 14:20:43.290
111, -2154.02, -2387.97, -2823.24, -2429.03, 0.000, 0.000, 0.000, 14:20:43.290
112, -2301.26, -2559.15, -2949.30, -2543.81, 0.000, 0.000, 0.000, 14:20:43.291
113, -2115.00, -2345.13, -2766.80, -2375.75, 0.000, 0.000, 0.000, 14:20:43.291
114, -1887.76, -2095.64, -2544.60, -2196.79, 0.000, 0.000, 0.000, 14:20:43.291
115, -2148.97, -2396.77, -2829.27, -2429.19, 0.000, 0.000, 0.000, 14:20:43.305
116, -2309.66, -2562.21, -2956.24, -2543.48, 0.000, 0.000, 0.000, 14:20:43.305
117, -2115.47, -2349.45, -2762.50, -2378.46, 0.000, 0.000, 0.000, 14:20:43.335
118, -1863.99, -2090.97, -2545.02, -2185.76, 0.000, 0.000, 0.000, 14:20:43.335
119, -2148.92, -2396.70, -2817.47, -2429.13, 0.000, 0.000, 0.000, 14:20:43.335
120, -2295.23, -2550.19, -2941.68, -2538.44, 0.000, 0.000, 0.000, 14:20:43.335
121, -2100.93, -2338.06, -2741.68, -2367.54, 0.000, 0.000, 0.000, 14:20:43.336
122, -1868.09, -2090.94, -2542.69, -2184.33, 0.000, 0.000, 0.000, 14:20:43.336
123, -2129.78, -2381.52, -2809.37, -2426.14, 0.000, 0.000, 0.000, 14:20:43.337
124, -2303.45, -2547.80, -2944.97, -2540.52, 0.000, 0.000, 0.000, 14:20:43.337
125, -2102.70, -2337.45, -2750.15, -2368.22, 0.000, 0.000, 0.000, 14:20:43.349
126, -1864.89, -2083.50, -2534.52, -2191.20, 0.000, 0.000, 0.000, 14:20:43.349
127, -2141.63, -2388.16, -2813.69, -2425.38, 0.000, 0.000, 0.000, 14:20:43.364
128, -2298.99, -2552.95, -2942.76, -2543.26, 0.000, 0.000, 0.000, 14:20:43.364
129, -2115.67, -2341.06, -2755.55, -2373.52, 0.000, 0.000, 0.000, 14:20:43.379
130, -1865.85, -2096.47, -2543.47, -2190.47, 0.000, 0.000, 0.000, 14:20:43.380
131, -2153.79, -2395.91, -2824.16, -2433.52, 0.000, 0.000, 0.000, 14:20:43.380
132, -2318.88, -2559.54, -2945.53, -2546.15, 0.000, 0.000, 0.000, 14:20:43.380
133, -2105.01, -2340.81, -2749.68, -2374.90, 0.000, 0.000, 0.000, 14:20:43.394
134, -1886.04, -2100.68, -2553.70, -2194.08, 0.000, 0.000, 0.000, 14:20:43.394
135, -2171.04, -2409.86, -2835.93, -2442.45, 0.000, 0.000, 0.000, 14:20:43.409
136, -2308.42, -2560.24, -2952.67, -2545.25, 0.000, 0.000, 0.000, 14:20:43.409
137, -2112.91, -2343.39, -2756.42, -2373.05, 0.000, 0.000, 0.000, 14:20:43.410
138, -1889.20, -2102.74, -2551.47, -2194.21, 0.000, 0.000, 0.000, 14:20:43.410
139, -2155.31, -2410.49, -2830.54, -2438.79, 0.000, 0.000, 0.000, 14:20:43.424
140, -2307.88, -2552.49, -2938.82, -2540.57, 0.000, 0.000, 0.000, 14:20:43.424
141, -2105.70, -2340.24, -2751.75, -2365.25, 0.000, 0.000, 0.000, 14:20:43.439
142, -1879.25, -2096.77, -2552.29, -2194.48, 0.000, 0.000, 0.000, 14:20:43.440
143, -2151.39, -2399.44, -2823.47, -2434.92, 0.000, 0.000, 0.000, 14:20:43.440
144, -2308.38, -2554.17, -2944.53, -2538.17, 0.000, 0.000, 0.000, 14:20:43.440
145, -2103.67, -2332.05, -2749.01, -2370.64, 0.000, 0.000, 0.000, 14:20:43.455
146, -1872.32, -2092.23, -2539.98, -2188.37, 0.000, 0.000, 0.000, 14:20:43.455
147, -2149.86, -2398.38, -2821.55, -2439.92, 0.000, 0.000, 0.000, 14:20:43.469
148, -2309.76, -2550.01, -2939.22, -2535.82, 0.000, 0.000, 0.000, 14:20:43.469
149, -2103.95, -2335.74, -2740.32, -2362.23, 0.000, 0.000, 0.000, 14:20:43.470
150, -1881.72, -2096.05, -2548.06, -2191.46, 0.000, 0.000, 0.000, 14:20:43.470
151, -2145.57, -2400.82, -2820.94, -2438.43, 0.000, 0.000, 0.000, 14:20:43.499
152, -2306.51, -2547.59, -2941.92, -2539.89, 0.000, 0.000, 0.000, 14:20:43.500
153, -2106.36, -2329.04, -2747.98, -2368.19, 0.000, 0.000, 0.000, 14:20:43.500
154, -1875.08, -2097.35, -2551.34, -2194.56, 0.000, 0.000, 0.000, 14:20:43.500
155, -2168.86, -2415.16, -2829.34, -2444.70, 0.000, 0.000, 0.000, 14:20:43.500
156, -2315.04, -2576.21, -2957.86, -2554.22, 0.000, 0.000, 0.000, 14:20:43.500
157, -2118.85, -2351.56, -2754.84, -2377.94, 0.000, 0.000, 0.000, 14:20:43.522
158, -1891.65, -2111.16, -2557.58, -2203.94, 0.000, 0.000, 0.000, 14:20:43.522
159, -2175.57, -2426.95, -2840.91, -2448.87, 0.000, 0.000, 0.000, 14:20:43.529
160, -2299.16, -2555.56, -2944.94, -2537.90, 0.000, 0.000, 0.000, 14:20:43.529
161, -2105.60, -2331.85, -2748.33, -2362.38, 0.000, 0.000, 0.000, 14:20:43.530
162, -1872.46, -2093.97, -2550.20, -2188.24, 0.000, 0.000, 0.000, 14:20:43.530
163, -2165.55, -2403.44, -2826.45, -2438.55, 0.000, 0.000, 0.000, 14:20:43.544
164, -2300.80, -2548.56, -2933.75, -2537.65, 0.000, 0.000, 0.000, 14:20:43.544
165, -2099.29, -2337.16, -2739.27, -2361.29, 0.000, 0.000, 0.000, 14:20:43.559
166, -1874.87, -2094.47, -2550.71, -2180.57, 0.000, 0.000, 0.000, 14:20:43.559
167, -2159.53, -2404.95, -2832.07, -2437.79, 0.000, 0.000, 0.000, 14:20:43.559
168, -2301.21, -2545.48, -2941.28, -2534.45, 0.000, 0.000, 0.000, 14:20:43.559
169, -2091.21, -2329.56, -2739.66, -2363.73, 0.000, 0.000, 0.000, 14:20:43.575
170, -1878.64, -2090.60, -2543.82, -2189.17, 0.000, 0.000, 0.000, 14:20:43.575
171, -2160.49, -2409.79, -2833.93, -2446.20, 0.000, 0.000, 0.000, 14:20:43.589
172, -2304.43, -2553.85, -2937.65, -2536.05, 0.000, 0.000, 0.000, 14:20:43.589
173, -2090.64, -2323.00, -2738.11, -2362.27, 0.000, 0.000, 0.000, 14:20:43.589
174, -1880.40, -2087.29, -2538.74, -2186.17, 0.000, 0.000, 0.000, 14:20:43.589
175, -2177.90, -2408.24, -2834.61, -2443.80, 0.000, 0.000, 0.000, 14:20:43.605
176, -2302.90, -2555.61, -2952.36, -2542.48, 0.000, 0.000, 0.000, 14:20:43.605
177, -2101.81, -2329.60, -2746.99, -2367.37, 0.000, 0.000, 0.000, 14:20:43.620
178, -1877.92, -2099.35, -2556.69, -2195.96, 0.000, 0.000, 0.000, 14:20:43.620
179, -2166.56, -2416.21, -2839.27, -2442.10, 0.000, 0.000, 0.000, 14:20:43.620
180, -2308.84, -2550.70, -2946.40, -2534.91, 0.000, 0.000, 0.000, 14:20:43.620
181, -2101.39, -2330.79, -2746.13, -2360.06, 0.000, 0.000, 0.000, 14:20:43.634
182, -1887.49, -2099.91, -2554.38, -2195.53, 0.000, 0.000, 0.000, 14:20:43.634
183, -2167.07, -2417.74, -2833.21, -2451.09, 0.000, 0.000, 0.000, 14:20:43.650
184, -2296.06, -2540.60, -2939.54, -2537.27, 0.000, 0.000, 0.000, 14:20:43.650
185, -2094.22, -2320.97, -2739.05, -2359.07, 0.000, 0.000, 0.000, 14:20:43.650
186, -1868.90, -2092.20, -2548.97, -2191.43, 0.000, 0.000, 0.000, 14:20:43.650
187, -2164.41, -2418.45, -2840.09, -2454.32, 0.000, 0.000, 0.000, 14:20:43.664
188, -2302.66, -2557.28, -2948.82, -2540.64, 0.000, 0.000, 0.000, 14:20:43.664
189, -2104.38, -2324.39, -2735.50, -2357.46, 0.000, 0.000, 0.000, 14:20:43.679
190, -1879.65, -2104.42, -2551.61, -2190.65, 0.000, 0.000, 0.000, 14:20:43.679
191, -2170.46, -2417.62, -2840.00, -2454.84, 0.000, 0.000, 0.000, 14:20:43.680
192, -2293.03, -2548.15, -2939.75, -2543.09, 0.000, 0.000, 0.000, 14:20:43.680
193, -2102.34, -2325.31, -2738.81, -2365.33, 0.000, 0.000, 0.000, 14:20:43.694
194, -1878.48, -2105.42, -2552.63, -2192.53, 0.000, 0.000, 0.000, 14:20:43.694
195, -2166.20, -2422.27, -2837.21, -2446.63, 0.000, 0.000, 0.000, 14:20:43.709
196, -2311.91, -2554.97, -2943.52, -2545.36, 0.000, 0.000, 0.000, 14:20:43.709
197, -2095.97, -2319.57, -2742.44, -2362.91, 0.000, 0.000, 0.000, 14:20:43.709
198, -1873.06, -2097.20, -2548.50, -2199.01, 0.000, 0.000, 0.000, 14:20:43.709
199, -2177.53, -2417.21, -2840.71, -2457.07, 0.000, 0.000, 0.000, 14:20:43.724
200, -2300.23, -2544.44, -2941.32, -2534.58, 0.000, 0.000, 0.000, 14:20:43.724
0, -2103.01, -2321.94, -2735.59, -2358.85, 0.000, 0.000, 0.000, 14:20:43.724
1, -1862.67, -2098.05, -2545.39, -2193.57, 0.000, 0.000, 0.000, 14:20:43.740
2, -2185.80, -2421.19, -2847.41, -2447.63, 0.000, 0.000, 0.000, 14:20:43.740
3, -2305.28, -2544.37, -2941.18, -2536.42, 0.000, 0.000, 0.000, 14:20:43.756
4, -2097.20, -2325.15, -2741.17, -2362.78, 0.000, 0.000, 0.000, 14:20:43.756
5, -1889.51, -2101.74, -2557.31, -2197.51, 0.000, 0.000, 0.000, 14:20:43.757
6, -2172.79, -2423.27, -2847.17, -2457.60, 0.000, 0.000, 0.000, 14:20:43.757
7, -2307.73, -2551.44, -2942.12, -2541.06, 0.000, 0.000, 0.000, 14:20:43.770
8, -2099.46, -2319.25, -2738.93, -2355.35, 0.000, 0.000, 0.000, 14:20:43.770
9, -1866.54, -2091.19, -2549.91, -2182.67, 0.000, 0.000, 0.000, 14:20:43.784
10, -2188.50, -2420.87, -2845.22, -2451.67, 0.000, 0.000, 0.000, 14:20:43.784
11, -2308.81, -2548.19, -2942.47, -2535.83, 0.000, 0.000, 0.000, 14:20:43.785
12, -2088.95, -2322.60, -2736.38, -2358.84, 0.000, 0.000, 0.000, 14:20:43.785
13, -1888.08, -2096.55, -2553.52, -2193.81, 0.000, 0.000, 0.000, 14:20:43.800
14, -2175.89, -2428.80, -2846.35, -2458.36, 0.000, 0.000, 0.000, 14:20:43.800
15, -2293.85, -2539.49, -2936.86, -2537.82, 0.000, 0.000, 0.000, 14:20:43.814
16, -2085.14, -2323.67, -2732.18, -2358.51, 0.000, 0.000, 0.000, 14:20:43.814
17, -1877.47, -2102.91, -2554.30, -2190.87, 0.000, 0.000, 0.000, 14:20:43.815
18, -2173.04, -2420.70, -2846.05, -2455.17, 0.000, 0.000, 0.000, 14:20:43.815
19, -2299.34, -2539.21, -2934.56, -2536.86, 0.000, 0.000, 0.000, 14:20:43.829
20, -2095.55, -2314.22, -2730.34, -2354.38, 0.000, 0.000, 0.000, 14:20:43.829
21, -1887.75, -2107.49, -2555.76, -2198.67, 0.000, 0.000, 0.000, 14:20:43.845
22, -2188.32, -2432.41, -2850.15, -2456.51, 0.000, 0.000, 0.000, 14:20:43.845
23, -2287.20, -2548.56, -2943.36, -2537.59, 0.000, 0.000, 0.000, 14:20:43.845
24, -2096.89, -2319.86, -2739.24, -2357.69, 0.000, 0.000, 0.000, 14:20:43.845
25, -1891.53, -2107.26, -2558.17, -2202.28, 0.000, 0.000, 0.000, 14:20:43.859
26, -2182.88, -2435.78, -2853.68, -2458.32, 0.000, 0.000, 0.000, 14:20:43.859
27, -2301.75, -2543.17, -2934.90, -2538.86, 0.000, 0.000, 0.000, 14:20:43.874
28, -2090.50, -2318.80, -2732.98, -2357.09, 0.000, 0.000, 0.000, 14:20:43.874
29, -1880.04, -2106.85, -2547.94, -2199.83, 0.000, 0.000, 0.000, 14:20:43.889
30, -2183.55, -2428.60, -2852.00, -2456.28, 0.000, 0.000, 0.000, 14:20:43.890
31, -2285.75, -2543.32, -2928.63, -2530.94, 0.000, 0.000, 0.000, 14:20:43.890
32, -2088.41, -2308.35, -2727.79, -2350.59, 0.000, 0.000, 0.000, 14:20:43.890
33, -1882.78, -2096.58, -2548.03, -2193.26, 0.000, 0.000, 0.000, 14:20:43.905
34, -2168.10, -2429.98, -2845.88, -2454.16, 0.000, 0.000, 0.000, 14:20:43.906
35, -2277.99, -2537.18, -2927.51, -2525.81, 0.000, 0.000, 0.000, 14:20:43.906
36, -2077.25, -2301.62, -2719.90, -2343.17, 0.000, 0.000, 0.000, 14:20:43.906
37, -1886.64, -2101.80, -2553.53, -2200.79, 0.000, 0.000, 0.000, 14:20:43.920
38, -2181.96, -2439.57, -2851.05, -2455.87, 0.000, 0.000, 0.000, 14:20:43.920
39, -2292.79, -2536.77, -2931.35, -2525.27, 0.000, 0.000, 0.000, 14:20:43.936
40, -2077.96, -2305.75, -2722.54, -2346.22, 0.000, 0.000, 0.000, 14:20:43.936
41, -1884.43, -2101.14, -2550.19, -2205.22, 0.000, 0.000, 0.000, 14:20:43.936
42, -2169.30, -2442.64, -2851.28, -2460.71, 0.000, 0.000, 0.000, 14:20:43.936
43, -2302.64, -2543.18, -2934.15, -2528.34, 0.000, 0.000, 0.000, 14:20:43.949
44, -2074.49, -2308.43, -2724.79, -2353.03, 0.000, 0.000, 0.000, 14:20:43.949
45, -1886.70, -2103.93, -2557.03, -2202.40, 0.000, 0.000, 0.000, 14:20:43.964
46, -2200.48, -2442.36, -2860.69, -2462.92, 0.000, 0.000, 0.000, 14:20:43.964
47, -2301.28, -2545.62, -2935.27, -2535.54, 0.000, 0.000, 0.000, 14:20:43.964
48, -2092.96, -2314.34, -2729.56, -2353.26, 0.000, 0.000, 0.000, 14:20:43.964
49, -1888.70, -2110.97, -2551.64, -2203.54, 0.000, 0.000, 0.000, 14:20:43.979
50, -2183.97, -2438.98, -2860.94, -2464.46, 0.000, 0.000, 0.000, 14:20:43.979
51, -2303.13, -2550.39, -2936.68, -2533.54, 0.000, 0.000, 0.000, 14:20:43.994
52, -2085.22, -2311.97, -2721.35, -2349.47, 0.000, 0.000, 0.000, 14:20:43.994
53, -1884.81, -2104.25, -2549.84, -2199.14, 0.000, 0.000, 0.000, 14:20:43.994
54, -2186.45, -2438.71, -2845.47, -2460.85, 0.000, 0.000, 0.000, 14:20:43.995
55, -2289.67, -2536.27, -2920.92, -2520.42, 0.000, 0.000, 0.000, 14:20:44.010
56, -2071.61, -2296.24, -2717.15, -2347.33, 0.000, 0.000, 0.000, 14:20:44.010
57, -1895.91, -2106.79, -2559.40, -2205.75, 0.000, 0.000, 0.000, 14:20:44.024
58, -2191.87, -2434.94, -2851.97, -2462.97, 0.000, 0.000, 0.000, 14:20:44.024
59, -2292.98, -2541.70, -2924.85, -2531.69, 0.000, 0.000, 0.000, 14:20:44.025
60, -2088.23, -2313.05, -2727.30, -2349.02, 0.000, 0.000, 0.000, 14:20:44.025
61, -1878.99, -2104.48, -2558.88, -2197.72, 0.000, 0.000, 0.000, 14:20:44.055
62, -2185.77, -2434.89, -2857.95, -2462.54, 0.000, 0.000, 0.000, 14:20:44.055
63, -2288.42, -2534.98, -2928.58, -2530.59, 0.000, 0.000, 0.000, 14:20:44.056
64, -2074.05, -2304.83, -2725.84, -2346.51, 0.000, 0.000, 0.000, 14:20:44.056
65, -1880.04, -2106.98, -2552.85, -2202.27, 0.000, 0.000, 0.000, 14:20:44.056
66, -2190.85, -2441.26, -2852.42, -2462.37, 0.000, 0.000, 0.000, 14:20:44.056
67, -2288.92, -2537.73, -2934.74, -2529.17, 0.000, 0.000, 0.000, 14:20:44.069
68, -2077.96, -2314.40, -2728.51, -2347.73, 0.000, 0.000, 0.000, 14:20:44.069
69, -1885.39, -2108.99, -2561.19, -2208.95, 0.000, 0.000, 0.000, 14:20:44.084
70, -2186.74, -2443.40, -2860.75, -2470.42, 0.000, 0.000, 0.000, 14:20:44.085
71, -2295.03, -2534.77, -2926.33, -2525.64, 0.000, 0.000, 0.000, 14:20:44.085
72, -2067.47, -2310.82, -2724.66, -2343.93, 0.000, 0.000, 0.000, 14:20:44.085
73, -1873.00, -2105.50, -2556.43, -2204.53, 0.000, 0.000, 0.000, 14:20:44.106
74, -2181.58, -2437.52, -2860.52, -2467.71, 0.000, 0.000, 0.000, 14:20:44.106
75, -2297.00, -2535.17, -2928.08, -2527.35, 0.000, 0.000, 0.000, 14:20:44.114
76, -2075.72, -2304.75, -2727.51, -2346.73, 0.000, 0.000, 0.000, 14:20:44.115
77, -1883.91, -2112.63, -2566.44, -2208.00, 0.000, 0.000, 0.000, 14:20:44.115
78, -2192.11, -2445.20, -2854.57, -2472.01, 0.000, 0.000, 0.000, 14:20:44.115
79, -2283.92, -2539.86, -2925.57, -2527.84, 0.000, 0.000, 0.000, 14:20:44.129
80, -2059.14, -2301.90, -2722.16, -2345.04, 0.000, 0.000, 0.000, 14:20:44.129
81, -1876.67, -2100.57, -2555.98, -2202.74, 0.000, 0.000, 0.000, 14:20:44.144
82, -2196.82, -2446.12, -2863.13, -2467.99, 0.000, 0.000, 0.000, 14:20:44.144
83, -2281.39, -2528.99, -2922.39, -2525.08, 0.000, 0.000, 0.000, 14:20:44.145
84, -2070.20, -2293.01, -2716.90, -2339.83, 0.000, 0.000, 0.000, 14:20:44.145
85, -1873.49, -2101.49, -2556.45, -2201.40, 0.000, 0.000, 0.000, 14:20:44.159
86, -2196.97, -2447.61, -2866.25, -2475.52, 0.000, 0.000, 0.000, 14:20:44.159
87, -2289.40, -2545.87, -2924.67, -2524.30, 0.000, 0.000, 0.000, 14:20:44.174
88, -2067.27, -2307.89, -2716.73, -2344.97, 0.000, 0.000, 0.000, 14:20:44.174
89, -1884.35, -2118.71, -2565.89, -2202.25, 0.000, 0.000, 0.000, 14:20:44.175
90, -2181.28, -2454.29, -2866.19, -2468.00, 0.000, 0.000, 0.000, 14:20:44.175
91, -2276.73, -2535.33, -2928.83, -2517.89, 0.000, 0.000, 0.000, 14:20:44.189
92, -2062.50, -2298.88, -2717.45, -2342.21, 0.000, 0.000, 0.000, 14:20:44.189
93, -1877.75, -2108.24, -2559.40, -2208.48, 0.000, 0.000, 0.000, 14:20:44.204
94, -2196.04, -2442.44, -2861.70, -2470.36, 0.000, 0.000, 0.000, 14:20:44.205
95, -2285.13, -2537.32, -2922.48, -2517.19, 0.000, 0.000, 0.000, 14:20:44.205
96, -2062.68, -2295.77, -2715.46, -2345.63, 0.000, 0.000, 0.000, 14:20:44.205
97, -1883.14, -2117.21, -2566.11, -2206.69, 0.000, 0.000, 0.000, 14:20:44.220
98, -2188.71, -2467.06, -2871.08, -2467.78, 0.000, 0.000, 0.000, 14:20:44.220
99, -2283.72, -2522.85, -2923.02, -2521.77, 0.000, 0.000, 0.000, 14:20:44.235
100, -2070.03, -2308.98, -2717.80, -2343.66, 0.000, 0.000, 0.000, 14:20:44.235
101, -1873.47, -2111.58, -2561.93, -2206.62, 0.000, 0.000, 0.000, 14:20:44.235
102, -2189.04, -2446.79, -2860.63, -2467.64, 0.000, 0.000, 0.000, 14:20:44.235
103, -2266.03, -2537.22, -2918.40, -2516.50, 0.000, 0.000, 0.000, 14:20:44.249
104, -2061.39, -2307.81, -2716.45, -2347.41, 0.000, 0.000, 0.000, 14:20:44.249
105, -1867.69, -2122.00, -2552.64, -2208.10, 0.000, 0.000, 0.000, 14:20:44.264
106, -2172.88, -2472.00, -2864.39, -2473.67, 0.000, 0.000, 0.000, 14:20:44.264
107, -2268.81, -2546.35, -2919.13, -2520.19, 0.000, 0.000, 0.000, 14:20:44.265
108, -2038.50, -2307.47, -2710.28, -2338.62, 0.000, 0.000, 0.000, 14:20:44.265
109, -1883.82, -2126.17, -2565.52, -2210.45, 0.000, 0.000, 0.000, 14:20:44.279
110, -2185.25, -2469.00, -2872.18, -2477.77, 0.000, 0.000, 0.000, 14:20:44.279
111, -2269.60, -2553.76, -2937.99, -2519.34, 0.000, 0.000, 0.000, 14:20:44.295
112, -2070.27, -2334.79, -2739.71, -2337.85, 0.000, 0.000, 0.000, 14:20:44.295
113, -1876.51, -2139.57, -2573.26, -2211.67, 0.000, 0.000, 0.000, 14:20:44.295
114, -2180.39, -2478.04, -2881.31, -2468.85, 0.000, 0.000, 0.000, 14:20:44.295
115, -2269.51, -2544.30, -2928.10, -2512.18, 0.000, 0.000, 0.000, 14:20:44.309
116, -2046.71, -2306.88, -2714.57, -2326.09, 0.000, 0.000, 0.000, 14:20:44.309
117, -1859.36, -2118.29, -2562.94, -2195.20, 0.000, 0.000, 0.000, 14:20:44.324
118, -2184.94, -2460.78, -2867.16, -2472.31, 0.000, 0.000, 0.000, 14:20:44.324
119, -2276.36, -2541.30, -2922.64, -2518.31, 0.000, 0.000, 0.000, 14:20:44.325
120, -2054.15, -2297.75, -2707.58, -2334.77, 0.000, 0.000, 0.000, 14:20:44.326
121, -1885.26, -2113.49, -2559.02, -2209.76, 0.000, 0.000, 0.000, 14:20:44.339
122, -2200.21, -2456.30, -2868.70, -2477.26, 0.000, 0.000, 0.000, 14:20:44.340
123, -2287.90, -2530.55, -2919.94, -2525.07, 0.000, 0.000, 0.000, 14:20:44.369
124, -2056.75, -2287.83, -2708.57, -2337.14, 0.000, 0.000, 0.000, 14:20:44.369
125, -1890.42, -2105.81, -2558.82, -2206.24, 0.000, 0.000, 0.000, 14:20:44.369
126, -2213.65, -2461.80, -2871.63, -2479.80, 0.000, 0.000, 0.000, 14:20:44.369
127, -2284.78, -2521.71, -2921.26, -2519.42, 0.000, 0.000, 0.000, 14:20:44.400
128, -2070.08, -2292.00, -2714.33, -2339.37, 0.000, 0.000, 0.000, 14:20:44.400
129, -1905.08, -2117.10, -2569.31, -2214.48, 0.000, 0.000, 0.000, 14:20:44.401
130, -2203.70, -2458.05, -2876.70, -2480.24, 0.000, 0.000, 0.000, 14:20:44.401
131, -2291.48, -2526.57, -2923.61, -2527.01, 0.000, 0.000, 0.000, 14:20:44.401
132, -2073.88, -2281.83, -2711.00, -2334.83, 0.000, 0.000, 0.000, 14:20:44.401
133, -1910.14, -2113.10, -2566.43, -2215.81, 0.000, 0.000, 0.000, 14:20:44.401
134, -2220.56, -2452.22, -2879.63, -2477.10, 0.000, 0.000, 0.000, 14:20:44.401
135, -2294.04, -2524.89, -2923.69, -2520.35, 0.000, 0.000, 0.000, 14:20:44.402
136, -2080.28, -2295.12, -2723.10, -2340.32, 0.000, 0.000, 0.000, 14:20:44.402
137, -1909.56, -2117.59, -2579.29, -2213.64, 0.000, 0.000, 0.000, 14:20:44.414
138, -2219.82, -2457.48, -2882.26, -2478.88, 0.000, 0.000, 0.000, 14:20:44.414
139, -2293.10, -2525.06, -2923.05, -2530.24, 0.000, 0.000, 0.000, 14:20:44.429
140, -2071.75, -2288.08, -2709.07, -2342.71, 0.000, 0.000, 0.000, 14:20:44.429
141, -1906.13, -2117.19, -2570.68, -2213.71, 0.000, 0.000, 0.000, 14:20:44.444
142, -2208.94, -2457.97, -2878.74, -2481.72, 0.000, 0.000, 0.000, 14:20:44.444
143, -2295.29, -2528.05, -2925.27, -2527.30, 0.000, 0.000, 0.000, 14:20:44.444
144, -2077.99, -2289.69, -2704.32, -2338.30, 0.000, 0.000, 0.000, 14:20:44.444
145, -1886.18, -2108.37, -2560.28, -2211.67, 0.000, 0.000, 0.000, 14:20:44.460
146, -2209.40, -2450.97, -2866.21, -2477.90, 0.000, 0.000, 0.000, 14:20:44.460
147, -2282.74, -2516.91, -2910.63, -2519.26, 0.000, 0.000, 0.000, 14:20:44.475
148, -2061.85, -2289.20, -2711.06, -2342.58, 0.000, 0.000, 0.000, 14:20:44.475
149, -1892.96, -2116.53, -2565.90, -2221.20, 0.000, 0.000, 0.000, 14:20:44.475
150, -2217.03, -2467.11, -2873.52, -2496.44, 0.000, 0.000, 0.000, 14:20:44.475
151, -2280.65, -2532.92, -2918.98, -2519.70, 0.000, 0.000, 0.000, 14:20:44.495
152, -2048.25, -2295.43, -2706.57, -2324.88, 0.000, 0.000, 0.000, 14:20:44.495
153, -1874.17, -2123.23, -2575.56, -2202.64, 0.000, 0.000, 0.000, 14:20:44.505
154, -2187.56, -2472.29, -2879.40, -2467.73, 0.000, 0.000, 0.000, 14:20:44.505
155, -2268.34, -2531.65, -2921.43, -2500.10, 0.000, 0.000, 0.000, 14:20:44.505
156, -2054.29, -2301.98, -2719.16, -2319.67, 0.000, 0.000, 0.000, 14:20:44.505
157, -1878.52, -2125.17, -2579.26, -2200.83, 0.000, 0.000, 0.000, 14:20:44.519
158, -2196.25, -2464.61, -2881.39, -2464.67, 0.000, 0.000, 0.000, 14:20:44.519
159, -2255.11, -2534.13, -2923.46, -2510.59, 0.000, 0.000, 0.000, 14:20:44.535
160, -2047.25, -2295.31, -2709.50, -2332.67, 0.000, 0.000, 0.000, 14:20:44.535
161, -1889.62, -2121.57, -2574.95, -2215.11, 0.000, 0.000, 0.000, 14:20:44.535
162, -2211.96, -2471.23, -2881.44, -2479.86, 0.000, 0.000, 0.000, 14:20:44.535
163, -2284.65, -2528.64, -2914.11, -2514.30, 0.000, 0.000, 0.000, 14:20:44.549
164, -2061.65, -2287.98, -2708.67, -2332.02, 0.000, 0.000, 0.000, 14:20:44.549
165, -1882.59, -2118.10, -2572.92, -2210.68, 0.000, 0.000, 0.000, 14:20:44.565
166, -2212.47, -2459.03, -2871.35, -2477.96, 0.000, 0.000, 0.000, 14:20:44.565
167, -2279.49, -2522.33, -2913.80, -2517.63, 0.000, 0.000, 0.000, 14:20:44.565
168, -2060.30, -2288.19, -2708.13, -2329.02, 0.000, 0.000, 0.000, 14:20:44.565
169, -1895.33, -2119.24, -2571.84, -2214.54, 0.000, 0.000, 0.000, 14:20:44.579
170, -2206.81, -2461.99, -2875.18, -2484.13, 0.000, 0.000, 0.000, 14:20:44.579
171, -2289.18, -2526.04, -2910.88, -2512.52, 0.000, 0.000, 0.000, 14:20:44.609
172, -2062.96, -2295.92, -2710.47, -2331.25, 0.000, 0.000, 0.000, 14:20:44.609
173, -1911.16, -2123.49, -2578.82, -2216.69, 0.000, 0.000, 0.000, 14:20:44.610
174, -2214.33, -2461.34, -2872.93, -2481.42, 0.000, 0.000, 0.000, 14:20:44.610
175, -2288.54, -2513.48, -2918.10, -2511.08, 0.000, 0.000, 0.000, 14:20:44.610
176, -2062.43, -2282.91, -2708.62, -2336.22, 0.000, 0.000, 0.000, 14:20:44.610
177, -1905.22, -2133.68, -2588.35, -2224.28, 0.000, 0.000, 0.000, 14:20:44.611
178, -2220.77, -2469.06, -2879.73, -2479.86, 0.000, 0.000, 0.000, 14:20:44.611
179, -2291.57, -2515.39, -2914.98, -2505.79, 0.000, 0.000, 0.000, 14:20:44.624
180, -2068.00, -2284.36, -2710.44, -2331.70, 0.000, 0.000, 0.000, 14:20:44.624
181, -1921.15, -2132.89, -2588.70, -2228.50, 0.000, 0.000, 0.000, 14:20:44.640
182, -2221.67, -2463.13, -2876.26, -2488.35, 0.000, 0.000, 0.000, 14:20:44.640
183, -2268.60, -2519.12, -2910.29, -2516.26, 0.000, 0.000, 0.000, 14:20:44.655
184, -2075.83, -2290.62, -2709.31, -2338.68, 0.000, 0.000, 0.000, 14:20:44.655
185, -1914.69, -2130.92, -2581.24, -2225.07, 0.000, 0.000, 0.000, 14:20:44.656
186, -2223.32, -2468.98, -2879.96, -2485.20, 0.000, 0.000, 0.000, 14:20:44.656
187, -2269.15, -2514.15, -2904.66, -2504.04, 0.000, 0.000, 0.000, 14:20:44.685
188, -2059.79, -2284.38, -2705.94, -2334.50, 0.000, 0.000, 0.000, 14:20:44.685
189, -1898.31, -2121.75, -2575.22, -2218.22, 0.000, 0.000, 0.000, 14:20:44.685
190, -2217.05, -2457.71, -2875.73, -2482.91, 0.000, 0.000, 0.000, 14:20:44.685
191, -2274.62, -2504.91, -2904.50, -2506.22, 0.000, 0.000, 0.000, 14:20:44.686
192, -2058.81, -2278.64, -2701.40, -2328.89, 0.000, 0.000, 0.000, 14:20:44.686
193, -1902.95, -2124.23, -2573.01, -2220.66, 0.000, 0.000, 0.000, 14:20:44.700
194, -2219.70, -2472.75, -2878.86, -2487.84, 0.000, 0.000, 0.000, 14:20:44.700
195, -2276.77, -2516.09, -2907.73, -2517.36, 0.000, 0.000, 0.000, 14:20:44.714
196, -2052.45, -2272.89, -2701.41, -2329.12, 0.000, 0.000, 0.000, 14:20:44.714
197, -1916.12, -2126.00, -2578.17, -2224.99, 0.000, 0.000, 0.000, 14:20:44.715
198, -2225.97, -2473.41, -2885.16, -2484.43, 0.000, 0.000, 0.000, 14:20:44.715
199, -2277.79, -2516.89, -2909.01, -2511.94, 0.000, 0.000, 0.000, 14:20:44.729
200, -2053.40, -2273.09, -2695.44, -2324.17, 0.000, 0.000, 0.000, 14:20:44.729
0, -1901.66, -2120.79, -2575.36, -2222.57, 0.000, 0.000, 0.000, 14:20:44.730
1, -2231.65, -2467.11, -2886.40, -2483.56, 0.000, 0.000, 0.000, 14:20:44.744
2, -2269.34, -2507.88, -2905.78, -2511.83, 0.000, 0.000, 0.000, 14:20:44.745
3, -2056.87, -2278.98, -2695.09, -2323.57, 0.000, 0.000, 0.000, 14:20:44.759
4, -1903.21, -2119.84, -2568.65, -2215.06, 0.000, 0.000, 0.000, 14:20:44.759
5, -2218.97, -2472.93, -2882.98, -2490.87, 0.000, 0.000, 0.000, 14:20:44.760
6, -2273.10, -2512.41, -2904.96, -2513.90, 0.000, 0.000, 0.000, 14:20:44.760
7, -2055.43, -2279.09, -2692.60, -2322.17, 0.000, 0.000, 0.000, 14:20:44.781
8, -1897.77, -2117.30, -2570.32, -2220.50, 0.000, 0.000, 0.000, 14:20:44.781
9, -2240.64, -2481.20, -2887.19, -2492.20, 0.000, 0.000, 0.000, 14:20:44.789
10, -2276.95, -2523.32, -2905.92, -2507.34, 0.000, 0.000, 0.000, 14:20:44.789
11, -2042.86, -2280.70, -2697.46, -2325.07, 0.000, 0.000, 0.000, 14:20:44.790
12, -1890.78, -2119.03, -2575.32, -2217.08, 0.000, 0.000, 0.000, 14:20:44.790
13, -2223.77, -2482.57, -2885.55, -2496.46, 0.000, 0.000, 0.000, 14:20:44.805
14, -2270.93, -2509.24, -2904.04, -2512.16, 0.000, 0.000, 0.000, 14:20:44.805
15, -2055.82, -2270.59, -2696.35, -2325.71, 0.000, 0.000, 0.000, 14:20:44.819
16, -1911.19, -2120.56, -2570.52, -2220.82, 0.000, 0.000, 0.000, 14:20:44.820
17, -2229.27, -2471.67, -2883.48, -2490.64, 0.000, 0.000, 0.000, 14:20:44.835
18, -2278.83, -2514.51, -2901.21, -2509.75, 0.000, 0.000, 0.000, 14:20:44.835
19, -2041.65, -2272.98, -2686.09, -2323.66, 0.000, 0.000, 0.000, 14:20:44.837
20, -1891.83, -2126.32, -2573.94, -2219.08, 0.000, 0.000, 0.000, 14:20:44.837
21, -2229.00, -2484.70, -2888.07, -2493.08, 0.000, 0.000, 0.000, 14:20:44.849
22, -2266.19, -2519.74, -2898.97, -2509.45, 0.000, 0.000, 0.000, 14:20:44.849
23, -2026.60, -2282.35, -2696.36, -2324.91, 0.000, 0.000, 0.000, 14:20:44.850
24, -1900.78, -2160.39, -2576.15, -2219.30, 0.000, 0.000, 0.000, 14:20:44.850
25, -2237.82, -2493.91, -2885.39, -2490.97, 0.000, 0.000, 0.000, 14:20:44.865
26, -2260.34, -2540.55, -2902.10, -2501.81, 0.000, 0.000, 0.000, 14:20:44.865
27, -2035.95, -2280.16, -2689.32, -2315.53, 0.000, 0.000, 0.000, 14:20:44.880
28, -1866.68, -2134.19, -2577.41, -2218.42, 0.000, 0.000, 0.000, 14:20:44.880
29, -2178.21, -2528.10, -2875.51, -2489.25, 0.000, 0.000, 0.000, 14:20:44.880
30, -2193.28, -2554.54, -2904.01, -2499.60, 0.000, 0.000, 0.000, 14:20:44.880
31, -1949.10, -2299.28, -2681.87, -2313.79, 0.000, 0.000, 0.000, 14:20:44.894
32, -1765.73, -2182.50, -2569.80, -2205.19, 0.000, 0.000, 0.000, 14:20:44.895
33, -2054.52, -2530.71, -2867.04, -2477.24, 0.000, 0.000, 0.000, 14:20:44.909
34, -2080.51, -2598.28, -2893.18, -2494.93, 0.000, 0.000, 0.000, 14:20:44.909
35, -1834.88, -2373.43, -2676.01, -2288.99, 0.000, 0.000, 0.000, 14:20:44.910
36, -1687.24, -2221.14, -2552.23, -2192.30, 0.000, 0.000, 0.000, 14:20:44.910
37, -2019.57, -2591.31, -2882.02, -2475.38, 0.000, 0.000, 0.000, 14:20:44.925
38, -2065.81, -2629.82, -2898.88, -2493.27, 0.000, 0.000, 0.000, 14:20:44.925
39, -1842.74, -2393.38, -2685.86, -2297.27, 0.000, 0.000, 0.000, 14:20:44.939
40, -1728.71, -2238.11, -2573.94, -2198.12, 0.000, 0.000, 0.000, 14:20:44.939
41, -2104.33, -2582.03, -2887.92, -2487.73, 0.000, 0.000, 0.000, 14:20:44.940
42, -2172.45, -2602.08, -2907.19, -2496.86, 0.000, 0.000, 0.000, 14:20:44.940
43, -1951.95, -2329.07, -2685.45, -2303.76, 0.000, 0.000, 0.000, 14:20:44.955
44, -1857.05, -2161.64, -2576.84, -2209.70, 0.000, 0.000, 0.000, 14:20:44.955
45, -2225.75, -2508.53, -2888.86, -2485.92, 0.000, 0.000, 0.000, 14:20:44.969
46, -2289.19, -2518.74, -2906.39, -2499.73, 0.000, 0.000, 0.000, 14:20:44.970
47, -2083.42, -2255.41, -2694.02, -2309.00, 0.000, 0.000, 0.000, 14:20:44.971
48, -1955.54, -2095.48, -2578.16, -2213.99, 0.000, 0.000, 0.000, 14:20:44.971
49, -2293.47, -2445.44, -2900.18, -2498.28, 0.000, 0.000, 0.000, 14:20:44.984
50, -2349.00, -2469.91, -2913.31, -2511.36, 0.000, 0.000, 0.000, 14:20:44.985
51, -2140.42, -2222.16, -2707.42, -2328.11, 0.000, 0.000, 0.000, 14:20:44.999
52, -2016.13, -2092.88, -2599.21, -2233.26, 0.000, 0.000, 0.000, 14:20:44.999
53, -2339.33, -2449.76, -2917.70, -2512.00, 0.000, 0.000, 0.000, 14:20:45.000
54, -2380.93, -2467.71, -2922.29, -2526.36, 0.000, 0.000, 0.000, 14:20:45.000
55, -2145.36, -2209.41, -2694.38, -2328.20, 0.000, 0.000, 0.000, 14:20:45.015
56, -1994.90, -2068.42, -2581.00, -2233.01, 0.000, 0.000, 0.000, 14:20:45.015
57, -2328.00, -2422.38, -2891.38, -2507.46, 0.000, 0.000, 0.000, 14:20:45.029
58, -2369.53, -2452.65, -2902.46, -2515.13, 0.000, 0.000, 0.000, 14:20:45.030
59, -2133.54, -2201.40, -2687.51, -2323.07, 0.000, 0.000, 0.000, 14:20:45.030
60, -2002.05, -2076.93, -2592.95, -2228.77, 0.000, 0.000, 0.000, 14:20:45.030
61, -2334.55, -2442.51, -2910.51, -2506.13, 0.000, 0.000, 0.000, 14:20:45.044
62, -2361.71, -2453.82, -2913.49, -2510.44, 0.000, 0.000, 0.000, 14:20:45.044
63, -2118.70, -2207.01, -2688.49, -2318.45, 0.000, 0.000, 0.000, 14:20:45.059
64, -1981.76, -2080.90, -2583.19, -2225.72, 0.000, 0.000, 0.000, 14:20:45.059
65, -2317.14, -2439.32, -2898.83, -2500.49, 0.000, 0.000, 0.000, 14:20:45.060
66, -2330.48, -2461.81, -2906.04, -2508.53, 0.000, 0.000, 0.000, 14:20:45.060
67, -2103.79, -2215.86, -2690.08, -2314.12, 0.000, 0.000, 0.000, 14:20:45.075
68, -1974.76, -2091.57, -2582.93, -2220.62, 0.000, 0.000, 0.000, 14:20:45.075
69, -2287.56, -2445.28, -2901.49, -2501.11, 0.000, 0.000, 0.000, 14:20:45.089
70, -2326.90, -2469.73, -2902.07, -2503.64, 0.000, 0.000, 0.000, 14:20:45.090
71, -2088.11, -2222.12, -2688.86, -2316.66, 0.000, 0.000, 0.000, 14:20:45.090
72, -1956.04, -2099.10, -2585.45, -2220.47, 0.000, 0.000, 0.000, 14:20:45.090
73, -2281.78, -2457.80, -2899.18, -2500.06, 0.000, 0.000, 0.000, 14:20:45.105
74, -2306.97, -2480.81, -2905.42, -2509.03, 0.000, 0.000, 0.000, 14:20:45.105
75, -2082.49, -2238.06, -2692.65, -2313.69, 0.000, 0.000, 0.000, 14:20:45.119
76, -1951.60, -2106.07, -2586.87, -2225.15, 0.000, 0.000, 0.000, 14:20:45.119
77, -2287.38, -2472.22, -2908.35, -2508.19, 0.000, 0.000, 0.000, 14:20:45.120
78, -2307.18, -2493.18, -2905.71, -2513.91, 0.000, 0.000, 0.000, 14:20:45.120
79, -2070.70, -2245.55, -2692.82, -2317.00, 0.000, 0.000, 0.000, 14:20:45.134
80, -1936.83, -2110.79, -2589.78, -2230.42, 0.000, 0.000, 0.000, 14:20:45.134
81, -2276.31, -2476.91, -2899.18, -2505.08, 0.000, 0.000, 0.000, 14:20:45.149
82, -2299.45, -2498.68, -2912.70, -2504.45, 0.000, 0.000, 0.000, 14:20:45.149
83, -2047.56, -2246.19, -2686.60, -2318.41, 0.000, 0.000, 0.000, 14:20:45.150
84, -1943.70, -2129.28, -2593.99, -2233.05, 0.000, 0.000, 0.000, 14:20:45.150
85, -2249.79, -2482.53, -2899.60, -2502.25, 0.000, 0.000, 0.000, 14:20:45.164
86, -2279.32, -2496.58, -2903.38, -2505.79, 0.000, 0.000, 0.000, 14:20:45.164
87, -2049.17, -2244.37, -2685.20, -2314.73, 0.000, 0.000, 0.000, 14:20:45.179
88, -1914.54, -2130.05, -2586.09, -2225.60, 0.000, 0.000, 0.000, 14:20:45.179
89, -2258.68, -2486.60, -2899.27, -2502.11, 0.000, 0.000, 0.000, 14:20:45.180
90, -2285.43, -2506.72, -2906.66, -2512.13, 0.000, 0.000, 0.000, 14:20:45.180
91, -2040.00, -2258.06, -2688.62, -2316.82, 0.000, 0.000, 0.000, 14:20:45.194
92, -1925.73, -2132.89, -2588.41, -2231.15, 0.000, 0.000, 0.000, 14:20:45.194
93, -2253.02, -2486.78, -2906.91, -2504.07, 0.000, 0.000, 0.000, 14:20:45.209
94, -2262.61, -2501.89, -2903.25, -2508.04, 0.000, 0.000, 0.000, 14:20:45.209
95, -2034.99, -2252.87, -2686.20, -2320.13, 0.000, 0.000, 0.000, 14:20:45.209
96, -1907.09, -2127.64, -2580.91, -2229.92, 0.000, 0.000, 0.000, 14:20:45.209
97, -2257.24, -2492.15, -2897.29, -2505.40, 0.000, 0.000, 0.000, 14:20:45.224
98, -2284.48, -2502.93, -2900.02, -2502.27, 0.000, 0.000, 0.000, 14:20:45.224
99, -2038.81, -2253.71, -2680.35, -2310.33, 0.000, 0.000, 0.000, 14:20:45.240
100, -1921.12, -2132.51, -2593.09, -2227.76, 0.000, 0.000, 0.000, 14:20:45.240
101, -2238.80, -2492.24, -2905.84, -2508.69, 0.000, 0.000, 0.000, 14:20:45.247
102, -2265.26, -2498.35, -2899.71, -2505.70, 0.000, 0.000, 0.000, 14:20:45.247
103, -2027.44, -2253.27, -2686.70, -2309.63, 0.000, 0.000, 0.000, 14:20:45.255
104, -1902.47, -2135.57, -2588.04, -2232.47, 0.000, 0.000, 0.000, 14:20:45.255
105, -2244.69, -2497.75, -2907.21, -2512.09, 0.000, 0.000, 0.000, 14:20:45.269
106, -2275.12, -2509.51, -2911.00, -2499.75, 0.000, 0.000, 0.000, 14:20:45.269
107, -2031.72, -2259.59, -2688.45, -2307.67, 0.000, 0.000, 0.000, 14:20:45.270
108, -1915.20, -2130.64, -2591.86, -2230.62, 0.000, 0.000, 0.000, 14:20:45.270
109, -2248.97, -2500.77, -2912.44, -2503.65, 0.000, 0.000, 0.000, 14:20:45.284
110, -2260.11, -2505.98, -2905.26, -2491.72, 0.000, 0.000, 0.000, 14:20:45.284
111, -2025.26, -2245.62, -2683.58, -2300.48, 0.000, 0.000, 0.000, 14:20:45.300
112, -1914.23, -2131.99, -2592.05, -2217.72, 0.000, 0.000, 0.000, 14:20:45.300
113, -2244.88, -2492.36, -2907.93, -2500.83, 0.000, 0.000, 0.000, 14:20:45.301
114, -2259.19, -2499.64, -2901.13, -2497.25, 0.000, 0.000, 0.000, 14:20:45.301
115, -2031.15, -2242.27, -2675.02, -2304.18, 0.000, 0.000, 0.000, 14:20:45.315
116, -1902.14, -2137.85, -2588.92, -2224.27, 0.000, 0.000, 0.000, 14:20:45.315
117, -2249.36, -2497.65, -2907.96, -2505.53, 0.000, 0.000, 0.000, 14:20:45.329
118, -2251.68, -2498.26, -2894.96, -2502.82, 0.000, 0.000, 0.000, 14:20:45.329
119, -2028.11, -2248.17, -2675.72, -2301.28, 0.000, 0.000, 0.000, 14:20:45.330
120, -1913.29, -2138.41, -2586.09, -2232.08, 0.000, 0.000, 0.000, 14:20:45.330
121, -2243.95, -2500.25, -2901.07, -2505.13, 0.000, 0.000, 0.000, 14:20:45.345
122, -2259.89, -2496.94, -2892.61, -2504.33, 0.000, 0.000, 0.000, 14:20:45.345
123, -2017.63, -2249.59, -2672.40, -2306.42, 0.000, 0.000, 0.000, 14:20:45.360
124, -1906.60, -2138.18, -2586.83, -2233.81, 0.000, 0.000, 0.000, 14:20:45.360
125, -2254.29, -2505.50, -2909.86, -2510.85, 0.000, 0.000, 0.000, 14:20:45.360
126, -2258.55, -2502.99, -2893.69, -2498.69, 0.000, 0.000, 0.000, 14:20:45.360
127, -2023.80, -2249.76, -2674.59, -2302.73, 0.000, 0.000, 0.000, 14:20:45.374
128, -1916.29, -2152.97, -2593.96, -2234.13, 0.000, 0.000, 0.000, 14:20:45.374
129, -2260.41, -2515.34, -2915.18, -2509.56, 0.000, 0.000, 0.000, 14:20:45.389
130, -2261.38, -2501.80, -2904.00, -2500.48, 0.000, 0.000, 0.000, 14:20:45.389
131, -2020.87, -2245.96, -2675.15, -2300.40, 0.000, 0.000, 0.000, 14:20:45.389
132, -1918.05, -2140.62, -2593.57, -2230.18, 0.000, 0.000, 0.000, 14:20:45.389
133, -2252.73, -2504.38, -2906.98, -2509.49, 0.000, 0.000, 0.000, 14:20:45.405
134, -2262.86, -2509.70, -2901.90, -2496.24, 0.000, 0.000, 0.000, 14:20:45.405
135, -2029.50, -2258.27, -2680.86, -2297.31, 0.000, 0.000, 0.000, 14:20:45.419
136, -1917.78, -2150.81, -2599.54, -2229.84, 0.000, 0.000, 0.000, 14:20:45.419
137, -2259.47, -2516.14, -2916.62, -2514.03, 0.000, 0.000, 0.000, 14:20:45.420
138, -2253.76, -2496.63, -2891.97, -2495.52, 0.000, 0.000, 0.000, 14:20:45.420
139, -2021.37, -2239.26, -2670.55, -2299.95, 0.000, 0.000, 0.000, 14:20:45.434
140, -1917.56, -2133.84, -2594.94, -2226.08, 0.000, 0.000, 0.000, 14:20:45.434
141, -2260.65, -2503.09, -2911.70, -2511.92, 0.000, 0.000, 0.000, 14:20:45.450
142, -2265.00, -2503.29, -2895.02, -2497.85, 0.000, 0.000, 0.000, 14:20:45.450
143, -2022.56, -2249.79, -2670.21, -2300.08, 0.000, 0.000, 0.000, 14:20:45.451
144, -1919.49, -2149.52, -2592.98, -2231.73, 0.000, 0.000, 0.000, 14:20:45.451
145, -2260.58, -2500.78, -2915.06, -2513.90, 0.000, 0.000, 0.000, 14:20:45.464
146, -2259.27, -2494.59, -2892.84, -2497.99, 0.000, 0.000, 0.000, 14:20:45.464
147, -2021.40, -2240.73, -2669.97, -2299.34, 0.000, 0.000, 0.000, 14:20:45.479
148, -1917.62, -2143.03, -2596.58, -2236.65, 0.000, 0.000, 0.000, 14:20:45.479
149, -2250.26, -2505.12, -2910.89, -2506.64, 0.000, 0.000, 0.000, 14:20:45.480
150, -2252.37, -2496.73, -2888.85, -2498.08, 0.000, 0.000, 0.000, 14:20:45.480
151, -2021.03, -2239.69, -2672.77, -2294.92, 0.000, 0.000, 0.000, 14:20:45.494
152, -1924.37, -2144.45, -2598.74, -2234.03, 0.000, 0.000, 0.000, 14:20:45.494
153, -2269.99, -2509.44, -2917.78, -2513.41, 0.000, 0.000, 0.000, 14:20:45.509
154, -2257.43, -2497.21, -2894.90, -2490.72, 0.000, 0.000, 0.000, 14:20:45.509
155, -2019.69, -2244.11, -2671.16, -2298.83, 0.000, 0.000, 0.000, 14:20:45.510
156, -1917.38, -2140.27, -2588.50, -2234.75, 0.000, 0.000, 0.000, 14:20:45.510
157, -2267.26, -2510.88, -2912.97, -2517.67, 0.000, 0.000, 0.000, 14:20:45.524
158, -2251.01, -2500.09, -2898.13, -2495.40, 0.000, 0.000, 0.000, 14:20:45.524
159, -2017.11, -2245.77, -2671.29, -2297.19, 0.000, 0.000, 0.000, 14:20:45.555
160, -1923.51, -2152.00, -2606.09, -2236.86, 0.000, 0.000, 0.000, 14:20:45.555
161, -2259.04, -2510.88, -2915.65, -2521.34, 0.000, 0.000, 0.000, 14:20:45.555
162, -2252.86, -2503.10, -2893.84, -2495.90, 0.000, 0.000, 0.000, 14:20:45.555
163, -2014.80, -2246.80, -2664.24, -2297.55, 0.000, 0.000, 0.000, 14:20:45.556
164, -1928.65, -2147.98, -2599.60, -2237.51, 0.000, 0.000, 0.000, 14:20:45.556
165, -2265.58, -2508.25, -2917.85, -2517.14, 0.000, 0.000, 0.000, 14:20:45.556
166, -2253.56, -2489.30, -2891.27, -2487.79, 0.000, 0.000, 0.000, 14:20:45.557
167, -2009.42, -2239.32, -2663.45, -2294.43, 0.000, 0.000, 0.000, 14:20:45.569
168, -1915.83, -2144.96, -2592.61, -2230.20, 0.000, 0.000, 0.000, 14:20:45.569
169, -2261.56, -2514.13, -2915.81, -2517.33, 0.000, 0.000, 0.000, 14:20:45.585
170, -2249.70, -2488.74, -2882.93, -2495.32, 0.000, 0.000, 0.000, 14:20:45.585
171, -1997.78, -2225.45, -2660.94, -2290.60, 0.000, 0.000, 0.000, 14:20:45.600
172, -1921.56, -2138.57, -2594.25, -2236.05, 0.000, 0.000, 0.000, 14:20:45.600
173, -2260.85, -2498.03, -2909.08, -2517.35, 0.000, 0.000, 0.000, 14:20:45.600
174, -2256.49, -2493.07, -2886.44, -2491.07, 0.000, 0.000, 0.000, 14:20:45.600
175, -1998.81, -2233.57, -2653.61, -2290.72, 0.000, 0.000, 0.000, 14:20:45.614
176, -1921.52, -2143.41, -2590.44, -2233.06, 0.000, 0.000, 0.000, 14:20:45.615
177, -2266.21, -2517.17, -2917.97, -2516.98, 0.000, 0.000, 0.000, 14:20:45.629
178, -2251.73, -2496.46, -2892.47, -2490.18, 0.000, 0.000, 0.000, 14:20:45.629
179, -2009.62, -2237.65, -2656.08, -2290.74, 0.000, 0.000, 0.000, 14:20:45.629
180, -1913.14, -2148.08, -2594.49, -2232.94, 0.000, 0.000, 0.000, 14:20:45.629
181, -2259.45, -2510.81, -2913.35, -2516.35, 0.000, 0.000, 0.000, 14:20:45.645
182, -2243.22, -2491.26, -2884.48, -2488.47, 0.000, 0.000, 0.000, 14:20:45.645
183, -2006.66, -2231.40, -2655.29, -2291.06, 0.000, 0.000, 0.000, 14:20:45.659
184, -1921.51, -2150.63, -2601.73, -2242.63, 0.000, 0.000, 0.000, 14:20:45.660
185, -2266.31, -2513.82, -2915.58, -2523.13, 0.000, 0.000, 0.000, 14:20:45.660
186, -2262.80, -2503.64, -2895.69, -2501.87, 0.000, 0.000, 0.000, 14:20:45.660
187, -2001.84, -2254.15, -2673.32, -2295.66, 0.000, 0.000, 0.000, 14:20:45.674
188, -1928.39, -2177.99, -2620.50, -2242.13, 0.000, 0.000, 0.000, 14:20:45.674
189, -2271.44, -2532.96, -2920.65, -2521.81, 0.000, 0.000, 0.000, 14:20:45.689
190, -2252.23, -2502.98, -2887.57, -2491.77, 0.000, 0.000, 0.000, 14:20:45.689
191, -1995.38, -2223.33, -2649.58, -2289.65, 0.000, 0.000, 0.000, 14:20:45.689
192, -1914.28, -2142.70, -2593.36, -2236.60, 0.000, 0.000, 0.000, 14:20:45.689
193, -2265.06, -2508.62, -2913.24, -2512.75, 0.000, 0.000, 0.000, 14:20:45.705
194, -2251.92, -2485.92, -2884.82, -2488.47, 0.000, 0.000, 0.000, 14:20:45.705
195, -2002.62, -2231.96, -2658.56, -2288.03, 0.000, 0.000, 0.000, 14:20:45.719
196, -1925.75, -2159.04, -2612.31, -2246.50, 0.000, 0.000, 0.000, 14:20:45.719
197, -2297.27, -2540.49, -2941.44, -2533.98, 0.000, 0.000, 0.000, 14:20:45.720
198, -2250.45, -2479.42, -2874.91, -2478.74, 0.000, 0.000, 0.000, 14:20:45.720
199, -1990.85, -2189.47, -2633.57, -2283.53, 0.000, 0.000, 0.000, 14:20:45.734
200, -1926.71, -2135.98, -2596.34, -2248.70, 0.000, 0.000, 0.000, 14:20:45.734
0, -2281.53, -2496.14, -2905.15, -2524.82, 0.000, 0.000, 0.000, 14:20:45.735
1, -2253.69, -2465.95, -2864.94, -2491.51, 0.000, 0.000, 0.000, 14:20:45.749
2, -2025.22, -2204.46, -2645.24, -2298.86, 0.000, 0.000, 0.000, 14:20:45.749
3, -1947.16, -2142.44, -2595.71, -2251.02, 0.000, 0.000, 0.000, 14:20:45.765
4, -2282.21, -2503.82, -2912.09, -2528.29, 0.000, 0.000, 0.000, 14:20:45.765
5, -2268.65, -2475.97, -2874.79, -2499.50, 0.000, 0.000, 0.000, 14:20:45.765
6, -2011.29, -2211.29, -2650.88, -2293.77, 0.000, 0.000, 0.000, 14:20:45.765
7, -1931.96, -2138.75, -2595.25, -2249.50, 0.000, 0.000, 0.000, 14:20:45.779
8, -2271.78, -2503.78, -2917.33, -2527.43, 0.000, 0.000, 0.000, 14:20:45.779
9, -2253.31, -2480.40, -2872.50, -2490.13, 0.000, 0.000, 0.000, 14:20:45.794
10, -2009.25, -2213.08, -2645.19, -2290.22, 0.000, 0.000, 0.000, 14:20:45.794
11, -1932.71, -2147.42, -2601.78, -2243.71, 0.000, 0.000, 0.000, 14:20:45.794
12, -2279.16, -2516.41, -2924.99, -2525.86, 0.000, 0.000, 0.000, 14:20:45.794
13, -2245.20, -2487.85, -2879.39, -2486.18, 0.000, 0.000, 0.000, 14:20:45.809
14, -2000.90, -2227.39, -2653.88, -2289.37, 0.000, 0.000, 0.000, 14:20:45.810
15, -1936.72, -2158.36, -2606.18, -2247.92, 0.000, 0.000, 0.000, 14:20:45.824
16, -2267.03, -2521.69, -2923.83, -2523.61, 0.000, 0.000, 0.000, 14:20:45.824
17, -2250.10, -2488.36, -2886.77, -2489.44, 0.000, 0.000, 0.000, 14:20:45.824
18, -2013.83, -2231.42, -2653.52, -2286.01, 0.000, 0.000, 0.000, 14:20:45.824
19, -1942.38, -2166.01, -2609.64, -2246.33, 0.000, 0.000, 0.000, 14:20:45.839
20, -2277.65, -2523.28, -2924.67, -2519.69, 0.000, 0.000, 0.000, 14:20:45.839
21, -2235.42, -2494.14, -2875.05, -2490.34, 0.000, 0.000, 0.000, 14:20:45.855
22, -2004.57, -2229.75, -2655.29, -2287.52, 0.000, 0.000, 0.000, 14:20:45.855
23, -1927.74, -2166.12, -2608.53, -2247.63, 0.000, 0.000, 0.000, 14:20:45.855
24, -2286.78, -2529.97, -2932.24, -2528.63, 0.000, 0.000, 0.000, 14:20:45.855
25, -2251.63, -2494.29, -2879.93, -2492.78, 0.000, 0.000, 0.000, 14:20:45.870
26, -2000.26, -2222.61, -2648.98, -2285.83, 0.000, 0.000, 0.000, 14:20:45.870
27, -1932.69, -2166.09, -2611.67, -2249.85, 0.000, 0.000, 0.000, 14:20:45.884
28, -2278.92, -2522.18, -2926.67, -2531.59, 0.000, 0.000, 0.000, 14:20:45.885
29, -2240.11, -2488.31, -2879.75, -2496.33, 0.000, 0.000, 0.000, 14:20:45.885
30, -2003.51, -2236.10, -2652.00, -2289.88, 0.000, 0.000, 0.000, 14:20:45.885
31, -1942.50, -2162.81, -2604.55, -2247.63, 0.000, 0.000, 0.000, 14:20:45.900
32, -2264.64, -2518.42, -2917.75, -2522.50, 0.000, 0.000, 0.000, 14:20:45.900
33, -2234.87, -2488.79, -2877.16, -2490.93, 0.000, 0.000, 0.000, 14:20:45.914
34, -1997.97, -2228.45, -2644.60, -2293.18, 0.000, 0.000, 0.000, 14:20:45.914
35, -1936.15, -2161.52, -2602.78, -2253.17, 0.000, 0.000, 0.000, 14:20:45.915
36, -2268.97, -2532.93, -2922.83, -2529.10, 0.000, 0.000, 0.000, 14:20:45.915
37, -2255.97, -2493.28, -2881.39, -2492.88, 0.000, 0.000, 0.000, 14:20:45.929
38, -1998.22, -2226.57, -2643.49, -2284.36, 0.000, 0.000, 0.000, 14:20:45.929
39, -1924.63, -2159.54, -2603.97, -2254.57, 0.000, 0.000, 0.000, 14:20:45.944
40, -2268.26, -2524.00, -2931.40, -2532.68, 0.000, 0.000, 0.000, 14:20:45.944
41, -2249.33, -2491.97, -2877.42, -2490.02, 0.000, 0.000, 0.000, 14:20:45.945
42, -2000.58, -2220.87, -2649.71, -2281.71, 0.000, 0.000, 0.000, 14:20:45.945
43, -1936.24, -2166.05, -2615.09, -2252.79, 0.000, 0.000, 0.000, 14:20:45.959
44, -2281.06, -2524.71, -2934.95, -2528.87, 0.000, 0.000, 0.000, 14:20:45.960
45, -2232.65, -2483.91, -2876.57, -2491.09, 0.000, 0.000, 0.000, 14:20:45.974
46, -1995.20, -2213.36, -2648.35, -2285.01, 0.000, 0.000, 0.000, 14:20:45.974
47, -1936.80, -2165.29, -2614.30, -2255.67, 0.000, 0.000, 0.000, 14:20:45.975
48, -2278.95, -2526.42, -2930.66, -2531.02, 0.000, 0.000, 0.000, 14:20:45.975
49, -2242.27, -2494.06, -2883.12, -2483.97, 0.000, 0.000, 0.000, 14:20:46.005
50, -1997.64, -2220.89, -2649.99, -2277.49, 0.000, 0.000, 0.000, 14:20:46.005
51, -1935.61, -2171.80, -2615.74, -2253.99, 0.000, 0.000, 0.000, 14:20:46.005
52, -2272.73, -2526.36, -2922.30, -2523.96, 0.000, 0.000, 0.000, 14:20:46.005
53, -2243.60, -2479.91, -2878.60, -2487.58, 0.000, 0.000, 0.000, 14:20:46.019
54, -1995.02, -2211.94, -2640.57, -2282.14, 0.000, 0.000, 0.000, 14:20:46.019
55, -1930.59, -2161.26, -2612.43, -2256.51, 0.000, 0.000, 0.000, 14:20:46.020
56, -2278.80, -2527.29, -2931.96, -2522.64, 0.000, 0.000, 0.000, 14:20:46.020
57, -2234.37, -2481.30, -2874.84, -2480.83, 0.000, 0.000, 0.000, 14:20:46.034
58, -1996.49, -2213.63, -2645.69, -2279.41, 0.000, 0.000, 0.000, 14:20:46.034
59, -1940.57, -2162.98, -2613.44, -2249.36, 0.000, 0.000, 0.000, 14:20:46.034
60, -2275.11, -2524.42, -2927.83, -2524.73, 0.000, 0.000, 0.000, 14:20:46.034
61, -2227.71, -2484.59, -2877.86, -2481.78, 0.000, 0.000, 0.000, 14:20:46.049
62, -2007.82, -2220.63, -2643.12, -2284.99, 0.000, 0.000, 0.000, 14:20:46.050
63, -1939.61, -2170.88, -2626.00, -2255.43, 0.000, 0.000, 0.000, 14:20:46.064
64, -2285.67, -2527.64, -2928.07, -2528.24, 0.000, 0.000, 0.000, 14:20:46.064
65, -2243.53, -2485.28, -2880.50, -2485.99, 0.000, 0.000, 0.000, 14:20:46.065
66, -1993.51, -2214.81, -2651.94, -2278.94, 0.000, 0.000, 0.000, 14:20:46.065
67, -1949.68, -2171.27, -2625.55, -2254.01, 0.000, 0.000, 0.000, 14:20:46.086
68, -2281.27, -2530.71, -2938.60, -2532.36, 0.000, 0.000, 0.000, 14:20:46.086
69, -2243.12, -2477.01, -2878.83, -2478.50, 0.000, 0.000, 0.000, 14:20:46.109
70, -1993.83, -2212.62, -2654.01, -2274.89, 0.000, 0.000, 0.000, 14:20:46.109
71, -1939.65, -2165.87, -2614.29, -2244.84, 0.000, 0.000, 0.000, 14:20:46.109
72, -2283.74, -2535.57, -2933.28, -2530.79, 0.000, 0.000, 0.000, 14:20:46.109
73, -2246.17, -2478.53, -2881.05, -2482.05, 0.000, 0.000, 0.000, 14:20:46.110
74, -1989.59, -2218.61, -2646.33, -2277.38, 0.000, 0.000, 0.000, 14:20:46.110
75, -1953.58, -2172.13, -2617.72, -2249.04, 0.000, 0.000, 0.000, 14:20:46.111
76, -2284.17, -2530.91, -2933.77, -2526.80, 0.000, 0.000, 0.000, 14:20:46.111
77, -2240.61, -2484.09, -2879.77, -2479.82, 0.000, 0.000, 0.000, 14:20:46.124
78, -1988.59, -2212.50, -2636.23, -2280.42, 0.000, 0.000, 0.000, 14:20:46.124
79, -1943.13, -2170.68, -2612.54, -2254.04, 0.000, 0.000, 0.000, 14:20:46.139
80, -2280.86, -2536.45, -2930.64, -2529.92, 0.000, 0.000, 0.000, 14:20:46.139
81, -2245.31, -2481.26, -2875.15, -2481.11, 0.000, 0.000, 0.000, 14:20:46.155
82, -1970.71, -2212.12, -2637.61, -2275.98, 0.000, 0.000, 0.000, 14:20:46.155
83, -1941.32, -2170.80, -2615.49, -2256.88, 0.000, 0.000, 0.000, 14:20:46.155
84, -2274.25, -2537.36, -2935.71, -2533.11, 0.000, 0.000, 0.000, 14:20:46.155
85, -2244.28, -2480.34, -2882.86, -2482.81, 0.000, 0.000, 0.000, 14:20:46.170
86, -1993.26, -2216.59, -2648.88, -2277.00, 0.000, 0.000, 0.000, 14:20:46.170
87, -1951.82, -2173.15, -2617.08, -2251.68, 0.000, 0.000, 0.000, 14:20:46.184
88, -2287.94, -2528.65, -2939.65, -2531.64, 0.000, 0.000, 0.000, 14:20:46.185
89, -2245.75, -2473.14, -2875.34, -2483.24, 0.000, 0.000, 0.000, 14:20:46.200
90, -1995.93, -2214.68, -2639.57, -2279.50, 0.000, 0.000, 0.000, 14:20:46.200
91, -1951.90, -2176.82, -2626.05, -2256.49, 0.000, 0.000, 0.000, 14:20:46.201
92, -2287.54, -2533.38, -2934.78, -2530.31, 0.000, 0.000, 0.000, 14:20:46.201
93, -2234.83, -2487.75, -2877.68, -2480.06, 0.000, 0.000, 0.000, 14:20:46.214
94, -1993.11, -2212.64, -2638.81, -2277.61, 0.000, 0.000, 0.000, 14:20:46.214
95, -1948.47, -2174.98, -2615.77, -2256.72, 0.000, 0.000, 0.000, 14:20:46.215
96, -2288.81, -2539.37, -2935.80, -2535.04, 0.000, 0.000, 0.000, 14:20:46.215
97, -2243.52, -2486.56, -2876.68, -2476.89, 0.000, 0.000, 0.000, 14:20:46.230
98, -1992.07, -2210.30, -2636.62, -2272.73, 0.000, 0.000, 0.000, 14:20:46.230
99, -1941.96, -2183.16, -2618.96, -2256.10, 0.000, 0.000, 0.000, 14:20:46.244
100, -2288.39, -2541.91, -2929.37, -2537.57, 0.000, 0.000, 0.000, 14:20:46.244
101, -2238.33, -2478.96, -2867.71, -2479.55, 0.000, 0.000, 0.000, 14:20:46.245
102, -1982.23, -2201.77, -2631.97, -2274.78, 0.000, 0.000, 0.000, 14:20:46.245
103, -1942.90, -2173.80, -2627.06, -2258.65, 0.000, 0.000, 0.000, 14:20:46.274
104, -2296.69, -2540.29, -2938.85, -2534.95, 0.000, 0.000, 0.000, 14:20:46.274
105, -2231.96, -2470.65, -2861.80, -2481.32, 0.000, 0.000, 0.000, 14:20:46.274
106, -1978.43, -2203.07, -2626.68, -2273.75, 0.000, 0.000, 0.000, 14:20:46.274
107, -1942.75, -2169.06, -2623.38, -2257.53, 0.000, 0.000, 0.000, 14:20:46.275
108, -2283.07, -2529.33, -2929.95, -2537.57, 0.000, 0.000, 0.000, 14:20:46.275
109, -2243.62, -2479.15, -2873.42, -2480.86, 0.000, 0.000, 0.000, 14:20:46.289
110, -1988.50, -2205.73, -2631.32, -2276.98, 0.000, 0.000, 0.000, 14:20:46.289
111, -1951.38, -2178.82, -2618.57, -2263.32, 0.000, 0.000, 0.000, 14:20:46.305
112, -2295.12, -2538.84, -2933.47, -2540.13, 0.000, 0.000, 0.000, 14:20:46.305
113, -2240.46, -2473.01, -2867.13, -2478.18, 0.000, 0.000, 0.000, 14:20:46.306
114, -1970.27, -2203.01, -2626.80, -2266.58, 0.000, 0.000, 0.000, 14:20:46.306
115, -1951.16, -2180.31, -2630.05, -2262.22, 0.000, 0.000, 0.000, 14:20:46.319
116, -2292.76, -2536.22, -2939.86, -2537.92, 0.000, 0.000, 0.000, 14:20:46.319
117, -2233.59, -2472.95, -2867.97, -2479.75, 0.000, 0.000, 0.000, 14:20:46.349
118, -1988.60, -2209.53, -2638.30, -2270.35, 0.000, 0.000, 0.000, 14:20:46.349
119, -1948.36, -2180.73, -2630.13, -2262.93, 0.000, 0.000, 0.000, 14:20:46.350
120, -2296.54, -2543.93, -2946.71, -2545.15, 0.000, 0.000, 0.000, 14:20:46.350
121, -2245.71, -2483.42, -2880.39, -2480.70, 0.000, 0.000, 0.000, 14:20:46.350
122, -1991.84, -2215.75, -2648.81, -2271.33, 0.000, 0.000, 0.000, 14:20:46.350
123, -1971.38, -2199.65, -2641.71, -2270.36, 0.000, 0.000, 0.000, 14:20:46.351
124, -2296.70, -2553.98, -2946.49, -2542.00, 0.000, 0.000, 0.000, 14:20:46.351
125, -2241.43, -2488.33, -2882.45, -2480.14, 0.000, 0.000, 0.000, 14:20:46.365
126, -1976.69, -2201.21, -2624.44, -2258.77, 0.000, 0.000, 0.000, 14:20:46.365
127, -1943.43, -2173.97, -2618.41, -2253.24, 0.000, 0.000, 0.000, 14:20:46.386
128, -2289.69, -2540.77, -2939.75, -2534.21, 0.000, 0.000, 0.000, 14:20:46.386
129, -2235.58, -2465.53, -2865.68, -2472.54, 0.000, 0.000, 0.000, 14:20:46.394
130, -1977.32, -2192.10, -2626.42, -2266.51, 0.000, 0.000, 0.000, 14:20:46.395
131, -1951.64, -2176.78, -2618.98, -2263.33, 0.000, 0.000, 0.000, 14:20:46.395
132, -2288.11, -2537.67, -2939.32, -2533.78, 0.000, 0.000, 0.000, 14:20:46.395
133, -2238.46, -2474.34, -2877.48, -2473.02, 0.000, 0.000, 0.000, 14:20:46.409
134, -1974.67, -2191.16, -2627.45, -2263.94, 0.000, 0.000, 0.000, 14:20:46.409
135, -1948.78, -2172.59, -2622.53, -2265.76, 0.000, 0.000, 0.000, 14:20:46.424
136, -2296.94, -2534.84, -2942.78, -2544.77, 0.000, 0.000, 0.000, 14:20:46.424
137, -2237.53, -2469.88, -2868.92, -2477.34, 0.000, 0.000, 0.000, 14:20:46.425
138, -1980.26, -2196.50, -2626.99, -2268.35, 0.000, 0.000, 0.000, 14:20:46.425
139, -1947.54, -2182.30, -2626.19, -2272.55, 0.000, 0.000, 0.000, 14:20:46.439
140, -2287.79, -2541.51, -2944.00, -2545.09, 0.000, 0.000, 0.000, 14:20:46.439
141, -2243.68, -2471.80, -2870.25, -2483.17, 0.000, 0.000, 0.000, 14:20:46.454
142, -1975.65, -2192.53, -2629.97, -2266.01, 0.000, 0.000, 0.000, 14:20:46.454
143, -1935.53, -2174.87, -2631.50, -2267.94, 0.000, 0.000, 0.000, 14:20:46.469
144, -2303.64, -2539.21, -2945.55, -2539.95, 0.000, 0.000, 0.000, 14:20:46.469
145, -2235.17, -2473.63, -2871.83, -2474.29, 0.000, 0.000, 0.000, 14:20:46.470
146, -1971.17, -2196.76, -2628.72, -2265.24, 0.000, 0.000, 0.000, 14:20:46.471
147, -1954.47, -2187.83, -2630.75, -2263.68, 0.000, 0.000, 0.000, 14:20:46.484
148, -2289.88, -2545.77, -2947.34, -2540.02, 0.000, 0.000, 0.000, 14:20:46.484
149, -2239.00, -2471.73, -2872.48, -2481.53, 0.000, 0.000, 0.000, 14:20:46.484
150, -1973.87, -2193.35, -2624.60, -2266.27, 0.000, 0.000, 0.000, 14:20:46.485
151, -1949.18, -2188.74, -2636.86, -2269.96, 0.000, 0.000, 0.000, 14:20:46.500
152, -2292.51, -2542.39, -2941.96, -2545.15, 0.000, 0.000, 0.000, 14:20:46.500
153, -2229.80, -2475.16, -2873.63, -2480.09, 0.000, 0.000, 0.000, 14:20:46.515
154, -1978.60, -2192.23, -2626.58, -2264.17, 0.000, 0.000, 0.000, 14:20:46.515
155, -1957.21, -2180.03, -2632.75, -2266.05, 0.000, 0.000, 0.000, 14:20:46.516
156, -2302.62, -2543.32, -2951.74, -2545.05, 0.000, 0.000, 0.000, 14:20:46.516
157, -2222.90, -2473.39, -2874.58, -2472.24, 0.000, 0.000, 0.000, 14:20:46.529
158, -1969.84, -2189.49, -2630.89, -2260.57, 0.000, 0.000, 0.000, 14:20:46.529
159, -1940.88, -2175.89, -2630.13, -2259.04, 0.000, 0.000, 0.000, 14:20:46.544
160, -2301.81, -2548.64, -2948.99, -2537.67, 0.000, 0.000, 0.000, 14:20:46.544
161, -2229.81, -2466.04, -2873.71, -2476.49, 0.000, 0.000, 0.000, 14:20:46.559
162, -1975.76, -2187.37, -2626.24, -2258.57, 0.000, 0.000, 0.000, 14:20:46.559
163, -1959.49, -2184.08, -2631.12, -2261.10, 0.000, 0.000, 0.000, 14:20:46.574
164, -2282.59, -2536.64, -2941.91, -2543.46, 0.000, 0.000, 0.000, 14:20:46.574
165, -2247.49, -2475.58, -2873.74, -2472.39, 0.000, 0.000, 0.000, 14:20:46.575
166, -1963.91, -2188.79, -2623.04, -2259.20, 0.000, 0.000, 0.000, 14:20:46.575
167, -1959.70, -2190.12, -2637.19, -2269.11, 0.000, 0.000, 0.000, 14:20:46.575
168, -2304.18, -2545.67, -2949.51, -2543.28, 0.000, 0.000, 0.000, 14:20:46.575
169, -2243.70, -2472.42, -2868.48, -2474.13, 0.000, 0.000, 0.000, 14:20:46.589
170, -1979.01, -2189.31, -2627.21, -2262.25, 0.000, 0.000, 0.000, 14:20:46.589
171, -1960.94, -2185.24, -2634.05, -2268.61, 0.000, 0.000, 0.000, 14:20:46.619
172, -2317.40, -2553.86, -2954.81, -2551.30, 0.000, 0.000, 0.000, 14:20:46.619
173, -2249.01, -2477.75, -2874.20, -2482.77, 0.000, 0.000, 0.000, 14:20:46.621
174, -1985.40, -2185.69, -2621.66, -2255.59, 0.000, 0.000, 0.000, 14:20:46.621
175, -1971.25, -2182.73, -2643.59, -2271.60, 0.000, 0.000, 0.000, 14:20:46.621
176, -2301.85, -2535.44, -2942.78, -2542.55, 0.000, 0.000, 0.000, 14:20:46.621
177, -2252.69, -2464.91, -2865.76, -2473.48, 0.000, 0.000, 0.000, 14:20:46.621
178, -1965.87, -2171.96, -2619.38, -2252.19, 0.000, 0.000, 0.000, 14:20:46.621
179, -1976.16, -2180.77, -2637.43, -2270.49, 0.000, 0.000, 0.000, 14:20:46.634
180, -2319.18, -2551.17, -2949.63, -2548.81, 0.000, 0.000, 0.000, 14:20:46.634
181, -2250.29, -2465.54, -2861.62, -2470.75, 0.000, 0.000, 0.000, 14:20:46.664
182, -1968.87, -2174.48, -2615.36, -2259.43, 0.000, 0.000, 0.000, 14:20:46.665
183, -1971.18, -2179.11, -2630.91, -2269.24, 0.000, 0.000, 0.000, 14:20:46.665
184, -2306.74, -2552.04, -2949.76, -2548.79, 0.000, 0.000, 0.000, 14:20:46.665
185, -2234.97, -2466.31, -2871.34, -2472.33, 0.000, 0.000, 0.000, 14:20:46.672
186, -1981.44, -2188.27, -2626.77, -2261.20, 0.000, 0.000, 0.000, 14:20:46.672
187, -1963.09, -2193.42, -2637.61, -2273.56, 0.000, 0.000, 0.000, 14:20:46.679
188, -2313.77, -2553.23, -2952.80, -2551.38, 0.000, 0.000, 0.000, 14:20:46.679
189, -2236.48, -2471.88, -2869.64, -2482.03, 0.000, 0.000, 0.000, 14:20:46.694
190, -1973.41, -2180.79, -2621.66, -2257.68, 0.000, 0.000, 0.000, 14:20:46.695
191, -1969.80, -2190.62, -2637.79, -2270.44, 0.000, 0.000, 0.000, 14:20:46.695
192, -2308.47, -2555.60, -2947.70, -2547.63, 0.000, 0.000, 0.000, 14:20:46.695
193, -2220.90, -2470.32, -2865.04, -2474.82, 0.000, 0.000, 0.000, 14:20:46.724
194, -1956.64, -2200.78, -2617.33, -2260.17, 0.000, 0.000, 0.000, 14:20:46.724
195, -1958.51, -2229.28, -2626.60, -2260.01, 0.000, 0.000, 0.000, 14:20:46.724
196, -2298.33, -2575.67, -2947.19, -2547.60, 0.000, 0.000, 0.000, 14:20:46.724
197, -2203.66, -2471.19, -2858.44, -2468.52, 0.000, 0.000, 0.000, 14:20:46.739
198, -1928.46, -2177.42, -2610.36, -2270.10, 0.000, 0.000, 0.000, 14:20:46.740
199, -1905.33, -2209.77, -2635.96, -2266.86, 0.000, 0.000, 0.000, 14:20:46.740
200, -2243.49, -2618.72, -2934.30, -2534.27, 0.000, 0.000, 0.000, 14:20:46.740
0, -2127.56, -2516.78, -2854.88, -2467.85, 0.000, 0.000, 0.000, 14:20:46.741
1, -1826.81, -2232.94, -2609.16, -2247.15, 0.000, 0.000, 0.000, 14:20:46.755
2, -1812.92, -2272.41, -2626.90, -2260.94, 0.000, 0.000, 0.000, 14:20:46.755
3, -2121.82, -2638.98, -2942.20, -2527.65, 0.000, 0.000, 0.000, 14:20:46.769
4, -2029.86, -2567.05, -2842.62, -2449.66, 0.000, 0.000, 0.000, 14:20:46.769
5, -1765.87, -2298.20, -2602.10, -2241.03, 0.000, 0.000, 0.000, 14:20:46.770
6, -1762.33, -2305.83, -2622.06, -2248.09, 0.000, 0.000, 0.000, 14:20:46.770
7, -2134.97, -2669.33, -2946.31, -2531.57, 0.000, 0.000, 0.000, 14:20:46.785
8, -2072.10, -2576.70, -2856.33, -2455.83, 0.000, 0.000, 0.000, 14:20:46.785
9, -1834.93, -2271.81, -2601.91, -2240.91, 0.000, 0.000, 0.000, 14:20:46.799
10, -1868.33, -2258.61, -2628.66, -2258.88, 0.000, 0.000, 0.000, 14:20:46.799
11, -2242.89, -2615.12, -2952.29, -2542.19, 0.000, 0.000, 0.000, 14:20:46.800
12, -2214.34, -2501.62, -2866.95, -2472.96, 0.000, 0.000, 0.000, 14:20:46.800
13, -1965.88, -2199.43, -2616.68, -2252.64, 0.000, 0.000, 0.000, 14:20:46.829
14, -1981.83, -2191.03, -2640.82, -2276.05, 0.000, 0.000, 0.000, 14:20:46.829
15, -2355.48, -2549.57, -2961.60, -2552.35, 0.000, 0.000, 0.000, 14:20:46.830
16, -2310.30, -2445.74, -2878.91, -2478.30, 0.000, 0.000, 0.000, 14:20:46.830
17, -2030.09, -2138.75, -2617.13, -2253.81, 0.000, 0.000, 0.000, 14:20:46.831
18, -2061.01, -2151.61, -2650.16, -2281.86, 0.000, 0.000, 0.000, 14:20:46.831
19, -2402.99, -2517.96, -2971.84, -2561.57, 0.000, 0.000, 0.000, 14:20:46.859
20, -2312.94, -2416.33, -2872.85, -2483.36, 0.000, 0.000, 0.000, 14:20:46.859
21, -2047.02, -2114.30, -2615.82, -2256.92, 0.000, 0.000, 0.000, 14:20:46.860
22, -2050.56, -2133.70, -2644.00, -2280.61, 0.000, 0.000, 0.000, 14:20:46.860
23, -2397.30, -2510.04, -2966.35, -2561.41, 0.000, 0.000, 0.000, 14:20:46.874
24, -2317.86, -2416.58, -2873.72, -2478.99, 0.000, 0.000, 0.000, 14:20:46.874
25, -2036.08, -2130.30, -2615.55, -2252.78, 0.000, 0.000, 0.000, 14:20:46.875
26, -2050.23, -2143.71, -2651.26, -2283.26, 0.000, 0.000, 0.000, 14:20:46.875
27, -2386.19, -2520.42, -2961.13, -2558.79, 0.000, 0.000, 0.000, 14:20:46.889
28, -2291.03, -2422.64, -2865.06, -2480.55, 0.000, 0.000, 0.000, 14:20:46.889
29, -2023.03, -2127.01, -2608.90, -2249.64, 0.000, 0.000, 0.000, 14:20:46.890
30, -2012.23, -2154.69, -2645.34, -2277.81, 0.000, 0.000, 0.000, 14:20:46.890
31, -2379.84, -2521.58, -2970.55, -2559.10, 0.000, 0.000, 0.000, 14:20:46.905
32, -2283.16, -2429.06, -2871.52, -2472.54, 0.000, 0.000, 0.000, 14:20:46.905
33, -2010.44, -2133.45, -2614.34, -2240.14, 0.000, 0.000, 0.000, 14:20:46.919
34, -2013.84, -2164.29, -2644.87, -2275.27, 0.000, 0.000, 0.000, 14:20:46.920
35, -2371.41, -2540.95, -2961.56, -2562.45, 0.000, 0.000, 0.000, 14:20:46.921
36, -2271.10, -2433.49, -2866.90, -2476.93, 0.000, 0.000, 0.000, 14:20:46.921
37, -2006.78, -2145.17, -2605.98, -2249.58, 0.000, 0.000, 0.000, 14:20:46.935
38, -2005.58, -2172.80, -2642.98, -2281.53, 0.000, 0.000, 0.000, 14:20:46.935
39, -2361.18, -2545.40, -2966.99, -2558.81, 0.000, 0.000, 0.000, 14:20:46.949
40, -2268.49, -2450.70, -2872.49, -2480.28, 0.000, 0.000, 0.000, 14:20:46.950
41, -1984.11, -2145.66, -2611.16, -2246.80, 0.000, 0.000, 0.000, 14:20:46.950
42, -2002.77, -2174.84, -2648.28, -2282.59, 0.000, 0.000, 0.000, 14:20:46.950
43, -2337.98, -2542.13, -2966.08, -2558.04, 0.000, 0.000, 0.000, 14:20:46.979
44, -2255.46, -2447.17, -2861.90, -2471.38, 0.000, 0.000, 0.000, 14:20:46.980
45, -1957.47, -2148.58, -2604.97, -2238.21, 0.000, 0.000, 0.000, 14:20:46.980
46, -1988.83, -2176.86, -2647.25, -2276.03, 0.000, 0.000, 0.000, 14:20:46.980
47, -2336.39, -2546.85, -2962.50, -2550.24, 0.000, 0.000, 0.000, 14:20:46.981
48, -2244.09, -2455.33, -2861.83, -2471.04, 0.000, 0.000, 0.000, 14:20:46.982
49, -1964.38, -2158.23, -2608.08, -2235.91, 0.000, 0.000, 0.000, 14:20:46.994
50, -1984.71, -2191.56, -2654.74, -2284.73, 0.000, 0.000, 0.000, 14:20:46.995
51, -2324.88, -2557.08, -2961.64, -2553.85, 0.000, 0.000, 0.000, 14:20:47.009
52, -2231.94, -2455.46, -2866.85, -2472.91, 0.000, 0.000, 0.000, 14:20:47.009
53, -1956.40, -2169.50, -2605.46, -2242.47, 0.000, 0.000, 0.000, 14:20:47.009
54, -1982.78, -2199.39, -2648.16, -2282.35, 0.000, 0.000, 0.000, 14:20:47.009
55, -2326.02, -2565.51, -2956.02, -2558.00, 0.000, 0.000, 0.000, 14:20:47.024
56, -2229.98, -2457.06, -2861.41, -2468.99, 0.000, 0.000, 0.000, 14:20:47.024
57, -1955.55, -2156.36, -2604.21, -2244.16, 0.000, 0.000, 0.000, 14:20:47.040
58, -1968.66, -2191.60, -2655.30, -2279.15, 0.000, 0.000, 0.000, 14:20:47.040
59, -2328.10, -2563.75, -2965.98, -2559.53, 0.000, 0.000, 0.000, 14:20:47.040
60, -2226.90, -2465.57, -2858.25, -2465.65, 0.000, 0.000, 0.000, 14:20:47.040
61, -1959.80, -2163.69, -2606.42, -2240.21, 0.000, 0.000, 0.000, 14:20:47.054
62, -1986.16, -2208.23, -2655.11, -2283.15, 0.000, 0.000, 0.000, 14:20:47.054
63, -2330.54, -2580.13, -2973.97, -2557.26, 0.000, 0.000, 0.000, 14:20:47.069
64, -2230.28, -2482.78, -2873.69, -2470.24, 0.000, 0.000, 0.000, 14:20:47.069
65, -1941.60, -2176.54, -2610.16, -2240.21, 0.000, 0.000, 0.000, 14:20:47.070
66, -1974.36, -2214.89, -2651.02, -2282.86, 0.000, 0.000, 0.000, 14:20:47.070
67, -2313.07, -2565.29, -2955.73, -2551.39, 0.000, 0.000, 0.000, 14:20:47.091
68, -2219.29, -2462.64, -2855.53, -2460.56, 0.000, 0.000, 0.000, 14:20:47.091
69, -1935.55, -2154.60, -2594.01, -2234.30, 0.000, 0.000, 0.000, 14:20:47.100
70, -1963.08, -2189.73, -2644.52, -2277.13, 0.000, 0.000, 0.000, 14:20:47.100
71, -2312.65, -2556.86, -2952.53, -2553.66, 0.000, 0.000, 0.000, 14:20:47.101
72, -2221.72, -2456.65, -2855.35, -2462.36, 0.000, 0.000, 0.000, 14:20:47.101
73, -1934.86, -2160.54, -2596.00, -2233.38, 0.000, 0.000, 0.000, 14:20:47.114
74, -1977.94, -2213.32, -2654.60, -2283.72, 0.000, 0.000, 0.000, 14:20:47.114
75, -2315.15, -2566.13, -2954.92, -2553.37, 0.000, 0.000, 0.000, 14:20:47.129
76, -2231.19, -2456.24, -2856.53, -2468.10, 0.000, 0.000, 0.000, 14:20:47.129
77, -1938.05, -2157.08, -2592.27, -2238.39, 0.000, 0.000, 0.000, 14:20:47.130
78, -1982.21, -2201.20, -2645.96, -2283.45, 0.000, 0.000, 0.000, 14:20:47.130
79, -2313.80, -2569.26, -2961.62, -2567.37, 0.000, 0.000, 0.000, 14:20:47.144
80, -2234.09, -2458.36, -2854.64, -2468.15, 0.000, 0.000, 0.000, 14:20:47.144
81, -1937.17, -2159.54, -2593.89, -2236.49, 0.000, 0.000, 0.000, 14:20:47.174
82, -1980.93, -2208.81, -2647.02, -2285.21, 0.000, 0.000, 0.000, 14:20:47.174
83, -2316.48, -2576.04, -2961.56, -2564.36, 0.000, 0.000, 0.000, 14:20:47.174
84, -2221.87, -2462.15, -2863.65, -2472.87, 0.000, 0.000, 0.000, 14:20:47.174
85, -1937.72, -2161.59, -2591.52, -2240.05, 0.000, 0.000, 0.000, 14:20:47.175
86, -1974.99, -2209.16, -2646.80, -2286.81, 0.000, 0.000, 0.000, 14:20:47.175
87, -2321.57, -2572.92, -2966.28, -2563.77, 0.000, 0.000, 0.000, 14:20:47.176
88, -2218.57, -2461.11, -2853.30, -2467.94, 0.000, 0.000, 0.000, 14:20:47.176
89, -1938.16, -2160.87, -2590.35, -2237.60, 0.000, 0.000, 0.000, 14:20:47.189
90, -1980.13, -2205.36, -2651.14, -2286.38, 0.000, 0.000, 0.000, 14:20:47.189
91, -2315.84, -2564.89, -2965.93, -2560.40, 0.000, 0.000, 0.000, 14:20:47.219
92, -2219.66, -2462.29, -2863.21, -2465.51, 0.000, 0.000, 0.000, 14:20:47.220
93, -1932.98, -2150.60, -2594.63, -2236.65, 0.000, 0.000, 0.000, 14:20:47.220
94, -1983.30, -2208.99, -2646.97, -2285.69, 0.000, 0.000, 0.000, 14:20:47.221
95, -2320.12, -2582.98, -2969.33, -2561.41, 0.000, 0.000, 0.000, 14:20:47.221
96, -2222.65, -2469.89, -2854.51, -2473.87, 0.000, 0.000, 0.000, 14:20:47.221
97, -1941.83, -2156.66, -2593.13, -2238.60, 0.000, 0.000, 0.000, 14:20:47.235
98, -1970.61, -2214.61, -2655.29, -2291.45, 0.000, 0.000, 0.000, 14:20:47.235
99, -2331.91, -2583.66, -2964.03, -2559.98, 0.000, 0.000, 0.000, 14:20:47.250
100, -2232.39, -2467.97, -2856.13, -2466.82, 0.000, 0.000, 0.000, 14:20:47.250
101, -1928.26, -2166.36, -2596.48, -2237.24, 0.000, 0.000, 0.000, 14:20:47.250
102, -1978.44, -2216.82, -2658.53, -2288.36, 0.000, 0.000, 0.000, 14:20:47.250
103, -2317.15, -2575.58, -2972.02, -2558.81, 0.000, 0.000, 0.000, 14:20:47.264
104, -2217.44, -2459.66, -2855.63, -2462.98, 0.000, 0.000, 0.000, 14:20:47.265
105, -1929.56, -2153.30, -2588.37, -2232.16, 0.000, 0.000, 0.000, 14:20:47.280
106, -1970.84, -2213.76, -2658.18, -2288.21, 0.000, 0.000, 0.000, 14:20:47.280
107, -2329.12, -2580.96, -2977.58, -2562.53, 0.000, 0.000, 0.000, 14:20:47.280
108, -2224.45, -2466.70, -2861.17, -2464.72, 0.000, 0.000, 0.000, 14:20:47.280
109, -1920.59, -2150.12, -2589.00, -2225.92, 0.000, 0.000, 0.000, 14:20:47.295
110, -1973.51, -2213.84, -2650.83, -2293.26, 0.000, 0.000, 0.000, 14:20:47.295
111, -2316.37, -2578.35, -2970.50, -2562.52, 0.000, 0.000, 0.000, 14:20:47.309
112, -2224.15, -2461.19, -2857.65, -2463.24, 0.000, 0.000, 0.000, 14:20:47.309
113, -1928.82, -2156.60, -2590.20, -2229.08, 0.000, 0.000, 0.000, 14:20:47.309
114, -1974.14, -2217.89, -2654.46, -2289.17, 0.000, 0.000, 0.000, 14:20:47.309
115, -2329.74, -2578.49, -2963.12, -2561.01, 0.000, 0.000, 0.000, 14:20:47.324
116, -2219.04, -2465.11, -2863.36, -2467.08, 0.000, 0.000, 0.000, 14:20:47.324
117, -1916.54, -2142.89, -2588.30, -2222.70, 0.000, 0.000, 0.000, 14:20:47.340
118, -1983.81, -2212.99, -2658.48, -2291.47, 0.000, 0.000, 0.000, 14:20:47.340
119, -2314.76, -2575.34, -2973.92, -2566.32, 0.000, 0.000, 0.000, 14:20:47.355
120, -2220.99, -2469.00, -2861.65, -2468.48, 0.000, 0.000, 0.000, 14:20:47.355
121, -1929.41, -2143.17, -2584.74, -2228.95, 0.000, 0.000, 0.000, 14:20:47.355
122, -1990.64, -2215.29, -2662.79, -2296.44, 0.000, 0.000, 0.000, 14:20:47.355
123, -2323.54, -2578.96, -2968.08, -2565.10, 0.000, 0.000, 0.000, 14:20:47.384
124, -2221.36, -2461.36, -2857.65, -2465.39, 0.000, 0.000, 0.000, 14:20:47.384
125, -1933.70, -2153.62, -2593.05, -2231.80, 0.000, 0.000, 0.000, 14:20:47.385
126, -1984.22, -2220.30, -2663.96, -2297.73, 0.000, 0.000, 0.000, 14:20:47.385
127, -2333.90, -2582.37, -2972.30, -2565.17, 0.000, 0.000, 0.000, 14:20:47.385
128, -2222.12, -2463.66, -2859.19, -2473.78, 0.000, 0.000, 0.000, 14:20:47.385
129, -1920.94, -2148.61, -2585.47, -2231.04, 0.000, 0.000, 0.000, 14:20:47.387
130, -1980.03, -2219.24, -2662.07, -2293.97, 0.000, 0.000, 0.000, 14:20:47.387
131, -2338.00, -2586.93, -2973.44, -2574.51, 0.000, 0.000, 0.000, 14:20:47.400
132, -2223.74, -2454.04, -2850.04, -2462.94, 0.000, 0.000, 0.000, 14:20:47.400
133, -1934.71, -2144.91, -2580.41, -2222.59, 0.000, 0.000, 0.000, 14:20:47.415
134, -1976.34, -2219.36, -2662.06, -2295.45, 0.000, 0.000, 0.000, 14:20:47.415
135, -2332.58, -2582.80, -2973.16, -2570.87, 0.000, 0.000, 0.000, 14:20:47.430
136, -2212.87, -2453.30, -2856.71, -2464.91, 0.000, 0.000, 0.000, 14:20:47.430
137, -1922.18, -2141.11, -2579.52, -2230.64, 0.000, 0.000, 0.000, 14:20:47.430
138, -1997.09, -2222.27, -2664.69, -2305.38, 0.000, 0.000, 0.000, 14:20:47.430
139, -2321.36, -2581.15, -2974.70, -2567.76, 0.000, 0.000, 0.000, 14:20:47.445
140, -2208.26, -2457.44, -2856.53, -2463.84, 0.000, 0.000, 0.000, 14:20:47.445
141, -1924.37, -2144.64, -2579.09, -2227.75, 0.000, 0.000, 0.000, 14:20:47.460
142, -1986.52, -2218.98, -2661.24, -2300.24, 0.000, 0.000, 0.000, 14:20:47.460
143, -2334.14, -2578.43, -2973.08, -2566.78, 0.000, 0.000, 0.000, 14:20:47.460
144, -2219.07, -2456.92, -2856.82, -2467.54, 0.000, 0.000, 0.000, 14:20:47.460
145, -1930.71, -2137.71, -2581.87, -2219.07, 0.000, 0.000, 0.000, 14:20:47.474
146, -1985.73, -2222.50, -2663.31, -2295.84, 0.000, 0.000, 0.000, 14:20:47.474
147, -2332.23, -2583.18, -2968.73, -2572.43, 0.000, 0.000, 0.000, 14:20:47.489
148, -2221.17, -2452.84, -2849.17, -2459.67, 0.000, 0.000, 0.000, 14:20:47.489
149, -1916.96, -2131.72, -2573.70, -2215.39, 0.000, 0.000, 0.000, 14:20:47.490
150, -1999.08, -2223.82, -2661.24, -2298.81, 0.000, 0.000, 0.000, 14:20:47.490
151, -2331.95, -2588.70, -2979.85, -2568.76, 0.000, 0.000, 0.000, 14:20:47.504
152, -2226.58, -2455.44, -2858.64, -2459.18, 0.000, 0.000, 0.000, 14:20:47.504
153, -1927.93, -2136.54, -2573.82, -2220.67, 0.000, 0.000, 0.000, 14:20:47.519
154, -1992.91, -2227.06, -2672.86, -2299.53, 0.000, 0.000, 0.000, 14:20:47.520
155, -2346.53, -2584.23, -2975.04, -2569.75, 0.000, 0.000, 0.000, 14:20:47.526
156, -2219.35, -2445.88, -2845.42, -2459.29, 0.000, 0.000, 0.000, 14:20:47.526
157, -1923.23, -2140.94, -2574.77, -2227.06, 0.000, 0.000, 0.000, 14:20:47.536
158, -1985.30, -2224.06, -2662.28, -2301.49, 0.000, 0.000, 0.000, 14:20:47.536
159, -2326.83, -2588.83, -2978.51, -2563.57, 0.000, 0.000, 0.000, 14:20:47.550
160, -2220.82, -2450.89, -2860.33, -2456.92, 0.000, 0.000, 0.000, 14:20:47.550
161, -1928.02, -2144.32, -2578.51, -2224.37, 0.000, 0.000, 0.000, 14:20:47.551
162, -1985.83, -2227.25, -2664.14, -2302.51, 0.000, 0.000, 0.000, 14:20:47.551
163, -2340.10, -2585.05, -2973.42, -2566.29, 0.000, 0.000, 0.000, 14:20:47.565
164, -2207.34, -2446.49, -2850.56, -2456.59, 0.000, 0.000, 0.000, 14:20:47.565
165, -1907.38, -2140.57, -2570.97, -2225.42, 0.000, 0.000, 0.000, 14:20:47.579
166, -1995.27, -2232.18, -2673.30, -2302.88, 0.000, 0.000, 0.000, 14:20:47.579
167, -2327.68, -2578.42, -2972.38, -2562.22, 0.000, 0.000, 0.000, 14:20:47.580
168, -2193.15, -2449.18, -2853.18, -2459.45, 0.000, 0.000, 0.000, 14:20:47.580
169, -1922.61, -2135.18, -2570.75, -2226.97, 0.000, 0.000, 0.000, 14:20:47.594
170, -1997.27, -2232.80, -2678.63, -2299.77, 0.000, 0.000, 0.000, 14:20:47.594
171, -2324.46, -2583.11, -2971.89, -2570.18, 0.000, 0.000, 0.000, 14:20:47.609
172, -2212.10, -2449.98, -2843.42, -2456.45, 0.000, 0.000, 0.000, 14:20:47.609
173, -1921.10, -2146.56, -2578.86, -2222.27, 0.000, 0.000, 0.000, 14:20:47.610
174, -1994.23, -2240.26, -2673.02, -2308.19, 0.000, 0.000, 0.000, 14:20:47.610
175, -2319.69, -2584.08, -2977.20, -2575.14, 0.000, 0.000, 0.000, 14:20:47.624
176, -2215.32, -2446.19, -2849.90, -2454.70, 0.000, 0.000, 0.000, 14:20:47.624
177, -1923.55, -2141.89, -2579.86, -2219.88, 0.000, 0.000, 0.000, 14:20:47.639
178, -2007.07, -2241.21, -2673.13, -2309.43, 0.000, 0.000, 0.000, 14:20:47.639
179, -2323.90, -2587.44, -2975.19, -2572.17, 0.000, 0.000, 0.000, 14:20:47.639
180, -2211.24, -2442.15, -2842.13, -2455.73, 0.000, 0.000, 0.000, 14:20:47.639
181, -1919.11, -2138.11, -2577.56, -2224.99, 0.000, 0.000, 0.000, 14:20:47.654
182, -2002.81, -2238.56, -2678.50, -2311.74, 0.000, 0.000, 0.000, 14:20:47.654
183, -2330.42, -2585.61, -2978.62, -2572.27, 0.000, 0.000, 0.000, 14:20:47.670
184, -2207.40, -2441.56, -2840.29, -2454.38, 0.000, 0.000, 0.000, 14:20:47.670
185, -1913.44, -2129.75, -2573.81, -2221.20, 0.000, 0.000, 0.000, 14:20:47.670
186, -2008.39, -2240.21, -2673.65, -2306.99, 0.000, 0.000, 0.000, 14:20:47.670
187, -2323.31, -2576.77, -2971.81, -2562.39, 0.000, 0.000, 0.000, 14:20:47.685
188, -2203.35, -2442.39, -2836.38, -2441.48, 0.000, 0.000, 0.000, 14:20:47.685
189, -1916.35, -2131.78, -2571.10, -2217.60, 0.000, 0.000, 0.000, 14:20:47.700
190, -1997.45, -2236.45, -2680.36, -2310.34, 0.000, 0.000, 0.000, 14:20:47.700
191, -2326.02, -2581.82, -2970.85, -2560.19, 0.000, 0.000, 0.000, 14:20:47.701
192, -2209.04, -2444.75, -2840.45, -2451.92, 0.000, 0.000, 0.000, 14:20:47.701
193, -1912.70, -2133.15, -2567.75, -2213.50, 0.000, 0.000, 0.000, 14:20:47.744
194, -2003.94, -2238.35, -2673.62, -2313.35, 0.000, 0.000, 0.000, 14:20:47.744
195, -2332.72, -2587.58, -2966.04, -2564.08, 0.000, 0.000, 0.000, 14:20:47.744
196, -2208.43, -2438.90, -2842.81, -2455.35, 0.000, 0.000, 0.000, 14:20:47.744
197, -1909.67, -2130.62, -2571.59, -2219.61, 0.000, 0.000, 0.000, 14:20:47.745
198, -2013.24, -2243.78, -2679.94, -2321.67, 0.000, 0.000, 0.000, 14:20:47.745
199, -2335.12, -2582.32, -2977.18, -2570.94, 0.000, 0.000, 0.000, 14:20:47.748
200, -2202.59, -2438.64, -2840.12, -2447.83, 0.000, 0.000, 0.000, 14:20:47.748
0, -1920.08, -2136.63, -2572.02, -2223.38, 0.000, 0.000, 0.000, 14:20:47.748
1, -2009.40, -2247.45, -2686.68, -2314.19, 0.000, 0.000, 0.000, 14:20:47.774
2, -2334.53, -2578.33, -2974.13, -2564.54, 0.000, 0.000, 0.000, 14:20:47.774
3, -2202.68, -2442.17, -2845.89, -2451.78, 0.000, 0.000, 0.000, 14:20:47.774
4, -1932.78, -2150.43, -2586.62, -2227.68, 0.000, 0.000, 0.000, 14:20:47.774
5, -2031.05, -2270.25, -2705.62, -2329.06, 0.000, 0.000, 0.000, 14:20:47.775
6, -2346.81, -2597.30, -2988.94, -2579.55, 0.000, 0.000, 0.000, 14:20:47.775
7, -2206.77, -2447.91, -2846.51, -2453.24, 0.000, 0.000, 0.000, 14:20:47.789
8, -1923.16, -2139.39, -2574.06, -2217.60, 0.000, 0.000, 0.000, 14:20:47.789
9, -2012.43, -2244.85, -2686.42, -2317.18, 0.000, 0.000, 0.000, 14:20:47.804
10, -2335.72, -2567.72, -2965.97, -2560.03, 0.000, 0.000, 0.000, 14:20:47.804
11, -2188.89, -2429.11, -2827.75, -2443.65, 0.000, 0.000, 0.000, 14:20:47.804
12, -1918.13, -2121.42, -2574.00, -2211.39, 0.000, 0.000, 0.000, 14:20:47.804
13, -2017.12, -2247.33, -2690.43, -2318.44, 0.000, 0.000, 0.000, 14:20:47.820
14, -2339.93, -2581.40, -2971.08, -2565.00, 0.000, 0.000, 0.000, 14:20:47.821
15, -2190.36, -2430.44, -2835.61, -2438.44, 0.000, 0.000, 0.000, 14:20:47.835
16, -1917.29, -2128.02, -2575.89, -2216.94, 0.000, 0.000, 0.000, 14:20:47.835
17, -2022.22, -2253.25, -2693.93, -2318.88, 0.000, 0.000, 0.000, 14:20:47.835
18, -2323.81, -2569.72, -2966.06, -2563.56, 0.000, 0.000, 0.000, 14:20:47.835
19, -2206.99, -2426.42, -2831.24, -2447.96, 0.000, 0.000, 0.000, 14:20:47.849
20, -1917.99, -2132.67, -2572.58, -2217.69, 0.000, 0.000, 0.000, 14:20:47.850
21, -2021.38, -2250.17, -2692.49, -2320.42, 0.000, 0.000, 0.000, 14:20:47.864
22, -2328.74, -2574.15, -2970.61, -2556.74, 0.000, 0.000, 0.000, 14:20:47.864
23, -2195.36, -2426.51, -2827.79, -2442.38, 0.000, 0.000, 0.000, 14:20:47.865
24, -1920.55, -2131.88, -2581.29, -2216.83, 0.000, 0.000, 0.000, 14:20:47.865
25, -2015.10, -2251.68, -2697.39, -2328.45, 0.000, 0.000, 0.000, 14:20:47.894
26, -2334.48, -2579.90, -2976.55, -2565.55, 0.000, 0.000, 0.000, 14:20:47.894
27, -2197.44, -2438.13, -2832.16, -2438.79, 0.000, 0.000, 0.000, 14:20:47.895
28, -1917.34, -2131.19, -2572.70, -2218.65, 0.000, 0.000, 0.000, 14:20:47.895
29, -2027.13, -2254.22, -2694.55, -2326.69, 0.000, 0.000, 0.000, 14:20:47.895
30, -2323.29, -2576.85, -2969.20, -2563.36, 0.000, 0.000, 0.000, 14:20:47.896
31, -2194.76, -2428.72, -2823.32, -2440.98, 0.000, 0.000, 0.000, 14:20:47.917
32, -1920.02, -2127.48, -2574.36, -2220.86, 0.000, 0.000, 0.000, 14:20:47.917
33, -2018.02, -2259.48, -2696.86, -2321.85, 0.000, 0.000, 0.000, 14:20:47.924
34, -2333.62, -2581.15, -2971.37, -2572.91, 0.000, 0.000, 0.000, 14:20:47.924
35, -2195.14, -2426.54, -2829.75, -2442.64, 0.000, 0.000, 0.000, 14:20:47.925
36, -1923.82, -2132.77, -2577.09, -2222.24, 0.000, 0.000, 0.000, 14:20:47.925
37, -2026.66, -2260.68, -2697.61, -2336.54, 0.000, 0.000, 0.000, 14:20:47.939
38, -2336.55, -2578.00, -2966.69, -2566.65, 0.000, 0.000, 0.000, 14:20:47.939
39, -2189.05, -2425.40, -2829.17, -2444.50, 0.000, 0.000, 0.000, 14:20:47.954
40, -1910.24, -2133.31, -2572.08, -2212.64, 0.000, 0.000, 0.000, 14:20:47.954
41, -2032.78, -2257.74, -2698.56, -2325.84, 0.000, 0.000, 0.000, 14:20:47.955
42, -2318.81, -2580.33, -2974.85, -2560.98, 0.000, 0.000, 0.000, 14:20:47.955
43, -2194.71, -2425.21, -2826.32, -2440.12, 0.000, 0.000, 0.000, 14:20:47.971
44, -1903.20, -2124.16, -2565.23, -2206.68, 0.000, 0.000, 0.000, 14:20:47.971
45, -2028.77, -2255.70, -2699.05, -2325.20, 0.000, 0.000, 0.000, 14:20:47.984
46, -2326.42, -2579.82, -2971.59, -2565.67, 0.000, 0.000, 0.000, 14:20:47.984
47, -2198.02, -2431.41, -2834.21, -2444.84, 0.000, 0.000, 0.000, 14:20:47.985
48, -1917.59, -2126.54, -2569.12, -2216.59, 0.000, 0.000, 0.000, 14:20:47.985
49, -2030.74, -2263.61, -2707.55, -2328.68, 0.000, 0.000, 0.000, 14:20:48.000
50, -2334.72, -2584.90, -2974.02, -2565.10, 0.000, 0.000, 0.000, 14:20:48.000
51, -2203.62, -2434.78, -2836.00, -2444.59, 0.000, 0.000, 0.000, 14:20:48.014
52, -1918.20, -2123.41, -2569.10, -2210.87, 0.000, 0.000, 0.000, 14:20:48.014
53, -2039.43, -2265.33, -2706.69, -2332.88, 0.000, 0.000, 0.000, 14:20:48.015
54, -2345.59, -2589.94, -2981.10, -2568.63, 0.000, 0.000, 0.000, 14:20:48.015
55, -2198.27, -2434.18, -2835.57, -2442.37, 0.000, 0.000, 0.000, 14:20:48.029
56, -1908.31, -2129.94, -2570.59, -2211.40, 0.000, 0.000, 0.000, 14:20:48.030
57, -2032.71, -2272.62, -2699.97, -2330.81, 0.000, 0.000, 0.000, 14:20:48.044
58, -2330.14, -2593.00, -2974.89, -2573.36, 0.000, 0.000, 0.000, 14:20:48.044
59, -2200.28, -2423.40, -2828.31, -2438.82, 0.000, 0.000, 0.000, 14:20:48.045
60, -1900.43, -2119.72, -2563.54, -2206.75, 0.000, 0.000, 0.000, 14:20:48.045
61, -2036.90, -2262.78, -2702.64, -2331.00, 0.000, 0.000, 0.000, 14:20:48.059
62, -2319.09, -2583.11, -2971.55, -2563.74, 0.000, 0.000, 0.000, 14:20:48.059
63, -2187.61, -2421.99, -2821.87, -2434.68, 0.000, 0.000, 0.000, 14:20:48.075
64, -1902.44, -2118.04, -2568.59, -2207.69, 0.000, 0.000, 0.000, 14:20:48.075
65, -2029.36, -2264.20, -2703.52, -2332.35, 0.000, 0.000, 0.000, 14:20:48.089
66, -2336.05, -2580.19, -2973.94, -2567.70, 0.000, 0.000, 0.000, 14:20:48.089
67, -2192.60, -2421.83, -2826.18, -2440.92, 0.000, 0.000, 0.000, 14:20:48.090
68, -1908.31, -2118.78, -2564.39, -2211.94, 0.000, 0.000, 0.000, 14:20:48.090
69, -2031.93, -2265.91, -2711.56, -2332.27, 0.000, 0.000, 0.000, 14:20:48.104
70, -2340.01, -2587.20, -2973.13, -2574.51, 0.000, 0.000, 0.000, 14:20:48.105
71, -2191.74, -2437.94, -2832.48, -2441.26, 0.000, 0.000, 0.000, 14:20:48.105
72, -1904.97, -2124.10, -2567.91, -2210.05, 0.000, 0.000, 0.000, 14:20:48.105
73, -2033.28, -2273.54, -2713.17, -2333.36, 0.000, 0.000, 0.000, 14:20:48.121
74, -2335.93, -2588.69, -2982.62, -2569.72, 0.000, 0.000, 0.000, 14:20:48.121
75, -2204.56, -2426.15, -2832.24, -2443.88, 0.000, 0.000, 0.000, 14:20:48.135
76, -1903.41, -2120.36, -2567.46, -2209.24, 0.000, 0.000, 0.000, 14:20:48.135
77, -2043.04, -2282.62, -2719.41, -2341.50, 0.000, 0.000, 0.000, 14:20:48.135
78, -2341.90, -2584.79, -2981.89, -2573.68, 0.000, 0.000, 0.000, 14:20:48.136
79, -2190.97, -2427.06, -2826.88, -2444.82, 0.000, 0.000, 0.000, 14:20:48.149
80, -1908.53, -2123.12, -2563.37, -2208.99, 0.000, 0.000, 0.000, 14:20:48.149
81, -2031.61, -2276.91, -2711.25, -2338.98, 0.000, 0.000, 0.000, 14:20:48.164
82, -2337.36, -2587.71, -2979.20, -2565.51, 0.000, 0.000, 0.000, 14:20:48.164
83, -2187.71, -2417.89, -2817.85, -2438.88, 0.000, 0.000, 0.000, 14:20:48.165
84, -1901.31, -2120.12, -2557.57, -2208.24, 0.000, 0.000, 0.000, 14:20:48.165
85, -2047.83, -2277.11, -2712.89, -2335.50, 0.000, 0.000, 0.000, 14:20:48.180
86, -2339.38, -2581.69, -2977.59, -2567.86, 0.000, 0.000, 0.000, 14:20:48.180
87, -2194.00, -2416.69, -2828.05, -2442.02, 0.000, 0.000, 0.000, 14:20:48.194
88, -1904.86, -2121.27, -2568.74, -2203.41, 0.000, 0.000, 0.000, 14:20:48.194
89, -2043.64, -2278.99, -2716.99, -2341.13, 0.000, 0.000, 0.000, 14:20:48.194
90, -2329.11, -2582.34, -2973.81, -2569.32, 0.000, 0.000, 0.000, 14:20:48.194
91, -2175.58, -2426.62, -2827.24, -2433.99, 0.000, 0.000, 0.000, 14:20:48.209
92, -1903.55, -2120.59, -2562.73, -2204.63, 0.000, 0.000, 0.000, 14:20:48.209
93, -2028.11, -2282.35, -2716.94, -2340.22, 0.000, 0.000, 0.000, 14:20:48.224
94, -2330.26, -2593.16, -2968.91, -2563.06, 0.000, 0.000, 0.000, 14:20:48.225
95, -2175.85, -2422.77, -2821.65, -2429.42, 0.000, 0.000, 0.000, 14:20:48.225
96, -1885.76, -2147.61, -2559.12, -2201.07, 0.000, 0.000, 0.000, 14:20:48.225
97, -2018.31, -2290.46, -2713.53, -2344.34, 0.000, 0.000, 0.000, 14:20:48.239
98, -2322.73, -2601.03, -2958.80, -2560.97, 0.000, 0.000, 0.000, 14:20:48.239
99, -2148.93, -2413.85, -2812.27, -2439.89, 0.000, 0.000, 0.000, 14:20:48.255
100, -1838.98, -2142.00, -2547.53, -2208.86, 0.000, 0.000, 0.000, 14:20:48.255
101, -1982.63, -2314.19, -2703.34, -2343.57, 0.000, 0.000, 0.000, 14:20:48.255
102, -2248.80, -2608.84, -2958.53, -2555.21, 0.000, 0.000, 0.000, 14:20:48.256
103, -2084.72, -2481.86, -2810.10, -2425.00, 0.000, 0.000, 0.000, 14:20:48.285
104, -1770.98, -2177.38, -2540.30, -2192.24, 0.000, 0.000, 0.000, 14:20:48.285
105, -1883.14, -2355.39, -2697.44, -2343.63, 0.000, 0.000, 0.000, 14:20:48.286
106, -2144.10, -2633.54, -2938.26, -2546.90, 0.000, 0.000, 0.000, 14:20:48.286
107, -1973.35, -2523.39, -2788.23, -2411.75, 0.000, 0.000, 0.000, 14:20:48.286
108, -1696.70, -2196.04, -2542.89, -2193.67, 0.000, 0.000, 0.000, 14:20:48.286
109, -1839.36, -2395.08, -2697.81, -2331.29, 0.000, 0.000, 0.000, 14:20:48.299
110, -2131.88, -2710.47, -2959.49, -2547.84, 0.000, 0.000, 0.000, 14:20:48.300
111, -1981.40, -2543.20, -2804.32, -2409.45, 0.000, 0.000, 0.000, 14:20:48.329
112, -1715.59, -2245.23, -2552.19, -2193.88, 0.000, 0.000, 0.000, 14:20:48.329
113, -1889.05, -2405.97, -2716.75, -2327.63, 0.000, 0.000, 0.000, 14:20:48.330
114, -2183.94, -2683.16, -2965.60, -2551.19, 0.000, 0.000, 0.000, 14:20:48.330
115, -2072.23, -2500.31, -2813.92, -2418.08, 0.000, 0.000, 0.000, 14:20:48.331
116, -1826.82, -2184.52, -2563.15, -2204.08, 0.000, 0.000, 0.000, 14:20:48.331
117, -2015.47, -2336.53, -2730.79, -2339.83, 0.000, 0.000, 0.000, 14:20:48.331
118, -2321.13, -2612.12, -2976.07, -2556.91, 0.000, 0.000, 0.000, 14:20:48.331
119, -2201.38, -2416.32, -2832.33, -2424.83, 0.000, 0.000, 0.000, 14:20:48.344
120, -1941.79, -2099.63, -2570.02, -2208.29, 0.000, 0.000, 0.000, 14:20:48.344
121, -2120.28, -2265.13, -2739.14, -2356.73, 0.000, 0.000, 0.000, 14:20:48.359
122, -2401.50, -2534.60, -2978.91, -2565.90, 0.000, 0.000, 0.000, 14:20:48.359
123, -2271.72, -2365.79, -2828.60, -2430.39, 0.000, 0.000, 0.000, 14:20:48.404
124, -1991.77, -2055.99, -2572.58, -2212.18, 0.000, 0.000, 0.000, 14:20:48.404
125, -2157.77, -2226.80, -2743.29, -2358.44, 0.000, 0.000, 0.000, 14:20:48.405
126, -2429.37, -2510.94, -2977.80, -2568.60, 0.000, 0.000, 0.000, 14:20:48.405
127, -2279.11, -2341.76, -2821.10, -2429.51, 0.000, 0.000, 0.000, 14:20:48.405
128, -1994.75, -2043.81, -2566.52, -2205.12, 0.000, 0.000, 0.000, 14:20:48.405
129, -2150.99, -2232.48, -2739.07, -2358.21, 0.000, 0.000, 0.000, 14:20:48.406
130, -2426.78, -2513.92, -2975.60, -2566.51, 0.000, 0.000, 0.000, 14:20:48.406
131, -2260.45, -2336.96, -2815.62, -2436.55, 0.000, 0.000, 0.000, 14:20:48.407
132, -1991.55, -2052.00, -2572.14, -2215.22, 0.000, 0.000, 0.000, 14:20:48.407
133, -2139.56, -2230.77, -2730.21, -2360.68, 0.000, 0.000, 0.000, 14:20:48.420
134, -2406.10, -2524.66, -2979.46, -2572.32, 0.000, 0.000, 0.000, 14:20:48.420
135, -2255.83, -2351.37, -2821.80, -2430.43, 0.000, 0.000, 0.000, 14:20:48.435
136, -1975.50, -2070.37, -2568.05, -2215.46, 0.000, 0.000, 0.000, 14:20:48.435
137, -2137.22, -2256.05, -2739.91, -2365.31, 0.000, 0.000, 0.000, 14:20:48.435
138, -2400.60, -2532.22, -2975.14, -2574.06, 0.000, 0.000, 0.000, 14:20:48.435
139, -2250.08, -2364.64, -2815.47, -2432.86, 0.000, 0.000, 0.000, 14:20:48.464
140, -1962.56, -2078.25, -2568.80, -2215.41, 0.000, 0.000, 0.000, 14:20:48.465
141, -2133.53, -2266.07, -2745.96, -2365.96, 0.000, 0.000, 0.000, 14:20:48.465
142, -2391.15, -2543.85, -2974.19, -2570.13, 0.000, 0.000, 0.000, 14:20:48.465
143, -2228.62, -2377.32, -2817.55, -2428.20, 0.000, 0.000, 0.000, 14:20:48.465
144, -1957.96, -2082.86, -2566.37, -2206.71, 0.000, 0.000, 0.000, 14:20:48.465
145, -2100.97, -2269.06, -2738.85, -2357.08, 0.000, 0.000, 0.000, 14:20:48.494
146, -2374.19, -2545.82, -2972.22, -2567.47, 0.000, 0.000, 0.000, 14:20:48.494
147, -2224.08, -2383.64, -2818.32, -2428.88, 0.000, 0.000, 0.000, 14:20:48.495
148, -1932.69, -2087.60, -2554.75, -2207.48, 0.000, 0.000, 0.000, 14:20:48.495
149, -2098.72, -2272.62, -2738.15, -2356.62, 0.000, 0.000, 0.000, 14:20:48.496
150, -2367.88, -2559.20, -2973.72, -2559.96, 0.000, 0.000, 0.000, 14:20:48.496
151, -2201.60, -2379.26, -2811.35, -2423.45, 0.000, 0.000, 0.000, 14:20:48.509
152, -1924.63, -2092.08, -2565.43, -2207.32, 0.000, 0.000, 0.000, 14:20:48.509
153, -2102.24, -2301.54, -2753.71, -2367.31, 0.000, 0.000, 0.000, 14:20:48.524
154, -2374.81, -2582.49, -2983.39, -2571.66, 0.000, 0.000, 0.000, 14:20:48.524
155, -2203.44, -2411.70, -2832.81, -2434.95, 0.000, 0.000, 0.000, 14:20:48.525
156, -1921.70, -2122.87, -2572.79, -2220.09, 0.000, 0.000, 0.000, 14:20:48.525
157, -2091.60, -2307.56, -2752.32, -2366.50, 0.000, 0.000, 0.000, 14:20:48.539
158, -2352.49, -2580.92, -2973.81, -2571.66, 0.000, 0.000, 0.000, 14:20:48.539
159, -2184.48, -2398.85, -2803.60, -2420.49, 0.000, 0.000, 0.000, 14:20:48.554
160, -1903.77, -2103.21, -2553.56, -2204.17, 0.000, 0.000, 0.000, 14:20:48.554
161, -2071.33, -2291.39, -2732.04, -2361.20, 0.000, 0.000, 0.000, 14:20:48.561
162, -2342.67, -2578.96, -2973.07, -2569.86, 0.000, 0.000, 0.000, 14:20:48.562
163, -2178.26, -2398.20, -2809.71, -2421.80, 0.000, 0.000, 0.000, 14:20:48.570
164, -1890.96, -2096.43, -2546.89, -2205.99, 0.000, 0.000, 0.000, 14:20:48.570
165, -2067.40, -2296.73, -2735.62, -2364.78, 0.000, 0.000, 0.000, 14:20:48.584
166, -2326.44, -2573.58, -2966.24, -2566.82, 0.000, 0.000, 0.000, 14:20:48.584
167, -2169.77, -2390.77, -2803.08, -2422.69, 0.000, 0.000, 0.000, 14:20:48.585
168, -1884.24, -2093.63, -2547.66, -2199.81, 0.000, 0.000, 0.000, 14:20:48.585
169, -2055.59, -2308.09, -2738.69, -2367.31, 0.000, 0.000, 0.000, 14:20:48.600
170, -2331.17, -2575.63, -2972.73, -2567.20, 0.000, 0.000, 0.000, 14:20:48.600
171, -2168.87, -2402.50, -2811.40, -2421.86, 0.000, 0.000, 0.000, 14:20:48.615
172, -1884.63, -2104.45, -2550.51, -2196.71, 0.000, 0.000, 0.000, 14:20:48.615
173, -2070.76, -2301.07, -2738.09, -2362.13, 0.000, 0.000, 0.000, 14:20:48.615
174, -2333.19, -2578.58, -2973.08, -2569.69, 0.000, 0.000, 0.000, 14:20:48.616
175, -2171.59, -2402.90, -2809.86, -2426.41, 0.000, 0.000, 0.000, 14:20:48.629
176, -1887.55, -2106.77, -2555.52, -2196.89, 0.000, 0.000, 0.000, 14:20:48.629
177, -2073.14, -2309.86, -2741.73, -2360.65, 0.000, 0.000, 0.000, 14:20:48.644
178, -2335.03, -2579.68, -2970.08, -2563.56, 0.000, 0.000, 0.000, 14:20:48.644
179, -2177.65, -2402.40, -2806.68, -2417.24, 0.000, 0.000, 0.000, 14:20:48.644
180, -1894.40, -2107.53, -2556.34, -2202.58, 0.000, 0.000, 0.000, 14:20:48.645
181, -2077.14, -2310.10, -2746.38, -2371.19, 0.000, 0.000, 0.000, 14:20:48.659
182, -2339.82, -2579.47, -2969.87, -2568.82, 0.000, 0.000, 0.000, 14:20:48.659
183, -2179.54, -2404.03, -2810.43, -2421.55, 0.000, 0.000, 0.000, 14:20:48.675
184, -1895.98, -2111.52, -2555.18, -2197.39, 0.000, 0.000, 0.000, 14:20:48.675
185, -2066.20, -2311.98, -2740.71, -2365.87, 0.000, 0.000, 0.000, 14:20:48.675
186, -2345.62, -2585.62, -2971.21, -2566.26, 0.000, 0.000, 0.000, 14:20:48.675
187, -2166.41, -2394.44, -2803.51, -2416.98, 0.000, 0.000, 0.000, 14:20:48.689
188, -1882.11, -2101.57, -2541.41, -2192.51, 0.000, 0.000, 0.000, 14:20:48.689
189, -2081.32, -2318.00, -2747.59, -2367.23, 0.000, 0.000, 0.000, 14:20:48.704
190, -2331.88, -2587.18, -2970.31, -2566.65, 0.000, 0.000, 0.000, 14:20:48.704
191, -2172.57, -2405.84, -2811.20, -2415.44, 0.000, 0.000, 0.000, 14:20:48.705
192, -1888.64, -2111.10, -2547.34, -2190.61, 0.000, 0.000, 0.000, 14:20:48.705
193, -2083.61, -2324.41, -2753.65, -2365.83, 0.000, 0.000, 0.000, 14:20:48.720
194, -2331.66, -2579.35, -2963.25, -2559.24, 0.000, 0.000, 0.000, 14:20:48.721
195, -2175.21, -2403.85, -2812.63, -2421.21, 0.000, 0.000, 0.000, 14:20:48.736
196, -1889.53, -2112.14, -2559.61, -2195.45, 0.000, 0.000, 0.000, 14:20:48.736
197, -2087.62, -2317.83, -2758.84, -2369.74, 0.000, 0.000, 0.000, 14:20:48.736
198, -2339.82, -2582.59, -2977.77, -2564.16, 0.000, 0.000, 0.000, 14:20:48.736
199, -2163.83, -2398.14, -2810.53, -2417.47, 0.000, 0.000, 0.000, 14:20:48.750
200, -1888.11, -2104.95, -2551.43, -2200.10, 0.000, 0.000, 0.000, 14:20:48.750
0, -2082.45, -2322.06, -2751.00, -2366.92, 0.000, 0.000, 0.000, 14:20:48.751
1, -2331.62, -2583.04, -2973.13, -2563.92, 0.000, 0.000, 0.000, 14:20:48.765
2, -2172.03, -2398.07, -2807.17, -2420.55, 0.000, 0.000, 0.000, 14:20:48.765
3, -1886.40, -2100.81, -2549.32, -2202.31, 0.000, 0.000, 0.000, 14:20:48.780
4, -2074.08, -2315.42, -2746.33, -2375.72, 0.000, 0.000, 0.000, 14:20:48.780
5, -2322.27, -2574.69, -2966.33, -2562.88, 0.000, 0.000, 0.000, 14:20:48.780
6, -2155.67, -2389.32, -2799.39, -2413.58, 0.000, 0.000, 0.000, 14:20:48.780
7, -1876.78, -2098.53, -2546.99, -2190.52, 0.000, 0.000, 0.000, 14:20:48.794
8, -2073.46, -2322.79, -2751.55, -2375.83, 0.000, 0.000, 0.000, 14:20:48.794
9, -2322.04, -2568.07, -2967.81, -2566.62, 0.000, 0.000, 0.000, 14:20:48.809
10, -2155.39, -2393.38, -2798.54, -2413.57, 0.000, 0.000, 0.000, 14:20:48.809
11, -1885.68, -2102.05, -2557.23, -2197.26, 0.000, 0.000, 0.000, 14:20:48.810
12, -2082.89, -2324.33, -2755.82, -2377.61, 0.000, 0.000, 0.000, 14:20:48.810
13, -2319.62, -2571.56, -2973.89, -2564.98, 0.000, 0.000, 0.000, 14:20:48.854
14, -2158.35, -2398.15, -2803.06, -2412.20, 0.000, 0.000, 0.000, 14:20:48.854
15, -1889.78, -2108.32, -2552.13, -2197.00, 0.000, 0.000, 0.000, 14:20:48.855
16, -2081.68, -2326.96, -2759.75, -2378.34, 0.000, 0.000, 0.000, 14:20:48.855
17, -2327.84, -2579.05, -2972.80, -2563.58, 0.000, 0.000, 0.000, 14:20:48.855
18, -2145.15, -2398.40, -2802.96, -2415.49, 0.000, 0.000, 0.000, 14:20:48.856
19, -1883.59, -2108.20, -2557.30, -2200.06, 0.000, 0.000, 0.000, 14:20:48.856
20, -2085.45, -2332.69, -2767.05, -2383.54, 0.000, 0.000, 0.000, 14:20:48.856
21, -2324.01, -2574.48, -2969.94, -2562.33, 0.000, 0.000, 0.000, 14:20:48.864
22, -2161.47, -2391.97, -2798.19, -2412.35, 0.000, 0.000, 0.000, 14:20:48.864
23, -1886.79, -2101.89, -2556.42, -2199.35, 0.000, 0.000, 0.000, 14:20:48.885
24, -2082.74, -2328.92, -2762.18, -2381.84, 0.000, 0.000, 0.000, 14:20:48.885
25, -2322.92, -2578.11, -2974.00, -2562.27, 0.000, 0.000, 0.000, 14:20:48.885
26, -2158.94, -2387.90, -2796.71, -2411.55, 0.000, 0.000, 0.000, 14:20:48.885
27, -1879.75, -2104.35, -2548.07, -2199.18, 0.000, 0.000, 0.000, 14:20:48.899
28, -2090.53, -2335.25, -2765.89, -2388.20, 0.000, 0.000, 0.000, 14:20:48.900
29, -2329.93, -2573.71, -2968.87, -2563.04, 0.000, 0.000, 0.000, 14:20:48.900
30, -2157.52, -2378.60, -2795.89, -2407.47, 0.000, 0.000, 0.000, 14:20:48.900
31, -1891.73, -2094.85, -2549.71, -2196.71, 0.000, 0.000, 0.000, 14:20:48.915
32, -2095.72, -2332.78, -2762.41, -2391.45, 0.000, 0.000, 0.000, 14:20:48.915
33, -2336.39, -2579.12, -2968.06, -2569.11, 0.000, 0.000, 0.000, 14:20:48.944
34, -2165.25, -2392.85, -2795.92, -2417.98, 0.000, 0.000, 0.000, 14:20:48.944
35, -1880.77, -2110.14, -2552.59, -2200.40, 0.000, 0.000, 0.000, 14:20:48.945
36, -2102.84, -2338.70, -2765.25, -2387.10, 0.000, 0.000, 0.000, 14:20:48.945
37, -2338.98, -2580.09, -2971.11, -2564.47, 0.000, 0.000, 0.000, 14:20:48.946
38, -2152.42, -2389.94, -2799.27, -2415.17, 0.000, 0.000, 0.000, 14:20:48.946
39, -1882.23, -2103.54, -2547.34, -2202.34, 0.000, 0.000, 0.000, 14:20:48.946
40, -2099.99, -2334.15, -2774.30, -2386.17, 0.000, 0.000, 0.000, 14:20:48.947
41, -2321.77, -2570.87, -2961.88, -2558.45, 0.000, 0.000, 0.000, 14:20:48.959
42, -2153.17, -2391.33, -2793.10, -2409.33, 0.000, 0.000, 0.000, 14:20:48.959
43, -1882.81, -2103.33, -2542.60, -2193.79, 0.000, 0.000, 0.000, 14:20:48.989
44, -2094.07, -2339.25, -2772.17, -2389.11, 0.000, 0.000, 0.000, 14:20:48.989
45, -2330.10, -2578.38, -2969.27, -2567.13, 0.000, 0.000, 0.000, 14:20:48.989
46, -2150.68, -2385.83, -2794.45, -2415.59, 0.000, 0.000, 0.000, 14:20:48.990
47, -1882.77, -2090.38, -2544.25, -2188.29, 0.000, 0.000, 0.000, 14:20:48.990
48, -2086.22, -2331.63, -2768.52, -2386.59, 0.000, 0.000, 0.000, 14:20:48.990
49, -2309.28, -2571.83, -2969.09, -2557.44, 0.000, 0.000, 0.000, 14:20:49.004
50, -2157.13, -2383.97, -2798.05, -2401.84, 0.000, 0.000, 0.000, 14:20:49.005
51, -1877.19, -2100.33, -2555.73, -2188.83, 0.000, 0.000, 0.000, 14:20:49.020
52, -2096.49, -2334.52, -2769.14, -2384.21, 0.000, 0.000, 0.000, 14:20:49.020
53, -2331.25, -2577.86, -2968.96, -2562.97, 0.000, 0.000, 0.000, 14:20:49.020
54, -2146.50, -2382.36, -2789.40, -2407.86, 0.000, 0.000, 0.000, 14:20:49.020
55, -1880.04, -2093.86, -2545.89, -2189.20, 0.000, 0.000, 0.000, 14:20:49.050
56, -2100.25, -2345.04, -2770.59, -2394.54, 0.000, 0.000, 0.000, 14:20:49.050
57, -2330.62, -2570.91, -2961.58, -2560.89, 0.000, 0.000, 0.000, 14:20:49.050
58, -2140.15, -2377.72, -2789.84, -2408.89, 0.000, 0.000, 0.000, 14:20:49.050
59, -1866.94, -2093.73, -2545.71, -2192.36, 0.000, 0.000, 0.000, 14:20:49.050
60, -2095.27, -2337.81, -2766.85, -2388.53, 0.000, 0.000, 0.000, 14:20:49.050
61, -2321.77, -2575.24, -2969.89, -2558.20, 0.000, 0.000, 0.000, 14:20:49.064
62, -2145.15, -2386.17, -2789.28, -2406.58, 0.000, 0.000, 0.000, 14:20:49.064
63, -1878.98, -2100.14, -2546.29, -2187.81, 0.000, 0.000, 0.000, 14:20:49.079
64, -2101.38, -2349.75, -2776.85, -2386.38, 0.000, 0.000, 0.000, 14:20:49.079
65, -2325.21, -2579.43, -2966.68, -2560.23, 0.000, 0.000, 0.000, 14:20:49.080
66, -2153.77, -2388.02, -2785.97, -2404.26, 0.000, 0.000, 0.000, 14:20:49.080
67, -1881.10, -2098.34, -2547.28, -2194.43, 0.000, 0.000, 0.000, 14:20:49.094
68, -2097.77, -2352.03, -2780.20, -2391.54, 0.000, 0.000, 0.000, 14:20:49.094
69, -2327.90, -2579.87, -2973.43, -2561.17, 0.000, 0.000, 0.000, 14:20:49.110
70, -2142.06, -2378.43, -2787.77, -2406.11, 0.000, 0.000, 0.000, 14:20:49.110
71, -1868.25, -2098.01, -2546.21, -2194.62, 0.000, 0.000, 0.000, 14:20:49.110
72, -2101.81, -2344.56, -2782.49, -2396.77, 0.000, 0.000, 0.000, 14:20:49.110
73, -2330.28, -2576.99, -2968.03, -2557.47, 0.000, 0.000, 0.000, 14:20:49.124
74, -2153.46, -2379.16, -2796.18, -2405.51, 0.000, 0.000, 0.000, 14:20:49.124
75, -1875.81, -2106.46, -2554.26, -2199.41, 0.000, 0.000, 0.000, 14:20:49.139
76, -2110.08, -2353.59, -2778.84, -2389.58, 0.000, 0.000, 0.000, 14:20:49.139
77, -2329.46, -2576.90, -2968.63, -2556.56, 0.000, 0.000, 0.000, 14:20:49.140
78, -2137.28, -2373.72, -2780.93, -2402.86, 0.000, 0.000, 0.000, 14:20:49.140
79, -1881.06, -2094.52, -2540.16, -2197.27, 0.000, 0.000, 0.000, 14:20:49.155
80, -2108.21, -2355.63, -2782.67, -2401.32, 0.000, 0.000, 0.000, 14:20:49.155
81, -2327.31, -2575.95, -2963.26, -2557.79, 0.000, 0.000, 0.000, 14:20:49.170
82, -2144.72, -2379.36, -2788.68, -2402.81, 0.000, 0.000, 0.000, 14:20:49.170
83, -1877.20, -2095.08, -2546.72, -2187.82, 0.000, 0.000, 0.000, 14:20:49.184
84, -2098.91, -2347.86, -2774.91, -2387.88, 0.000, 0.000, 0.000, 14:20:49.184
85, -2328.40, -2576.04, -2956.86, -2556.38, 0.000, 0.000, 0.000, 14:20:49.200
86, -2153.81, -2375.35, -2787.37, -2400.90, 0.000, 0.000, 0.000, 14:20:49.200
87, -1875.53, -2102.89, -2556.53, -2192.39, 0.000, 0.000, 0.000, 14:20:49.200
88, -2110.62, -2364.91, -2791.80, -2405.15, 0.000, 0.000, 0.000, 14:20:49.200
89, -2338.68, -2582.12, -2970.35, -2564.26, 0.000, 0.000, 0.000, 14:20:49.200
90, -2155.86, -2379.25, -2794.06, -2408.30, 0.000, 0.000, 0.000, 14:20:49.200
91, -1868.40, -2084.36, -2533.85, -2188.90, 0.000, 0.000, 0.000, 14:20:49.214
92, -2115.98, -2356.68, -2778.52, -2408.36, 0.000, 0.000, 0.000, 14:20:49.214
93, -2327.63, -2584.06, -2966.91, -2568.24, 0.000, 0.000, 0.000, 14:20:49.230
94, -2141.45, -2376.04, -2787.53, -2408.39, 0.000, 0.000, 0.000, 14:20:49.230
95, -1870.79, -2091.71, -2544.11, -2194.40, 0.000, 0.000, 0.000, 14:20:49.230
96, -2106.36, -2354.31, -2785.24, -2401.26, 0.000, 0.000, 0.000, 14:20:49.230
97, -2323.85, -2570.29, -2961.51, -2560.47, 0.000, 0.000, 0.000, 14:20:49.244
98, -2138.33, -2365.03, -2778.87, -2401.20, 0.000, 0.000, 0.000, 14:20:49.244
99, -1871.24, -2094.36, -2542.39, -2196.90, 0.000, 0.000, 0.000, 14:20:49.259
100, -2110.32, -2352.74, -2780.85, -2404.98, 0.000, 0.000, 0.000, 14:20:49.259
