%OpenBCI Raw EEG Data
%
%Sample Rate = 200.0 Hz
%First Column = SampleIndex
%Last Column = Timestamp 
%Other Columns = EEG data in microvolts followed by Accel Data (in G) interleaved with Aux Data
0, -1558.64, -1748.68, -2142.39, -1800.20, 0.000, 0.000, 0.000, 14:13:36.234
1, -1670.38, -1903.19, -2282.19, -1923.78, 0.000, 0.000, 0.000, 14:13:36.248
2, -2035.45, -2313.17, -2602.23, -2221.20, 0.000, 0.000, 0.000, 14:13:36.248
3, -1912.19, -2150.55, -2455.11, -2074.77, 0.000, 0.000, 0.000, 14:13:36.264
4, -1593.59, -1796.25, -2165.78, -1813.88, 0.000, 0.000, 0.000, 14:13:36.265
5, -1718.34, -1973.90, -2320.10, -1949.31, 0.000, 0.000, 0.000, 14:13:36.265
6, -2078.97, -2356.32, -2619.37, -2226.80, 0.000, 0.000, 0.000, 14:13:36.265
7, -1958.49, -2236.84, -2481.89, -2084.86, 0.000, 0.000, 0.000, 14:13:36.279
8, -1621.00, -1836.01, -2179.42, -1837.96, 0.000, 0.000, 0.000, 14:13:36.280
9, -1727.32, -1990.03, -2325.48, -1948.61, 0.000, 0.000, 0.000, 14:13:36.294
10, -2072.37, -2402.05, -2630.18, -2235.33, 0.000, 0.000, 0.000, 14:13:36.295
11, -1907.05, -2218.22, -2467.94, -2101.88, 0.000, 0.000, 0.000, 14:13:36.295
12, -1554.21, -1892.55, -2176.54, -1812.08, 0.000, 0.000, 0.000, 14:13:36.295
13, -1626.62, -1990.27, -2302.68, -1942.70, 0.000, 0.000, 0.000, 14:13:36.308
14, -1932.88, -2388.60, -2597.87, -2211.43, 0.000, 0.000, 0.000, 14:13:36.309
15, -1747.45, -2233.45, -2428.83, -2066.19, 0.000, 0.000, 0.000, 14:13:36.323
16, -1365.51, -1862.35, -2143.90, -1795.77, 0.000, 0.000, 0.000, 14:13:36.323
17, -1455.45, -2042.19, -2286.79, -1918.97, 0.000, 0.000, 0.000, 14:13:36.324
18, -1785.38, -2453.87, -2586.64, -2199.87, 0.000, 0.000, 0.000, 14:13:36.324
19, -1643.87, -2274.55, -2431.87, -2056.89, 0.000, 0.000, 0.000, 14:13:36.354
20, -1328.88, -1912.97, -2153.18, -1790.55, 0.000, 0.000, 0.000, 14:13:36.354
21, -1469.36, -2063.21, -2287.19, -1915.44, 0.000, 0.000, 0.000, 14:13:36.354
22, -1858.98, -2457.61, -2605.33, -2205.28, 0.000, 0.000, 0.000, 14:13:36.354
23, -1770.50, -2256.19, -2456.11, -2084.37, 0.000, 0.000, 0.000, 14:13:36.355
24, -1474.49, -1883.65, -2156.13, -1804.32, 0.000, 0.000, 0.000, 14:13:36.355
25, -1650.71, -2031.06, -2322.28, -1952.70, 0.000, 0.000, 0.000, 14:13:36.368
26, -2036.03, -2397.32, -2627.41, -2227.27, 0.000, 0.000, 0.000, 14:13:36.369
27, -1920.46, -2199.66, -2468.36, -2091.55, 0.000, 0.000, 0.000, 14:13:36.384
28, -1631.94, -1827.45, -2183.25, -1822.55, 0.000, 0.000, 0.000, 14:13:36.384
29, -1778.23, -1956.90, -2319.08, -1949.35, 0.000, 0.000, 0.000, 14:13:36.384
30, -2138.79, -2338.29, -2622.54, -2230.62, 0.000, 0.000, 0.000, 14:13:36.384
31, -2007.50, -2127.02, -2452.46, -2069.61, 0.000, 0.000, 0.000, 14:13:36.399
32, -1684.46, -1744.18, -2164.61, -1827.14, 0.000, 0.000, 0.000, 14:13:36.399
33, -1815.62, -1900.74, -2311.67, -1950.77, 0.000, 0.000, 0.000, 14:13:36.414
34, -2152.42, -2268.82, -2600.36, -2218.68, 0.000, 0.000, 0.000, 14:13:36.415
35, -2037.60, -2122.38, -2469.45, -2088.61, 0.000, 0.000, 0.000, 14:13:36.415
36, -1715.83, -1757.84, -2166.19, -1817.07, 0.000, 0.000, 0.000, 14:13:36.415
37, -1834.33, -1920.65, -2319.38, -1960.07, 0.000, 0.000, 0.000, 14:13:36.429
38, -2190.88, -2283.68, -2628.68, -2231.96, 0.000, 0.000, 0.000, 14:13:36.430
39, -2039.10, -2106.57, -2468.64, -2091.03, 0.000, 0.000, 0.000, 14:13:36.444
40, -1721.47, -1777.13, -2185.33, -1828.84, 0.000, 0.000, 0.000, 14:13:36.444
41, -1849.12, -1949.18, -2344.37, -1963.89, 0.000, 0.000, 0.000, 14:13:36.445
42, -2187.68, -2305.68, -2632.09, -2226.02, 0.000, 0.000, 0.000, 14:13:36.445
43, -2038.09, -2130.72, -2480.95, -2088.00, 0.000, 0.000, 0.000, 14:13:36.473
44, -1706.43, -1772.60, -2179.78, -1820.62, 0.000, 0.000, 0.000, 14:13:36.473
45, -1826.88, -1941.11, -2333.95, -1959.00, 0.000, 0.000, 0.000, 14:13:36.474
46, -2163.09, -2317.43, -2631.31, -2225.01, 0.000, 0.000, 0.000, 14:13:36.474
47, -2013.75, -2118.60, -2460.30, -2082.04, 0.000, 0.000, 0.000, 14:13:36.489
48, -1683.96, -1764.41, -2173.30, -1816.64, 0.000, 0.000, 0.000, 14:13:36.489
49, -1799.12, -1928.71, -2322.75, -1943.82, 0.000, 0.000, 0.000, 14:13:36.489
50, -2133.31, -2291.90, -2612.09, -2224.00, 0.000, 0.000, 0.000, 14:13:36.489
51, -1981.45, -2121.77, -2443.88, -2082.38, 0.000, 0.000, 0.000, 14:13:36.504
52, -1657.95, -1770.63, -2165.09, -1817.85, 0.000, 0.000, 0.000, 14:13:36.504
53, -1780.71, -1939.21, -2321.73, -1948.48, 0.000, 0.000, 0.000, 14:13:36.504
54, -2102.72, -2293.30, -2599.91, -2210.75, 0.000, 0.000, 0.000, 14:13:36.504
55, -1956.22, -2126.28, -2446.80, -2059.75, 0.000, 0.000, 0.000, 14:13:36.520
56, -1637.16, -1765.72, -2151.42, -1811.22, 0.000, 0.000, 0.000, 14:13:36.520
57, -1750.38, -1933.44, -2314.74, -1948.11, 0.000, 0.000, 0.000, 14:13:36.534
58, -2088.22, -2307.11, -2594.15, -2199.90, 0.000, 0.000, 0.000, 14:13:36.534
59, -1932.57, -2111.58, -2433.28, -2062.90, 0.000, 0.000, 0.000, 14:13:36.535
60, -1611.91, -1769.02, -2151.66, -1803.43, 0.000, 0.000, 0.000, 14:13:36.535
61, -1739.51, -1927.40, -2310.48, -1951.00, 0.000, 0.000, 0.000, 14:13:36.549
62, -2072.90, -2303.36, -2601.69, -2215.94, 0.000, 0.000, 0.000, 14:13:36.549
63, -1927.65, -2132.95, -2435.15, -2052.64, 0.000, 0.000, 0.000, 14:13:36.564
64, -1607.70, -1762.54, -2157.86, -1795.25, 0.000, 0.000, 0.000, 14:13:36.564
65, -1734.31, -1936.62, -2303.70, -1936.07, 0.000, 0.000, 0.000, 14:13:36.564
66, -2065.68, -2297.40, -2598.36, -2208.86, 0.000, 0.000, 0.000, 14:13:36.564
67, -1915.95, -2125.66, -2445.33, -2058.31, 0.000, 0.000, 0.000, 14:13:36.579
68, -1598.95, -1764.53, -2152.08, -1801.43, 0.000, 0.000, 0.000, 14:13:36.579
69, -1730.69, -1949.83, -2319.65, -1952.60, 0.000, 0.000, 0.000, 14:13:36.593
70, -2064.97, -2304.63, -2597.51, -2204.12, 0.000, 0.000, 0.000, 14:13:36.593
71, -1913.99, -2130.18, -2435.25, -2058.01, 0.000, 0.000, 0.000, 14:13:36.609
72, -1592.22, -1764.10, -2153.33, -1799.22, 0.000, 0.000, 0.000, 14:13:36.609
73, -1741.04, -1949.44, -2316.94, -1959.03, 0.000, 0.000, 0.000, 14:13:36.609
74, -2057.25, -2300.09, -2584.28, -2202.71, 0.000, 0.000, 0.000, 14:13:36.609
75, -1915.49, -2122.48, -2432.02, -2060.88, 0.000, 0.000, 0.000, 14:13:36.624
76, -1596.37, -1780.60, -2144.96, -1791.66, 0.000, 0.000, 0.000, 14:13:36.624
77, -1727.46, -1948.54, -2308.12, -1954.59, 0.000, 0.000, 0.000, 14:13:36.631
78, -2045.01, -2277.83, -2581.02, -2195.63, 0.000, 0.000, 0.000, 14:13:36.631
79, -1903.63, -2106.94, -2426.40, -2055.22, 0.000, 0.000, 0.000, 14:13:36.638
80, -1574.57, -1736.31, -2122.75, -1788.76, 0.000, 0.000, 0.000, 14:13:36.638
81, -1705.47, -1915.55, -2285.06, -1934.40, 0.000, 0.000, 0.000, 14:13:36.653
82, -2023.67, -2261.10, -2566.00, -2191.41, 0.000, 0.000, 0.000, 14:13:36.653
83, -1880.24, -2090.39, -2392.13, -2028.97, 0.000, 0.000, 0.000, 14:13:36.654
84, -1517.78, -1690.27, -2093.56, -1763.96, 0.000, 0.000, 0.000, 14:13:36.654
85, -1654.92, -1855.20, -2244.61, -1911.25, 0.000, 0.000, 0.000, 14:13:36.669
86, -1958.92, -2201.88, -2512.06, -2163.92, 0.000, 0.000, 0.000, 14:13:36.669
87, -1811.21, -2040.58, -2365.12, -2029.03, 0.000, 0.000, 0.000, 14:13:36.683
88, -1497.13, -1683.95, -2085.15, -1748.72, 0.000, 0.000, 0.000, 14:13:36.683
89, -1645.15, -1873.42, -2252.27, -1908.48, 0.000, 0.000, 0.000, 14:13:36.684
90, -1976.18, -2221.84, -2535.21, -2164.11, 0.000, 0.000, 0.000, 14:13:36.684
91, -1831.60, -2033.97, -2379.53, -2028.13, 0.000, 0.000, 0.000, 14:13:36.699
92, -1522.40, -1694.86, -2099.72, -1777.08, 0.000, 0.000, 0.000, 14:13:36.699
93, -1681.45, -1903.94, -2278.20, -1915.89, 0.000, 0.000, 0.000, 14:13:36.714
94, -2017.70, -2251.63, -2563.72, -2184.34, 0.000, 0.000, 0.000, 14:13:36.714
95, -1896.33, -2119.90, -2416.60, -2045.50, 0.000, 0.000, 0.000, 14:13:36.714
96, -1604.61, -1781.79, -2159.50, -1819.89, 0.000, 0.000, 0.000, 14:13:36.714
97, -1773.32, -1988.83, -2346.85, -1978.48, 0.000, 0.000, 0.000, 14:13:36.729
98, -2117.79, -2373.33, -2634.49, -2238.46, 0.000, 0.000, 0.000, 14:13:36.729
99, -1977.80, -2216.37, -2486.81, -2098.78, 0.000, 0.000, 0.000, 14:13:36.744
100, -1654.53, -1860.19, -2190.80, -1838.47, 0.000, 0.000, 0.000, 14:13:36.744
101, -1815.31, -2052.02, -2376.91, -2003.04, 0.000, 0.000, 0.000, 14:13:36.744
102, -2134.88, -2384.96, -2635.12, -2252.72, 0.000, 0.000, 0.000, 14:13:36.744
103, -1995.42, -2221.35, -2483.73, -2107.04, 0.000, 0.000, 0.000, 14:13:36.758
104, -1683.65, -1891.53, -2219.65, -1857.45, 0.000, 0.000, 0.000, 14:13:36.759
105, -1845.81, -2086.18, -2399.39, -2018.47, 0.000, 0.000, 0.000, 14:13:36.773
106, -2169.07, -2423.84, -2671.54, -2267.14, 0.000, 0.000, 0.000, 14:13:36.773
107, -2017.55, -2250.03, -2507.26, -2125.90, 0.000, 0.000, 0.000, 14:13:36.774
108, -1705.86, -1908.03, -2223.85, -1861.84, 0.000, 0.000, 0.000, 14:13:36.774
109, -1851.28, -2094.85, -2397.17, -2026.97, 0.000, 0.000, 0.000, 14:13:36.789
110, -2170.45, -2437.71, -2670.83, -2273.32, 0.000, 0.000, 0.000, 14:13:36.789
111, -2010.42, -2247.52, -2503.46, -2121.56, 0.000, 0.000, 0.000, 14:13:36.804
112, -1696.14, -1897.07, -2231.70, -1861.56, 0.000, 0.000, 0.000, 14:13:36.804
113, -1849.06, -2091.92, -2401.83, -2024.55, 0.000, 0.000, 0.000, 14:13:36.804
114, -2167.89, -2442.53, -2678.53, -2260.95, 0.000, 0.000, 0.000, 14:13:36.804
115, -2014.16, -2252.97, -2513.95, -2127.11, 0.000, 0.000, 0.000, 14:13:36.818
116, -1696.48, -1912.95, -2231.34, -1859.58, 0.000, 0.000, 0.000, 14:13:36.819
117, -1855.89, -2112.09, -2415.08, -2034.69, 0.000, 0.000, 0.000, 14:13:36.833
118, -2177.58, -2451.43, -2677.94, -2277.43, 0.000, 0.000, 0.000, 14:13:36.833
119, -2028.66, -2266.83, -2519.54, -2133.65, 0.000, 0.000, 0.000, 14:13:36.834
120, -1717.71, -1918.09, -2238.40, -1878.65, 0.000, 0.000, 0.000, 14:13:36.834
121, -1868.45, -2122.27, -2422.37, -2037.50, 0.000, 0.000, 0.000, 14:13:36.848
122, -2177.63, -2463.40, -2679.55, -2285.94, 0.000, 0.000, 0.000, 14:13:36.848
123, -2031.03, -2272.00, -2519.18, -2109.51, 0.000, 0.000, 0.000, 14:13:36.864
124, -1706.55, -1928.42, -2237.73, -1865.18, 0.000, 0.000, 0.000, 14:13:36.864
125, -1854.47, -2104.83, -2411.59, -2012.11, 0.000, 0.000, 0.000, 14:13:36.864
126, -2179.78, -2447.48, -2682.64, -2276.10, 0.000, 0.000, 0.000, 14:13:36.864
127, -2015.20, -2252.27, -2508.58, -2122.93, 0.000, 0.000, 0.000, 14:13:36.879
128, -1694.86, -1911.06, -2235.87, -1852.17, 0.000, 0.000, 0.000, 14:13:36.880
129, -1853.89, -2105.84, -2413.86, -2029.19, 0.000, 0.000, 0.000, 14:13:36.894
130, -2157.41, -2422.63, -2665.91, -2262.30, 0.000, 0.000, 0.000, 14:13:36.894
131, -2004.83, -2254.76, -2511.57, -2115.92, 0.000, 0.000, 0.000, 14:13:36.894
132, -1691.97, -1910.55, -2230.30, -1857.75, 0.000, 0.000, 0.000, 14:13:36.895
133, -1844.45, -2103.21, -2403.20, -2022.54, 0.000, 0.000, 0.000, 14:13:36.909
134, -2165.31, -2429.50, -2684.23, -2262.45, 0.000, 0.000, 0.000, 14:13:36.909
135, -2011.68, -2255.68, -2515.09, -2133.96, 0.000, 0.000, 0.000, 14:13:36.923
136, -1687.81, -1905.79, -2234.15, -1852.71, 0.000, 0.000, 0.000, 14:13:36.923
137, -1848.95, -2098.04, -2412.97, -2028.48, 0.000, 0.000, 0.000, 14:13:36.924
138, -2155.55, -2424.81, -2669.29, -2268.29, 0.000, 0.000, 0.000, 14:13:36.924
139, -2007.14, -2232.74, -2504.06, -2116.79, 0.000, 0.000, 0.000, 14:13:36.939
140, -1690.83, -1905.16, -2229.45, -1865.46, 0.000, 0.000, 0.000, 14:13:36.939
141, -1851.39, -2101.72, -2416.68, -2016.01, 0.000, 0.000, 0.000, 14:13:36.953
142, -2150.44, -2435.06, -2659.93, -2265.44, 0.000, 0.000, 0.000, 14:13:36.953
143, -1983.50, -2235.93, -2489.97, -2106.19, 0.000, 0.000, 0.000, 14:13:36.954
144, -1685.30, -1887.55, -2218.94, -1855.06, 0.000, 0.000, 0.000, 14:13:36.954
145, -1835.98, -2091.09, -2400.90, -2018.95, 0.000, 0.000, 0.000, 14:13:36.969
146, -2141.58, -2423.89, -2659.38, -2262.81, 0.000, 0.000, 0.000, 14:13:36.969
147, -1986.90, -2225.69, -2487.55, -2106.79, 0.000, 0.000, 0.000, 14:13:36.985
148, -1667.13, -1870.59, -2205.29, -1844.90, 0.000, 0.000, 0.000, 14:13:36.985
149, -1841.01, -2088.42, -2404.87, -2028.91, 0.000, 0.000, 0.000, 14:13:36.999
150, -2150.34, -2432.71, -2656.06, -2265.74, 0.000, 0.000, 0.000, 14:13:36.999
151, -1987.19, -2223.48, -2492.86, -2106.64, 0.000, 0.000, 0.000, 14:13:37.000
152, -1672.87, -1884.14, -2219.42, -1840.45, 0.000, 0.000, 0.000, 14:13:37.000
153, -1842.90, -2092.45, -2401.79, -2035.85, 0.000, 0.000, 0.000, 14:13:37.014
154, -2138.85, -2408.35, -2644.32, -2253.92, 0.000, 0.000, 0.000, 14:13:37.014
155, -1996.13, -2235.60, -2496.47, -2108.36, 0.000, 0.000, 0.000, 14:13:37.015
156, -1671.51, -1886.13, -2215.52, -1856.26, 0.000, 0.000, 0.000, 14:13:37.015
157, -1842.73, -2097.28, -2402.69, -2028.99, 0.000, 0.000, 0.000, 14:13:37.029
158, -2142.41, -2417.32, -2660.84, -2259.04, 0.000, 0.000, 0.000, 14:13:37.029
159, -1983.43, -2221.52, -2487.71, -2100.89, 0.000, 0.000, 0.000, 14:13:37.044
160, -1671.84, -1895.09, -2211.48, -1846.47, 0.000, 0.000, 0.000, 14:13:37.044
161, -1829.24, -2085.67, -2396.28, -2018.20, 0.000, 0.000, 0.000, 14:13:37.044
162, -2118.89, -2423.50, -2650.33, -2250.47, 0.000, 0.000, 0.000, 14:13:37.045
163, -1956.61, -2254.95, -2482.99, -2092.11, 0.000, 0.000, 0.000, 14:13:37.075
164, -1643.27, -1905.01, -2216.62, -1842.31, 0.000, 0.000, 0.000, 14:13:37.075
165, -1789.35, -2096.92, -2398.52, -2018.36, 0.000, 0.000, 0.000, 14:13:37.075
166, -2074.11, -2443.20, -2649.18, -2251.80, 0.000, 0.000, 0.000, 14:13:37.075
167, -1904.75, -2261.99, -2480.01, -2083.08, 0.000, 0.000, 0.000, 14:13:37.075
168, -1561.51, -1916.60, -2199.03, -1843.85, 0.000, 0.000, 0.000, 14:13:37.075
169, -1699.20, -2161.90, -2391.02, -2011.30, 0.000, 0.000, 0.000, 14:13:37.089
170, -1964.64, -2483.00, -2649.03, -2236.74, 0.000, 0.000, 0.000, 14:13:37.089
171, -1757.64, -2308.88, -2483.86, -2099.58, 0.000, 0.000, 0.000, 14:13:37.104
172, -1413.55, -2009.27, -2209.88, -1842.18, 0.000, 0.000, 0.000, 14:13:37.104
173, -1558.31, -2240.36, -2401.25, -2024.75, 0.000, 0.000, 0.000, 14:13:37.105
174, -1846.56, -2558.76, -2648.00, -2260.92, 0.000, 0.000, 0.000, 14:13:37.105
175, -1721.29, -2393.18, -2495.53, -2100.21, 0.000, 0.000, 0.000, 14:13:37.118
176, -1434.25, -2038.74, -2220.68, -1846.73, 0.000, 0.000, 0.000, 14:13:37.118
177, -1637.05, -2234.49, -2411.13, -2022.46, 0.000, 0.000, 0.000, 14:13:37.134
178, -1965.60, -2518.72, -2658.70, -2245.58, 0.000, 0.000, 0.000, 14:13:37.134
179, -1869.19, -2330.94, -2503.33, -2108.52, 0.000, 0.000, 0.000, 14:13:37.135
180, -1599.89, -1963.49, -2230.52, -1853.70, 0.000, 0.000, 0.000, 14:13:37.135
181, -1807.07, -2128.81, -2415.51, -2043.52, 0.000, 0.000, 0.000, 14:13:37.149
182, -2139.09, -2431.09, -2656.26, -2252.91, 0.000, 0.000, 0.000, 14:13:37.149
183, -2013.06, -2233.00, -2501.38, -2107.27, 0.000, 0.000, 0.000, 14:13:37.164
184, -1730.85, -1877.59, -2222.68, -1876.71, 0.000, 0.000, 0.000, 14:13:37.164
185, -1924.20, -2066.39, -2415.87, -2031.76, 0.000, 0.000, 0.000, 14:13:37.164
186, -2241.45, -2377.86, -2662.89, -2269.05, 0.000, 0.000, 0.000, 14:13:37.164
187, -2086.51, -2181.58, -2496.14, -2101.43, 0.000, 0.000, 0.000, 14:13:37.180
188, -1776.47, -1843.74, -2222.95, -1863.96, 0.000, 0.000, 0.000, 14:13:37.180
189, -1993.30, -2075.79, -2448.86, -2047.31, 0.000, 0.000, 0.000, 14:13:37.193
190, -2306.54, -2399.99, -2691.21, -2291.86, 0.000, 0.000, 0.000, 14:13:37.193
191, -2159.00, -2218.92, -2544.08, -2146.10, 0.000, 0.000, 0.000, 14:13:37.194
192, -1876.83, -1925.98, -2285.67, -1904.22, 0.000, 0.000, 0.000, 14:13:37.194
193, -2068.94, -2158.64, -2500.60, -2103.33, 0.000, 0.000, 0.000, 14:13:37.208
194, -2357.67, -2469.12, -2734.50, -2318.21, 0.000, 0.000, 0.000, 14:13:37.208
195, -2190.86, -2266.76, -2558.03, -2166.51, 0.000, 0.000, 0.000, 14:13:37.223
196, -1874.22, -1927.55, -2296.80, -1910.85, 0.000, 0.000, 0.000, 14:13:37.223
197, -2053.83, -2160.33, -2494.05, -2092.95, 0.000, 0.000, 0.000, 14:13:37.224
198, -2322.61, -2458.83, -2719.16, -2301.23, 0.000, 0.000, 0.000, 14:13:37.224
199, -2142.76, -2256.68, -2547.18, -2137.13, 0.000, 0.000, 0.000, 14:13:37.239
200, -1824.57, -1918.89, -2273.29, -1898.15, 0.000, 0.000, 0.000, 14:13:37.239
0, -1992.64, -2111.48, -2461.29, -2060.27, 0.000, 0.000, 0.000, 14:13:37.239
1, -2274.38, -2426.43, -2695.29, -2281.42, 0.000, 0.000, 0.000, 14:13:37.253
2, -2097.73, -2218.32, -2525.43, -2124.94, 0.000, 0.000, 0.000, 14:13:37.253
3, -1776.50, -1874.39, -2241.32, -1873.26, 0.000, 0.000, 0.000, 14:13:37.269
4, -1940.14, -2097.16, -2431.46, -2055.61, 0.000, 0.000, 0.000, 14:13:37.269
5, -2206.77, -2383.69, -2654.62, -2262.26, 0.000, 0.000, 0.000, 14:13:37.270
6, -2023.50, -2163.78, -2480.12, -2085.32, 0.000, 0.000, 0.000, 14:13:37.270
7, -1705.67, -1828.41, -2200.19, -1839.28, 0.000, 0.000, 0.000, 14:13:37.283
8, -1900.49, -2075.54, -2417.21, -2045.38, 0.000, 0.000, 0.000, 14:13:37.283
9, -2172.84, -2359.66, -2646.76, -2227.43, 0.000, 0.000, 0.000, 14:13:37.299
10, -2007.53, -2161.00, -2469.85, -2090.58, 0.000, 0.000, 0.000, 14:13:37.299
11, -1697.51, -1833.45, -2199.28, -1853.37, 0.000, 0.000, 0.000, 14:13:37.300
12, -1874.08, -2072.30, -2402.55, -2029.08, 0.000, 0.000, 0.000, 14:13:37.300
13, -2156.44, -2369.26, -2636.40, -2247.34, 0.000, 0.000, 0.000, 14:13:37.314
14, -1965.93, -2137.40, -2450.31, -2061.31, 0.000, 0.000, 0.000, 14:13:37.314
15, -1635.33, -1785.76, -2166.81, -1808.77, 0.000, 0.000, 0.000, 14:13:37.329
16, -1818.57, -2010.96, -2369.86, -1998.14, 0.000, 0.000, 0.000, 14:13:37.330
17, -2078.86, -2293.86, -2596.00, -2204.09, 0.000, 0.000, 0.000, 14:13:37.330
18, -1909.35, -2114.95, -2423.05, -2037.90, 0.000, 0.000, 0.000, 14:13:37.330
19, -1601.71, -1778.32, -2155.62, -1803.44, 0.000, 0.000, 0.000, 14:13:37.344
20, -1789.61, -1994.25, -2365.50, -1984.83, 0.000, 0.000, 0.000, 14:13:37.344
21, -2067.91, -2289.65, -2592.03, -2200.74, 0.000, 0.000, 0.000, 14:13:37.358
22, -1905.96, -2114.69, -2419.91, -2053.43, 0.000, 0.000, 0.000, 14:13:37.360
23, -1592.28, -1771.95, -2148.57, -1794.02, 0.000, 0.000, 0.000, 14:13:37.373
24, -1783.56, -2001.86, -2358.96, -1981.19, 0.000, 0.000, 0.000, 14:13:37.373
25, -2082.21, -2310.70, -2605.66, -2220.87, 0.000, 0.000, 0.000, 14:13:37.388
26, -1914.11, -2137.86, -2430.21, -2058.89, 0.000, 0.000, 0.000, 14:13:37.388
27, -1611.48, -1814.89, -2170.34, -1820.97, 0.000, 0.000, 0.000, 14:13:37.389
28, -1811.34, -2053.86, -2384.22, -2012.76, 0.000, 0.000, 0.000, 14:13:37.389
29, -2085.04, -2335.81, -2610.87, -2216.33, 0.000, 0.000, 0.000, 14:13:37.397
30, -1910.56, -2129.12, -2431.14, -2050.20, 0.000, 0.000, 0.000, 14:13:37.397
31, -1599.49, -1788.76, -2156.50, -1810.94, 0.000, 0.000, 0.000, 14:13:37.404
32, -1829.43, -2052.92, -2392.59, -2025.21, 0.000, 0.000, 0.000, 14:13:37.404
33, -2116.12, -2353.78, -2630.65, -2249.75, 0.000, 0.000, 0.000, 14:13:37.418
34, -1880.95, -2100.56, -2389.58, -2049.35, 0.000, 0.000, 0.000, 14:13:37.419
35, -1585.55, -1764.30, -2119.73, -1814.80, 0.000, 0.000, 0.000, 14:13:37.419
36, -1791.43, -1995.08, -2333.32, -2004.70, 0.000, 0.000, 0.000, 14:13:37.419
37, -2076.85, -2301.00, -2573.30, -2218.60, 0.000, 0.000, 0.000, 14:13:37.433
38, -1895.43, -2098.70, -2388.14, -2062.82, 0.000, 0.000, 0.000, 14:13:37.433
39, -1602.07, -1754.64, -2132.00, -1830.14, 0.000, 0.000, 0.000, 14:13:37.448
40, -1812.87, -2014.39, -2357.88, -2024.89, 0.000, 0.000, 0.000, 14:13:37.449
41, -2092.82, -2308.79, -2592.86, -2239.81, 0.000, 0.000, 0.000, 14:13:37.449
42, -1922.79, -2130.36, -2421.45, -2072.01, 0.000, 0.000, 0.000, 14:13:37.449
43, -1608.11, -1792.35, -2141.09, -1819.77, 0.000, 0.000, 0.000, 14:13:37.464
44, -1826.56, -2026.95, -2381.40, -2024.45, 0.000, 0.000, 0.000, 14:13:37.464
45, -2108.13, -2341.79, -2610.97, -2241.95, 0.000, 0.000, 0.000, 14:13:37.479
46, -1934.31, -2150.93, -2436.57, -2086.32, 0.000, 0.000, 0.000, 14:13:37.479
47, -1639.30, -1827.39, -2173.30, -1840.25, 0.000, 0.000, 0.000, 14:13:37.479
48, -1838.33, -2070.03, -2392.56, -2036.06, 0.000, 0.000, 0.000, 14:13:37.479
49, -2120.85, -2360.41, -2626.01, -2246.92, 0.000, 0.000, 0.000, 14:13:37.494
50, -1959.14, -2194.98, -2457.22, -2091.86, 0.000, 0.000, 0.000, 14:13:37.495
51, -1651.84, -1833.91, -2187.56, -1840.77, 0.000, 0.000, 0.000, 14:13:37.508
52, -1866.81, -2097.05, -2413.82, -2048.72, 0.000, 0.000, 0.000, 14:13:37.508
53, -2143.13, -2399.18, -2642.93, -2254.15, 0.000, 0.000, 0.000, 14:13:37.509
54, -1981.02, -2202.46, -2474.05, -2103.36, 0.000, 0.000, 0.000, 14:13:37.509
55, -1733.72, -1925.38, -2249.07, -1877.49, 0.000, 0.000, 0.000, 14:13:37.524
56, -1966.30, -2220.71, -2485.61, -2110.27, 0.000, 0.000, 0.000, 14:13:37.524
57, -2265.95, -2523.06, -2723.70, -2316.09, 0.000, 0.000, 0.000, 14:13:37.539
58, -2081.31, -2301.87, -2529.05, -2135.61, 0.000, 0.000, 0.000, 14:13:37.539
59, -1778.00, -1992.64, -2286.70, -1905.57, 0.000, 0.000, 0.000, 14:13:37.540
60, -1972.77, -2228.80, -2500.18, -2129.02, 0.000, 0.000, 0.000, 14:13:37.540
61, -2245.87, -2509.03, -2729.94, -2315.84, 0.000, 0.000, 0.000, 14:13:37.553
62, -2067.54, -2298.74, -2539.82, -2149.41, 0.000, 0.000, 0.000, 14:13:37.554
63, -1758.13, -1960.62, -2274.15, -1885.85, 0.000, 0.000, 0.000, 14:13:37.569
64, -1960.51, -2209.58, -2492.34, -2089.94, 0.000, 0.000, 0.000, 14:13:37.569
65, -2226.19, -2497.69, -2714.93, -2306.80, 0.000, 0.000, 0.000, 14:13:37.570
66, -2031.50, -2271.27, -2519.17, -2123.63, 0.000, 0.000, 0.000, 14:13:37.570
67, -1720.91, -1935.39, -2248.27, -1882.75, 0.000, 0.000, 0.000, 14:13:37.583
68, -1921.03, -2177.35, -2469.17, -2076.40, 0.000, 0.000, 0.000, 14:13:37.583
69, -2179.94, -2446.28, -2680.36, -2277.84, 0.000, 0.000, 0.000, 14:13:37.599
70, -2000.02, -2234.74, -2499.75, -2109.41, 0.000, 0.000, 0.000, 14:13:37.599
71, -1686.62, -1909.52, -2223.00, -1851.12, 0.000, 0.000, 0.000, 14:13:37.599
72, -1894.65, -2140.53, -2448.89, -2059.49, 0.000, 0.000, 0.000, 14:13:37.599
73, -2161.65, -2422.30, -2665.95, -2265.08, 0.000, 0.000, 0.000, 14:13:37.614
74, -1990.84, -2217.51, -2491.91, -2104.89, 0.000, 0.000, 0.000, 14:13:37.614
75, -1687.36, -1891.68, -2217.89, -1857.98, 0.000, 0.000, 0.000, 14:13:37.629
76, -1897.83, -2144.80, -2445.53, -2062.96, 0.000, 0.000, 0.000, 14:13:37.630
77, -2165.32, -2423.41, -2659.65, -2264.57, 0.000, 0.000, 0.000, 14:13:37.630
78, -1978.33, -2207.13, -2476.35, -2080.26, 0.000, 0.000, 0.000, 14:13:37.630
79, -1678.61, -1883.00, -2216.26, -1847.60, 0.000, 0.000, 0.000, 14:13:37.644
80, -1889.38, -2132.26, -2446.40, -2063.15, 0.000, 0.000, 0.000, 14:13:37.647
81, -2153.29, -2414.50, -2658.84, -2258.05, 0.000, 0.000, 0.000, 14:13:37.674
82, -1964.12, -2189.97, -2465.51, -2077.45, 0.000, 0.000, 0.000, 14:13:37.674
83, -1647.60, -1841.43, -2197.21, -1836.78, 0.000, 0.000, 0.000, 14:13:37.674
84, -1843.84, -2084.83, -2414.13, -2034.20, 0.000, 0.000, 0.000, 14:13:37.674
85, -2083.78, -2354.78, -2617.90, -2218.74, 0.000, 0.000, 0.000, 14:13:37.675
86, -1900.86, -2134.01, -2428.74, -2047.15, 0.000, 0.000, 0.000, 14:13:37.675
87, -1582.14, -1769.01, -2148.20, -1792.82, 0.000, 0.000, 0.000, 14:13:37.676
88, -1775.13, -2014.96, -2367.28, -2000.96, 0.000, 0.000, 0.000, 14:13:37.676
89, -2026.72, -2285.42, -2572.86, -2192.74, 0.000, 0.000, 0.000, 14:13:37.689
90, -1854.82, -2090.29, -2387.15, -2024.60, 0.000, 0.000, 0.000, 14:13:37.689
91, -1550.04, -1741.35, -2123.63, -1782.64, 0.000, 0.000, 0.000, 14:13:37.719
92, -1769.43, -2010.11, -2356.67, -1990.28, 0.000, 0.000, 0.000, 14:13:37.719
93, -2039.18, -2293.89, -2581.92, -2206.73, 0.000, 0.000, 0.000, 14:13:37.719
94, -1865.78, -2087.88, -2390.38, -2037.90, 0.000, 0.000, 0.000, 14:13:37.719
95, -1574.58, -1774.85, -2142.95, -1795.69, 0.000, 0.000, 0.000, 14:13:37.720
96, -1792.58, -2032.21, -2374.51, -2001.76, 0.000, 0.000, 0.000, 14:13:37.720
97, -2059.89, -2306.82, -2588.35, -2215.96, 0.000, 0.000, 0.000, 14:13:37.740
98, -1885.55, -2109.55, -2417.83, -2034.58, 0.000, 0.000, 0.000, 14:13:37.740
99, -1593.21, -1801.30, -2152.62, -1806.52, 0.000, 0.000, 0.000, 14:13:37.749
100, -1863.86, -2119.92, -2435.59, -2050.28, 0.000, 0.000, 0.000, 14:13:37.749
101, -2157.62, -2436.74, -2665.22, -2272.72, 0.000, 0.000, 0.000, 14:13:37.750
102, -1999.79, -2235.55, -2498.37, -2103.70, 0.000, 0.000, 0.000, 14:13:37.750
103, -1716.65, -1919.24, -2245.86, -1874.97, 0.000, 0.000, 0.000, 14:13:37.765
104, -1933.49, -2201.89, -2479.11, -2098.15, 0.000, 0.000, 0.000, 14:13:37.765
105, -2204.49, -2475.72, -2696.78, -2282.99, 0.000, 0.000, 0.000, 14:13:37.779
106, -2013.75, -2279.35, -2505.76, -2108.21, 0.000, 0.000, 0.000, 14:13:37.779
107, -1718.55, -1954.67, -2252.42, -1871.90, 0.000, 0.000, 0.000, 14:13:37.780
108, -1925.97, -2237.64, -2481.41, -2100.83, 0.000, 0.000, 0.000, 14:13:37.780
109, -2181.98, -2508.13, -2692.40, -2287.04, 0.000, 0.000, 0.000, 14:13:37.794
110, -1971.01, -2286.88, -2496.22, -2119.12, 0.000, 0.000, 0.000, 14:13:37.794
111, -1660.75, -1966.14, -2238.63, -1860.95, 0.000, 0.000, 0.000, 14:13:37.808
112, -1870.65, -2252.69, -2481.22, -2091.60, 0.000, 0.000, 0.000, 14:13:37.809
113, -2102.83, -2530.03, -2704.18, -2281.98, 0.000, 0.000, 0.000, 14:13:37.809
114, -1888.86, -2353.81, -2506.92, -2111.64, 0.000, 0.000, 0.000, 14:13:37.809
115, -1533.56, -2024.28, -2241.99, -1863.80, 0.000, 0.000, 0.000, 14:13:37.838
116, -1712.00, -2322.32, -2480.82, -2083.30, 0.000, 0.000, 0.000, 14:13:37.838
117, -1929.44, -2591.26, -2689.53, -2262.72, 0.000, 0.000, 0.000, 14:13:37.839
118, -1735.45, -2397.24, -2511.45, -2089.68, 0.000, 0.000, 0.000, 14:13:37.839
119, -1434.52, -2077.92, -2246.25, -1849.28, 0.000, 0.000, 0.000, 14:13:37.839
120, -1692.50, -2346.78, -2483.49, -2077.45, 0.000, 0.000, 0.000, 14:13:37.839
121, -1988.20, -2610.04, -2709.05, -2265.39, 0.000, 0.000, 0.000, 14:13:37.854
122, -1829.23, -2380.11, -2515.58, -2090.84, 0.000, 0.000, 0.000, 14:13:37.854
123, -1560.58, -2017.99, -2256.82, -1835.96, 0.000, 0.000, 0.000, 14:13:37.883
124, -1841.54, -2296.11, -2503.05, -2095.89, 0.000, 0.000, 0.000, 14:13:37.883
125, -2150.98, -2566.45, -2727.12, -2283.71, 0.000, 0.000, 0.000, 14:13:37.884
126, -2004.81, -2319.15, -2541.80, -2120.93, 0.000, 0.000, 0.000, 14:13:37.884
127, -1737.41, -1960.13, -2280.97, -1876.19, 0.000, 0.000, 0.000, 14:13:37.884
128, -1994.42, -2227.46, -2528.12, -2105.09, 0.000, 0.000, 0.000, 14:13:37.885
129, -2270.41, -2485.04, -2730.97, -2299.40, 0.000, 0.000, 0.000, 14:13:37.885
130, -2110.99, -2276.99, -2543.49, -2114.71, 0.000, 0.000, 0.000, 14:13:37.885
131, -1808.30, -1919.16, -2267.88, -1871.99, 0.000, 0.000, 0.000, 14:13:37.899
132, -2046.00, -2165.68, -2519.00, -2107.38, 0.000, 0.000, 0.000, 14:13:37.900
133, -2307.67, -2430.78, -2715.66, -2284.89, 0.000, 0.000, 0.000, 14:13:37.914
134, -2135.58, -2236.76, -2531.46, -2117.10, 0.000, 0.000, 0.000, 14:13:37.914
135, -1829.53, -1884.55, -2259.02, -1859.94, 0.000, 0.000, 0.000, 14:13:37.929
136, -2062.57, -2162.97, -2520.94, -2114.98, 0.000, 0.000, 0.000, 14:13:37.929
137, -2317.23, -2433.19, -2712.03, -2288.03, 0.000, 0.000, 0.000, 14:13:37.929
138, -2131.09, -2207.19, -2519.17, -2121.22, 0.000, 0.000, 0.000, 14:13:37.929
139, -1820.81, -1867.77, -2250.73, -1870.88, 0.000, 0.000, 0.000, 14:13:37.943
140, -2035.39, -2137.76, -2487.14, -2087.19, 0.000, 0.000, 0.000, 14:13:37.943
141, -2287.30, -2418.18, -2698.29, -2290.69, 0.000, 0.000, 0.000, 14:13:37.958
142, -2094.16, -2190.02, -2500.05, -2097.11, 0.000, 0.000, 0.000, 14:13:37.958
143, -1779.97, -1848.56, -2232.37, -1853.73, 0.000, 0.000, 0.000, 14:13:37.959
144, -2007.45, -2128.54, -2472.39, -2091.31, 0.000, 0.000, 0.000, 14:13:37.959
145, -2247.57, -2391.10, -2678.32, -2262.50, 0.000, 0.000, 0.000, 14:13:37.974
146, -2057.98, -2166.08, -2482.94, -2078.45, 0.000, 0.000, 0.000, 14:13:37.974
147, -1754.85, -1847.44, -2225.41, -1860.86, 0.000, 0.000, 0.000, 14:13:37.988
148, -1986.69, -2129.13, -2474.12, -2077.00, 0.000, 0.000, 0.000, 14:13:37.988
149, -2237.64, -2397.49, -2681.16, -2257.93, 0.000, 0.000, 0.000, 14:13:37.989
150, -2043.47, -2185.85, -2494.80, -2103.00, 0.000, 0.000, 0.000, 14:13:37.989
151, -1744.27, -1862.71, -2227.85, -1853.64, 0.000, 0.000, 0.000, 14:13:38.004
152, -1967.48, -2162.69, -2480.50, -2078.10, 0.000, 0.000, 0.000, 14:13:38.004
153, -2221.67, -2416.53, -2682.43, -2276.21, 0.000, 0.000, 0.000, 14:13:38.019
154, -2018.53, -2193.20, -2492.88, -2095.28, 0.000, 0.000, 0.000, 14:13:38.019
155, -1708.81, -1846.11, -2211.44, -1841.18, 0.000, 0.000, 0.000, 14:13:38.019
156, -1931.12, -2127.55, -2454.72, -2064.79, 0.000, 0.000, 0.000, 14:13:38.019
157, -2184.40, -2396.98, -2664.17, -2261.08, 0.000, 0.000, 0.000, 14:13:38.033
158, -2001.37, -2176.93, -2470.67, -2098.28, 0.000, 0.000, 0.000, 14:13:38.034
159, -1697.45, -1840.74, -2211.45, -1845.74, 0.000, 0.000, 0.000, 14:13:38.049
160, -1926.76, -2144.23, -2460.56, -2072.62, 0.000, 0.000, 0.000, 14:13:38.049
161, -2185.94, -2402.45, -2667.99, -2275.87, 0.000, 0.000, 0.000, 14:13:38.064
162, -1985.48, -2179.78, -2474.37, -2069.38, 0.000, 0.000, 0.000, 14:13:38.064
163, -1676.90, -1860.06, -2205.72, -1839.61, 0.000, 0.000, 0.000, 14:13:38.079
164, -1921.08, -2133.49, -2460.01, -2068.54, 0.000, 0.000, 0.000, 14:13:38.080
165, -2175.69, -2406.62, -2666.76, -2275.69, 0.000, 0.000, 0.000, 14:13:38.080
166, -1978.50, -2172.19, -2469.44, -2085.01, 0.000, 0.000, 0.000, 14:13:38.080
167, -1667.29, -1844.11, -2206.30, -1837.89, 0.000, 0.000, 0.000, 14:13:38.080
168, -1919.58, -2152.02, -2468.21, -2068.31, 0.000, 0.000, 0.000, 14:13:38.080
169, -2158.86, -2405.94, -2660.12, -2269.24, 0.000, 0.000, 0.000, 14:13:38.094
170, -1988.50, -2216.88, -2487.39, -2092.21, 0.000, 0.000, 0.000, 14:13:38.094
171, -1694.27, -1876.34, -2226.81, -1856.82, 0.000, 0.000, 0.000, 14:13:38.108
172, -1942.08, -2175.72, -2486.72, -2092.77, 0.000, 0.000, 0.000, 14:13:38.108
173, -2197.85, -2454.45, -2691.25, -2283.10, 0.000, 0.000, 0.000, 14:13:38.109
174, -2004.31, -2233.02, -2495.97, -2100.28, 0.000, 0.000, 0.000, 14:13:38.109
175, -1702.45, -1902.65, -2229.51, -1853.34, 0.000, 0.000, 0.000, 14:13:38.123
176, -1946.36, -2194.48, -2497.61, -2110.72, 0.000, 0.000, 0.000, 14:13:38.123
177, -2191.27, -2442.72, -2675.13, -2280.22, 0.000, 0.000, 0.000, 14:13:38.139
178, -1997.50, -2218.71, -2482.71, -2096.80, 0.000, 0.000, 0.000, 14:13:38.139
179, -1691.58, -1894.47, -2229.75, -1859.94, 0.000, 0.000, 0.000, 14:13:38.139
180, -1953.15, -2199.59, -2494.44, -2102.21, 0.000, 0.000, 0.000, 14:13:38.139
181, -2188.85, -2455.67, -2686.03, -2273.65, 0.000, 0.000, 0.000, 14:13:38.154
182, -1990.43, -2209.50, -2486.08, -2090.40, 0.000, 0.000, 0.000, 14:13:38.154
183, -1703.84, -1887.14, -2224.03, -1853.17, 0.000, 0.000, 0.000, 14:13:38.168
184, -1959.97, -2201.09, -2495.79, -2096.41, 0.000, 0.000, 0.000, 14:13:38.168
185, -2196.02, -2454.53, -2682.36, -2282.90, 0.000, 0.000, 0.000, 14:13:38.169
186, -2010.09, -2241.72, -2496.10, -2095.78, 0.000, 0.000, 0.000, 14:13:38.169
187, -1722.64, -1927.50, -2249.13, -1864.61, 0.000, 0.000, 0.000, 14:13:38.183
188, -1979.30, -2226.94, -2505.50, -2110.57, 0.000, 0.000, 0.000, 14:13:38.183
189, -2217.64, -2477.49, -2702.19, -2289.56, 0.000, 0.000, 0.000, 14:13:38.200
190, -2021.18, -2257.02, -2506.53, -2112.61, 0.000, 0.000, 0.000, 14:13:38.200
191, -1724.31, -1922.70, -2242.85, -1864.88, 0.000, 0.000, 0.000, 14:13:38.200
192, -1973.24, -2233.33, -2502.47, -2099.90, 0.000, 0.000, 0.000, 14:13:38.200
193, -2208.05, -2474.21, -2691.39, -2298.25, 0.000, 0.000, 0.000, 14:13:38.214
194, -2009.87, -2238.50, -2495.16, -2110.22, 0.000, 0.000, 0.000, 14:13:38.214
195, -1709.70, -1925.98, -2235.76, -1868.92, 0.000, 0.000, 0.000, 14:13:38.229
196, -1963.68, -2218.99, -2502.61, -2111.59, 0.000, 0.000, 0.000, 14:13:38.229
197, -2202.29, -2469.47, -2689.07, -2276.78, 0.000, 0.000, 0.000, 14:13:38.236
198, -1986.45, -2226.26, -2482.85, -2091.05, 0.000, 0.000, 0.000, 14:13:38.236
199, -1692.55, -1898.33, -2221.87, -1863.33, 0.000, 0.000, 0.000, 14:13:38.244
200, -1962.69, -2204.67, -2494.81, -2102.21, 0.000, 0.000, 0.000, 14:13:38.244
0, -2195.64, -2458.42, -2687.31, -2282.96, 0.000, 0.000, 0.000, 14:13:38.245
1, -1994.04, -2216.37, -2492.29, -2098.39, 0.000, 0.000, 0.000, 14:13:38.258
2, -1699.11, -1901.85, -2227.59, -1858.55, 0.000, 0.000, 0.000, 14:13:38.258
3, -1963.85, -2228.37, -2510.29, -2108.53, 0.000, 0.000, 0.000, 14:13:38.274
4, -2212.86, -2480.99, -2705.32, -2280.67, 0.000, 0.000, 0.000, 14:13:38.274
5, -2006.42, -2231.87, -2489.44, -2104.13, 0.000, 0.000, 0.000, 14:13:38.274
6, -1678.63, -1886.29, -2207.94, -1845.25, 0.000, 0.000, 0.000, 14:13:38.274
7, -1939.36, -2190.01, -2485.69, -2095.59, 0.000, 0.000, 0.000, 14:13:38.288
8, -2182.47, -2445.69, -2673.09, -2281.36, 0.000, 0.000, 0.000, 14:13:38.288
9, -1966.39, -2211.83, -2472.42, -2085.91, 0.000, 0.000, 0.000, 14:13:38.304
10, -1653.37, -1839.92, -2195.14, -1835.60, 0.000, 0.000, 0.000, 14:13:38.304
11, -1931.72, -2171.98, -2477.61, -2086.41, 0.000, 0.000, 0.000, 14:13:38.304
12, -2171.35, -2439.78, -2666.90, -2264.99, 0.000, 0.000, 0.000, 14:13:38.304
13, -1969.56, -2205.32, -2468.64, -2085.88, 0.000, 0.000, 0.000, 14:13:38.318
14, -1671.70, -1865.12, -2202.21, -1838.45, 0.000, 0.000, 0.000, 14:13:38.319
15, -1940.22, -2191.74, -2491.18, -2102.85, 0.000, 0.000, 0.000, 14:13:38.333
16, -2189.55, -2447.44, -2682.31, -2276.19, 0.000, 0.000, 0.000, 14:13:38.333
17, -1975.03, -2206.70, -2466.20, -2076.21, 0.000, 0.000, 0.000, 14:13:38.334
18, -1661.34, -1869.32, -2202.29, -1834.73, 0.000, 0.000, 0.000, 14:13:38.334
19, -1925.55, -2162.65, -2479.15, -2089.07, 0.000, 0.000, 0.000, 14:13:38.349
20, -2172.98, -2435.25, -2675.46, -2267.76, 0.000, 0.000, 0.000, 14:13:38.349
21, -1956.50, -2176.08, -2454.32, -2061.68, 0.000, 0.000, 0.000, 14:13:38.363
22, -1637.39, -1845.46, -2181.68, -1825.60, 0.000, 0.000, 0.000, 14:13:38.363
23, -1918.25, -2166.54, -2478.63, -2088.46, 0.000, 0.000, 0.000, 14:13:38.364
24, -2161.66, -2419.47, -2661.66, -2254.96, 0.000, 0.000, 0.000, 14:13:38.364
25, -1945.81, -2181.32, -2450.46, -2068.12, 0.000, 0.000, 0.000, 14:13:38.379
26, -1631.97, -1845.93, -2183.89, -1815.47, 0.000, 0.000, 0.000, 14:13:38.379
27, -1915.13, -2182.69, -2475.19, -2089.00, 0.000, 0.000, 0.000, 14:13:38.394
28, -2152.06, -2443.75, -2654.46, -2265.78, 0.000, 0.000, 0.000, 14:13:38.394
29, -1938.20, -2228.03, -2449.70, -2058.90, 0.000, 0.000, 0.000, 14:13:38.395
30, -1628.17, -1858.64, -2186.53, -1821.21, 0.000, 0.000, 0.000, 14:13:38.395
31, -1887.47, -2191.33, -2476.75, -2096.87, 0.000, 0.000, 0.000, 14:13:38.408
32, -2116.73, -2470.73, -2666.20, -2240.66, 0.000, 0.000, 0.000, 14:13:38.408
33, -1887.03, -2227.17, -2450.34, -2075.49, 0.000, 0.000, 0.000, 14:13:38.423
34, -1531.68, -1877.93, -2182.73, -1823.35, 0.000, 0.000, 0.000, 14:13:38.423
35, -1770.21, -2217.32, -2468.07, -2076.98, 0.000, 0.000, 0.000, 14:13:38.424
36, -1940.18, -2498.03, -2636.31, -2238.06, 0.000, 0.000, 0.000, 14:13:38.424
37, -1676.31, -2239.97, -2428.26, -2037.52, 0.000, 0.000, 0.000, 14:13:38.438
38, -1336.86, -1941.16, -2157.56, -1810.86, 0.000, 0.000, 0.000, 14:13:38.438
39, -1599.81, -2287.79, -2454.94, -2073.37, 0.000, 0.000, 0.000, 14:13:38.453
40, -1843.31, -2538.18, -2640.38, -2235.91, 0.000, 0.000, 0.000, 14:13:38.453
41, -1657.96, -2294.28, -2434.56, -2040.60, 0.000, 0.000, 0.000, 14:13:38.454
42, -1380.65, -1960.21, -2167.63, -1800.20, 0.000, 0.000, 0.000, 14:13:38.454
43, -1689.37, -2275.40, -2461.13, -2061.64, 0.000, 0.000, 0.000, 14:13:38.468
44, -1960.76, -2510.30, -2648.25, -2237.73, 0.000, 0.000, 0.000, 14:13:38.468
45, -1796.71, -2242.95, -2441.78, -2045.46, 0.000, 0.000, 0.000, 14:13:38.499
46, -1531.09, -1875.67, -2174.74, -1805.18, 0.000, 0.000, 0.000, 14:13:38.499
47, -1853.35, -2198.24, -2475.71, -2071.94, 0.000, 0.000, 0.000, 14:13:38.500
48, -2131.72, -2427.97, -2659.48, -2256.62, 0.000, 0.000, 0.000, 14:13:38.500
49, -1948.30, -2163.81, -2457.90, -2047.15, 0.000, 0.000, 0.000, 14:13:38.500
50, -1673.31, -1822.48, -2189.38, -1807.78, 0.000, 0.000, 0.000, 14:13:38.500
51, -1968.58, -2129.69, -2462.43, -2073.41, 0.000, 0.000, 0.000, 14:13:38.500
52, -2219.94, -2370.55, -2662.76, -2272.19, 0.000, 0.000, 0.000, 14:13:38.501
53, -2022.81, -2115.08, -2452.06, -2067.24, 0.000, 0.000, 0.000, 14:13:38.529
54, -1737.31, -1789.64, -2197.19, -1822.08, 0.000, 0.000, 0.000, 14:13:38.530
55, -2035.64, -2127.24, -2492.13, -2094.67, 0.000, 0.000, 0.000, 14:13:38.530
56, -2258.49, -2371.13, -2664.79, -2263.74, 0.000, 0.000, 0.000, 14:13:38.530
57, -2053.92, -2119.20, -2454.87, -2062.58, 0.000, 0.000, 0.000, 14:13:38.544
58, -1745.26, -1789.95, -2193.19, -1828.32, 0.000, 0.000, 0.000, 14:13:38.544
59, -2030.60, -2120.05, -2482.69, -2097.56, 0.000, 0.000, 0.000, 14:13:38.545
60, -2261.59, -2354.07, -2666.06, -2251.34, 0.000, 0.000, 0.000, 14:13:38.545
61, -2043.11, -2108.89, -2447.07, -2064.32, 0.000, 0.000, 0.000, 14:13:38.565
62, -1733.09, -1774.23, -2176.22, -1820.22, 0.000, 0.000, 0.000, 14:13:38.567
63, -2022.76, -2129.85, -2485.84, -2108.24, 0.000, 0.000, 0.000, 14:13:38.574
64, -2238.42, -2364.84, -2655.35, -2253.03, 0.000, 0.000, 0.000, 14:13:38.574
65, -2024.60, -2116.42, -2450.03, -2066.48, 0.000, 0.000, 0.000, 14:13:38.574
66, -1712.82, -1785.85, -2179.64, -1818.78, 0.000, 0.000, 0.000, 14:13:38.575
67, -2006.20, -2115.19, -2480.50, -2097.42, 0.000, 0.000, 0.000, 14:13:38.589
68, -2221.25, -2364.27, -2654.15, -2255.59, 0.000, 0.000, 0.000, 14:13:38.589
69, -2000.13, -2108.23, -2435.65, -2056.93, 0.000, 0.000, 0.000, 14:13:38.604
70, -1698.34, -1783.61, -2172.03, -1825.25, 0.000, 0.000, 0.000, 14:13:38.604
71, -1983.09, -2138.96, -2479.13, -2099.51, 0.000, 0.000, 0.000, 14:13:38.604
72, -2205.35, -2370.66, -2657.18, -2258.43, 0.000, 0.000, 0.000, 14:13:38.604
73, -2003.22, -2127.87, -2450.75, -2065.15, 0.000, 0.000, 0.000, 14:13:38.619
74, -1692.04, -1806.44, -2184.73, -1818.03, 0.000, 0.000, 0.000, 14:13:38.619
75, -1984.20, -2137.72, -2486.63, -2109.39, 0.000, 0.000, 0.000, 14:13:38.633
76, -2203.12, -2386.04, -2662.70, -2256.01, 0.000, 0.000, 0.000, 14:13:38.633
77, -1990.00, -2143.04, -2459.11, -2064.62, 0.000, 0.000, 0.000, 14:13:38.634
78, -1688.17, -1833.92, -2197.50, -1838.97, 0.000, 0.000, 0.000, 14:13:38.634
79, -1977.29, -2179.40, -2496.97, -2105.88, 0.000, 0.000, 0.000, 14:13:38.664
80, -2181.91, -2393.81, -2651.37, -2256.91, 0.000, 0.000, 0.000, 14:13:38.664
81, -1961.23, -2131.90, -2439.15, -2042.71, 0.000, 0.000, 0.000, 14:13:38.664
82, -1663.00, -1824.12, -2181.84, -1820.09, 0.000, 0.000, 0.000, 14:13:38.664
83, -1955.45, -2160.63, -2482.63, -2105.77, 0.000, 0.000, 0.000, 14:13:38.665
84, -2172.01, -2392.19, -2653.08, -2248.44, 0.000, 0.000, 0.000, 14:13:38.666
85, -1957.95, -2140.92, -2443.70, -2053.78, 0.000, 0.000, 0.000, 14:13:38.679
86, -1655.23, -1816.31, -2175.06, -1816.96, 0.000, 0.000, 0.000, 14:13:38.679
87, -1936.60, -2164.25, -2479.03, -2090.88, 0.000, 0.000, 0.000, 14:13:38.694
88, -2162.64, -2386.02, -2646.55, -2249.55, 0.000, 0.000, 0.000, 14:13:38.694
89, -1930.97, -2132.26, -2423.90, -2049.93, 0.000, 0.000, 0.000, 14:13:38.694
90, -1640.96, -1819.43, -2182.34, -1817.05, 0.000, 0.000, 0.000, 14:13:38.694
91, -1935.23, -2163.45, -2477.96, -2101.93, 0.000, 0.000, 0.000, 14:13:38.709
92, -2151.69, -2388.29, -2654.40, -2254.72, 0.000, 0.000, 0.000, 14:13:38.709
93, -1934.25, -2142.90, -2430.02, -2037.91, 0.000, 0.000, 0.000, 14:13:38.723
94, -1627.19, -1822.18, -2177.80, -1819.96, 0.000, 0.000, 0.000, 14:13:38.723
95, -1925.47, -2168.42, -2472.59, -2097.79, 0.000, 0.000, 0.000, 14:13:38.724
96, -2150.77, -2399.67, -2654.82, -2256.19, 0.000, 0.000, 0.000, 14:13:38.724
97, -1927.84, -2141.45, -2429.39, -2046.37, 0.000, 0.000, 0.000, 14:13:38.738
98, -1637.30, -1822.26, -2175.45, -1813.65, 0.000, 0.000, 0.000, 14:13:38.738
99, -1916.98, -2161.13, -2480.79, -2099.22, 0.000, 0.000, 0.000, 14:13:38.754
100, -2145.66, -2396.66, -2649.99, -2252.86, 0.000, 0.000, 0.000, 14:13:38.754
101, -1925.90, -2143.14, -2433.25, -2042.93, 0.000, 0.000, 0.000, 14:13:38.754
102, -1636.36, -1811.14, -2180.31, -1811.57, 0.000, 0.000, 0.000, 14:13:38.755
103, -1924.12, -2166.57, -2477.66, -2088.00, 0.000, 0.000, 0.000, 14:13:38.768
104, -2139.12, -2394.19, -2644.63, -2245.27, 0.000, 0.000, 0.000, 14:13:38.768
105, -1927.84, -2146.87, -2438.26, -2049.95, 0.000, 0.000, 0.000, 14:13:38.783
106, -1644.43, -1839.82, -2190.22, -1816.80, 0.000, 0.000, 0.000, 14:13:38.784
107, -1955.38, -2196.71, -2506.25, -2122.80, 0.000, 0.000, 0.000, 14:13:38.784
108, -2184.25, -2436.69, -2675.44, -2265.21, 0.000, 0.000, 0.000, 14:13:38.784
109, -1963.33, -2186.62, -2460.52, -2058.65, 0.000, 0.000, 0.000, 14:13:38.800
110, -1666.02, -1865.09, -2203.21, -1840.12, 0.000, 0.000, 0.000, 14:13:38.800
111, -1963.75, -2216.61, -2505.06, -2122.16, 0.000, 0.000, 0.000, 14:13:38.814
112, -2172.96, -2425.54, -2670.74, -2265.83, 0.000, 0.000, 0.000, 14:13:38.815
113, -1967.04, -2173.10, -2464.48, -2069.55, 0.000, 0.000, 0.000, 14:13:38.815
114, -1665.49, -1861.38, -2205.11, -1838.51, 0.000, 0.000, 0.000, 14:13:38.815
115, -1968.51, -2220.69, -2517.89, -2120.25, 0.000, 0.000, 0.000, 14:13:38.829
116, -2180.68, -2437.77, -2674.85, -2267.41, 0.000, 0.000, 0.000, 14:13:38.830
117, -1956.73, -2172.45, -2453.13, -2062.61, 0.000, 0.000, 0.000, 14:13:38.844
118, -1665.58, -1862.96, -2204.48, -1836.67, 0.000, 0.000, 0.000, 14:13:38.844
119, -1963.91, -2215.05, -2516.33, -2120.32, 0.000, 0.000, 0.000, 14:13:38.844
120, -2174.62, -2435.59, -2668.94, -2275.60, 0.000, 0.000, 0.000, 14:13:38.844
121, -1950.34, -2174.85, -2449.02, -2066.25, 0.000, 0.000, 0.000, 14:13:38.866
122, -1666.11, -1854.61, -2199.45, -1836.16, 0.000, 0.000, 0.000, 14:13:38.866
123, -1957.73, -2211.08, -2516.57, -2125.72, 0.000, 0.000, 0.000, 14:13:38.873
124, -2172.12, -2448.60, -2674.71, -2259.94, 0.000, 0.000, 0.000, 14:13:38.873
125, -1950.23, -2174.42, -2451.01, -2068.16, 0.000, 0.000, 0.000, 14:13:38.874
126, -1659.63, -1849.99, -2198.74, -1836.43, 0.000, 0.000, 0.000, 14:13:38.874
127, -1957.53, -2214.57, -2511.46, -2118.42, 0.000, 0.000, 0.000, 14:13:38.889
128, -2171.65, -2424.56, -2669.96, -2265.04, 0.000, 0.000, 0.000, 14:13:38.889
129, -1944.27, -2173.93, -2450.15, -2058.97, 0.000, 0.000, 0.000, 14:13:38.904
130, -1662.60, -1873.06, -2201.89, -1827.83, 0.000, 0.000, 0.000, 14:13:38.904
131, -1975.91, -2224.96, -2517.03, -2126.92, 0.000, 0.000, 0.000, 14:13:38.904
132, -2177.27, -2436.83, -2672.75, -2259.77, 0.000, 0.000, 0.000, 14:13:38.904
133, -1952.84, -2157.00, -2443.73, -2071.34, 0.000, 0.000, 0.000, 14:13:38.918
134, -1655.63, -1860.47, -2202.31, -1833.31, 0.000, 0.000, 0.000, 14:13:38.919
135, -1971.67, -2220.12, -2516.50, -2121.61, 0.000, 0.000, 0.000, 14:13:38.934
136, -2173.26, -2419.17, -2658.40, -2262.20, 0.000, 0.000, 0.000, 14:13:38.934
137, -1938.19, -2150.59, -2437.36, -2044.72, 0.000, 0.000, 0.000, 14:13:38.934
138, -1638.76, -1831.35, -2185.55, -1823.81, 0.000, 0.000, 0.000, 14:13:38.934
139, -1943.25, -2180.63, -2494.22, -2115.70, 0.000, 0.000, 0.000, 14:13:38.949
140, -2137.38, -2388.36, -2646.16, -2246.28, 0.000, 0.000, 0.000, 14:13:38.949
141, -1915.52, -2121.98, -2417.16, -2029.96, 0.000, 0.000, 0.000, 14:13:38.963
142, -1614.37, -1808.45, -2160.68, -1792.35, 0.000, 0.000, 0.000, 14:13:38.964
143, -1917.37, -2160.10, -2474.75, -2098.74, 0.000, 0.000, 0.000, 14:13:38.964
144, -2111.37, -2355.21, -2620.72, -2228.54, 0.000, 0.000, 0.000, 14:13:38.964
145, -1886.93, -2090.12, -2401.00, -2022.31, 0.000, 0.000, 0.000, 14:13:38.980
146, -1587.66, -1770.51, -2146.86, -1791.33, 0.000, 0.000, 0.000, 14:13:38.980
147, -1896.16, -2126.48, -2463.32, -2071.51, 0.000, 0.000, 0.000, 14:13:38.994
148, -2104.86, -2341.66, -2613.21, -2220.92, 0.000, 0.000, 0.000, 14:13:38.994
149, -1890.16, -2080.77, -2394.98, -2020.35, 0.000, 0.000, 0.000, 14:13:38.995
150, -1578.85, -1763.33, -2142.25, -1785.82, 0.000, 0.000, 0.000, 14:13:38.995
151, -1888.74, -2123.43, -2445.40, -2077.24, 0.000, 0.000, 0.000, 14:13:39.009
152, -2081.75, -2321.67, -2590.24, -2208.74, 0.000, 0.000, 0.000, 14:13:39.009
153, -1840.82, -2047.90, -2367.39, -2004.09, 0.000, 0.000, 0.000, 14:13:39.024
154, -1532.32, -1733.75, -2101.60, -1762.74, 0.000, 0.000, 0.000, 14:13:39.024
155, -1830.40, -2077.12, -2415.75, -2044.59, 0.000, 0.000, 0.000, 14:13:39.025
156, -2010.62, -2257.62, -2555.10, -2169.43, 0.000, 0.000, 0.000, 14:13:39.025
157, -1767.55, -1978.72, -2320.82, -1952.99, 0.000, 0.000, 0.000, 14:13:39.053
158, -1468.91, -1643.28, -2065.84, -1749.34, 0.000, 0.000, 0.000, 14:13:39.053
159, -1753.67, -1989.92, -2360.25, -2001.08, 0.000, 0.000, 0.000, 14:13:39.054
160, -1918.08, -2159.49, -2485.17, -2116.25, 0.000, 0.000, 0.000, 14:13:39.054
161, -1645.55, -1845.06, -2227.21, -1886.04, 0.000, 0.000, 0.000, 14:13:39.055
162, -1302.28, -1467.43, -1942.15, -1628.17, 0.000, 0.000, 0.000, 14:13:39.055
163, -1558.16, -1786.16, -2231.00, -1901.61, 0.000, 0.000, 0.000, 14:13:39.083
164, -1726.92, -1953.62, -2353.77, -2020.64, 0.000, 0.000, 0.000, 14:13:39.083
165, -1491.46, -1677.98, -2115.85, -1800.66, 0.000, 0.000, 0.000, 14:13:39.084
166, -1204.75, -1374.88, -1880.32, -1591.10, 0.000, 0.000, 0.000, 14:13:39.084
167, -1515.64, -1749.28, -2198.52, -1872.90, 0.000, 0.000, 0.000, 14:13:39.084
168, -1706.84, -1939.84, -2334.00, -2008.28, 0.000, 0.000, 0.000, 14:13:39.084
169, -1476.68, -1667.08, -2115.37, -1796.54, 0.000, 0.000, 0.000, 14:13:39.100
170, -1183.68, -1355.43, -1869.32, -1577.91, 0.000, 0.000, 0.000, 14:13:39.100
171, -1454.35, -1682.15, -2156.11, -1850.88, 0.000, 0.000, 0.000, 14:13:39.114
172, -1585.97, -1804.68, -2258.93, -1937.24, 0.000, 0.000, 0.000, 14:13:39.114
173, -1325.64, -1529.56, -2012.54, -1721.30, 0.000, 0.000, 0.000, 14:13:39.114
174, -1056.78, -1229.63, -1781.48, -1513.37, 0.000, 0.000, 0.000, 14:13:39.114
175, -1368.01, -1596.11, -2102.43, -1808.29, 0.000, 0.000, 0.000, 14:13:39.129
176, -1580.72, -1808.36, -2254.29, -1935.96, 0.000, 0.000, 0.000, 14:13:39.130
177, -1381.15, -1582.67, -2052.70, -1760.55, 0.000, 0.000, 0.000, 14:13:39.144
178, -1133.56, -1312.70, -1837.15, -1561.36, 0.000, 0.000, 0.000, 14:13:39.144
179, -1481.45, -1705.41, -2172.94, -1869.97, 0.000, 0.000, 0.000, 14:13:39.145
180, -1700.91, -1932.60, -2333.14, -1998.55, 0.000, 0.000, 0.000, 14:13:39.145
181, -1505.99, -1699.86, -2135.48, -1819.50, 0.000, 0.000, 0.000, 14:13:39.160
182, -1259.11, -1436.45, -1921.85, -1633.10, 0.000, 0.000, 0.000, 14:13:39.160
183, -1586.36, -1817.69, -2241.74, -1920.58, 0.000, 0.000, 0.000, 14:13:39.173
184, -1800.05, -2042.19, -2402.33, -2054.00, 0.000, 0.000, 0.000, 14:13:39.173
185, -1607.06, -1811.09, -2205.74, -1879.15, 0.000, 0.000, 0.000, 14:13:39.174
186, -1351.91, -1533.67, -1990.67, -1679.76, 0.000, 0.000, 0.000, 14:13:39.174
187, -1683.87, -1915.30, -2316.33, -1972.60, 0.000, 0.000, 0.000, 14:13:39.189
188, -1885.69, -2127.04, -2466.55, -2099.91, 0.000, 0.000, 0.000, 14:13:39.189
189, -1677.24, -1886.97, -2260.04, -1902.86, 0.000, 0.000, 0.000, 14:13:39.218
190, -1421.81, -1614.20, -2039.76, -1724.86, 0.000, 0.000, 0.000, 14:13:39.218
191, -1743.77, -1984.19, -2365.06, -2013.96, 0.000, 0.000, 0.000, 14:13:39.219
192, -1943.00, -2184.90, -2501.13, -2129.75, 0.000, 0.000, 0.000, 14:13:39.219
193, -1726.66, -1924.90, -2294.73, -1935.23, 0.000, 0.000, 0.000, 14:13:39.220
194, -1476.46, -1662.66, -2079.12, -1741.82, 0.000, 0.000, 0.000, 14:13:39.220
195, -1795.24, -2042.37, -2390.56, -2024.87, 0.000, 0.000, 0.000, 14:13:39.220
196, -1988.88, -2238.33, -2529.95, -2167.46, 0.000, 0.000, 0.000, 14:13:39.220
197, -1771.25, -1980.77, -2317.70, -1960.63, 0.000, 0.000, 0.000, 14:13:39.234
198, -1515.83, -1716.03, -2109.47, -1758.35, 0.000, 0.000, 0.000, 14:13:39.234
199, -1822.56, -2071.01, -2414.46, -2056.31, 0.000, 0.000, 0.000, 14:13:39.249
200, -2009.17, -2253.91, -2547.50, -2179.16, 0.000, 0.000, 0.000, 14:13:39.249
0, -1796.57, -2010.88, -2332.62, -1983.92, 0.000, 0.000, 0.000, 14:13:39.249
1, -1530.31, -1717.47, -2113.89, -1765.53, 0.000, 0.000, 0.000, 14:13:39.264
2, -1854.65, -2099.81, -2437.04, -2074.83, 0.000, 0.000, 0.000, 14:13:39.264
3, -2032.83, -2277.62, -2559.28, -2189.98, 0.000, 0.000, 0.000, 14:13:39.279
4, -1807.34, -2017.84, -2346.84, -1985.02, 0.000, 0.000, 0.000, 14:13:39.279
5, -1559.76, -1749.05, -2130.16, -1788.46, 0.000, 0.000, 0.000, 14:13:39.279
6, -1865.04, -2111.32, -2444.56, -2082.32, 0.000, 0.000, 0.000, 14:13:39.280
7, -2051.96, -2304.38, -2580.52, -2189.97, 0.000, 0.000, 0.000, 14:13:39.294
8, -1833.91, -2050.79, -2355.19, -2003.84, 0.000, 0.000, 0.000, 14:13:39.294
9, -1570.35, -1762.98, -2139.67, -1790.05, 0.000, 0.000, 0.000, 14:13:39.308
10, -1890.65, -2134.44, -2463.15, -2086.79, 0.000, 0.000, 0.000, 14:13:39.308
11, -2059.43, -2313.46, -2594.79, -2209.84, 0.000, 0.000, 0.000, 14:13:39.309
12, -1841.54, -2068.30, -2379.68, -2004.38, 0.000, 0.000, 0.000, 14:13:39.309
13, -1575.41, -1794.61, -2160.47, -1800.61, 0.000, 0.000, 0.000, 14:13:39.323
14, -1891.79, -2173.43, -2481.59, -2096.00, 0.000, 0.000, 0.000, 14:13:39.323
15, -2051.03, -2332.09, -2594.03, -2205.79, 0.000, 0.000, 0.000, 14:13:39.338
16, -1818.36, -2073.47, -2365.29, -1997.83, 0.000, 0.000, 0.000, 14:13:39.338
17, -1546.98, -1798.40, -2141.65, -1788.88, 0.000, 0.000, 0.000, 14:13:39.339
18, -1863.97, -2175.16, -2469.13, -2089.09, 0.000, 0.000, 0.000, 14:13:39.339
19, -2028.89, -2368.82, -2588.71, -2203.46, 0.000, 0.000, 0.000, 14:13:39.354
20, -1787.92, -2104.98, -2367.90, -1979.12, 0.000, 0.000, 0.000, 14:13:39.354
21, -1525.33, -1821.54, -2154.19, -1793.28, 0.000, 0.000, 0.000, 14:13:39.368
22, -1821.90, -2184.10, -2471.61, -2083.72, 0.000, 0.000, 0.000, 14:13:39.368
23, -1966.70, -2392.51, -2584.76, -2207.26, 0.000, 0.000, 0.000, 14:13:39.376
24, -1713.98, -2157.11, -2362.01, -1995.51, 0.000, 0.000, 0.000, 14:13:39.376
25, -1419.84, -1851.47, -2148.47, -1798.86, 0.000, 0.000, 0.000, 14:13:39.383
26, -1708.17, -2250.58, -2471.17, -2093.69, 0.000, 0.000, 0.000, 14:13:39.383
27, -1823.78, -2444.00, -2575.70, -2190.37, 0.000, 0.000, 0.000, 14:13:39.400
28, -1569.47, -2196.95, -2367.31, -1987.46, 0.000, 0.000, 0.000, 14:13:39.400
29, -1286.64, -1916.13, -2134.99, -1793.86, 0.000, 0.000, 0.000, 14:13:39.400
30, -1612.84, -2290.28, -2464.65, -2085.67, 0.000, 0.000, 0.000, 14:13:39.400
31, -1818.11, -2481.18, -2588.81, -2191.92, 0.000, 0.000, 0.000, 14:13:39.414
32, -1606.63, -2197.65, -2364.40, -1986.67, 0.000, 0.000, 0.000, 14:13:39.414
33, -1387.30, -1900.07, -2153.99, -1782.29, 0.000, 0.000, 0.000, 14:13:39.429
34, -1750.74, -2252.24, -2473.76, -2090.13, 0.000, 0.000, 0.000, 14:13:39.430
35, -1958.35, -2404.54, -2596.00, -2210.88, 0.000, 0.000, 0.000, 14:13:39.430
36, -1773.57, -2127.48, -2371.55, -1995.41, 0.000, 0.000, 0.000, 14:13:39.430
37, -1564.61, -1827.89, -2171.43, -1809.64, 0.000, 0.000, 0.000, 14:13:39.444
38, -1919.06, -2186.52, -2491.04, -2114.98, 0.000, 0.000, 0.000, 14:13:39.444
39, -2118.38, -2336.83, -2612.40, -2212.85, 0.000, 0.000, 0.000, 14:13:39.459
40, -1934.36, -2062.86, -2405.97, -2003.28, 0.000, 0.000, 0.000, 14:13:39.459
41, -1684.58, -1784.02, -2184.04, -1820.35, 0.000, 0.000, 0.000, 14:13:39.460
42, -2018.22, -2150.88, -2504.61, -2119.58, 0.000, 0.000, 0.000, 14:13:39.460
43, -2190.67, -2300.15, -2625.19, -2222.26, 0.000, 0.000, 0.000, 14:13:39.473
44, -1982.73, -2041.57, -2401.02, -2017.07, 0.000, 0.000, 0.000, 14:13:39.473
45, -1717.19, -1748.60, -2178.01, -1819.60, 0.000, 0.000, 0.000, 14:13:39.489
46, -2036.46, -2125.17, -2501.17, -2107.84, 0.000, 0.000, 0.000, 14:13:39.489
47, -2200.74, -2285.23, -2607.36, -2219.58, 0.000, 0.000, 0.000, 14:13:39.490
48, -1965.44, -2019.82, -2385.68, -2009.41, 0.000, 0.000, 0.000, 14:13:39.490
49, -1701.18, -1738.04, -2161.21, -1811.88, 0.000, 0.000, 0.000, 14:13:39.504
50, -2034.86, -2128.66, -2491.90, -2115.12, 0.000, 0.000, 0.000, 14:13:39.504
51, -2174.61, -2283.97, -2603.68, -2221.61, 0.000, 0.000, 0.000, 14:13:39.518
52, -1946.22, -2021.84, -2379.46, -2002.79, 0.000, 0.000, 0.000, 14:13:39.519
53, -1684.94, -1738.84, -2162.22, -1803.26, 0.000, 0.000, 0.000, 14:13:39.519
54, -2005.90, -2130.42, -2488.57, -2117.39, 0.000, 0.000, 0.000, 14:13:39.519
55, -2171.78, -2290.76, -2604.52, -2214.14, 0.000, 0.000, 0.000, 14:13:39.550
56, -1933.00, -2027.30, -2378.69, -2002.86, 0.000, 0.000, 0.000, 14:13:39.550
57, -1670.83, -1758.18, -2171.05, -1809.03, 0.000, 0.000, 0.000, 14:13:39.550
58, -1995.08, -2138.29, -2492.33, -2106.00, 0.000, 0.000, 0.000, 14:13:39.550
59, -2162.07, -2309.40, -2612.65, -2219.50, 0.000, 0.000, 0.000, 14:13:39.550
60, -1915.62, -2042.55, -2384.01, -2013.11, 0.000, 0.000, 0.000, 14:13:39.550
61, -1666.58, -1769.28, -2171.82, -1814.68, 0.000, 0.000, 0.000, 14:13:39.564
62, -1993.38, -2156.95, -2498.78, -2105.31, 0.000, 0.000, 0.000, 14:13:39.564
63, -2146.26, -2312.37, -2616.65, -2218.85, 0.000, 0.000, 0.000, 14:13:39.580
64, -1919.02, -2055.05, -2395.06, -2014.96, 0.000, 0.000, 0.000, 14:13:39.580
65, -1661.32, -1782.98, -2174.00, -1821.14, 0.000, 0.000, 0.000, 14:13:39.580
66, -1988.49, -2162.20, -2505.80, -2127.43, 0.000, 0.000, 0.000, 14:13:39.580
67, -2142.35, -2331.24, -2610.63, -2218.39, 0.000, 0.000, 0.000, 14:13:39.594
68, -1898.82, -2051.07, -2378.76, -2002.60, 0.000, 0.000, 0.000, 14:13:39.594
69, -1637.37, -1771.39, -2172.62, -1811.05, 0.000, 0.000, 0.000, 14:13:39.609
70, -1956.04, -2169.03, -2495.52, -2113.43, 0.000, 0.000, 0.000, 14:13:39.609
71, -2114.18, -2326.68, -2609.10, -2218.07, 0.000, 0.000, 0.000, 14:13:39.609
72, -1877.46, -2047.04, -2377.07, -1999.00, 0.000, 0.000, 0.000, 14:13:39.610
73, -1616.69, -1788.17, -2163.26, -1817.54, 0.000, 0.000, 0.000, 14:13:39.624
74, -1948.23, -2183.22, -2495.91, -2121.74, 0.000, 0.000, 0.000, 14:13:39.624
75, -2103.62, -2323.05, -2596.40, -2213.59, 0.000, 0.000, 0.000, 14:13:39.639
76, -1869.62, -2053.03, -2378.34, -1999.00, 0.000, 0.000, 0.000, 14:13:39.639
77, -1602.67, -1781.41, -2158.65, -1804.92, 0.000, 0.000, 0.000, 14:13:39.639
78, -1939.80, -2175.90, -2492.95, -2108.88, 0.000, 0.000, 0.000, 14:13:39.639
79, -2096.74, -2326.26, -2606.87, -2225.35, 0.000, 0.000, 0.000, 14:13:39.654
80, -1861.90, -2066.14, -2382.46, -2007.78, 0.000, 0.000, 0.000, 14:13:39.654
81, -1609.69, -1790.06, -2167.07, -1803.50, 0.000, 0.000, 0.000, 14:13:39.668
82, -1943.52, -2184.10, -2503.31, -2112.65, 0.000, 0.000, 0.000, 14:13:39.668
83, -2094.51, -2331.12, -2605.09, -2207.98, 0.000, 0.000, 0.000, 14:13:39.669
84, -1856.89, -2065.17, -2377.99, -2004.53, 0.000, 0.000, 0.000, 14:13:39.669
85, -1602.98, -1793.62, -2162.23, -1809.76, 0.000, 0.000, 0.000, 14:13:39.684
86, -1938.02, -2184.93, -2501.58, -2121.42, 0.000, 0.000, 0.000, 14:13:39.684
87, -2093.78, -2338.31, -2603.00, -2212.14, 0.000, 0.000, 0.000, 14:13:39.699
88, -1856.32, -2063.33, -2379.14, -2012.89, 0.000, 0.000, 0.000, 14:13:39.699
89, -1617.08, -1804.42, -2170.44, -1823.43, 0.000, 0.000, 0.000, 14:13:39.700
90, -1939.60, -2192.61, -2505.88, -2113.15, 0.000, 0.000, 0.000, 14:13:39.700
91, -2097.77, -2344.02, -2605.43, -2212.15, 0.000, 0.000, 0.000, 14:13:39.714
92, -1853.03, -2058.10, -2366.72, -2005.87, 0.000, 0.000, 0.000, 14:13:39.714
93, -1604.39, -1798.95, -2166.70, -1806.78, 0.000, 0.000, 0.000, 14:13:39.730
94, -1943.53, -2189.74, -2499.18, -2114.96, 0.000, 0.000, 0.000, 14:13:39.730
95, -2087.38, -2341.44, -2603.51, -2210.11, 0.000, 0.000, 0.000, 14:13:39.730
96, -1850.95, -2076.88, -2373.11, -2003.80, 0.000, 0.000, 0.000, 14:13:39.730
97, -1604.35, -1800.86, -2167.33, -1812.38, 0.000, 0.000, 0.000, 14:13:39.744
98, -1946.09, -2195.39, -2505.27, -2120.70, 0.000, 0.000, 0.000, 14:13:39.744
99, -2089.54, -2341.94, -2599.27, -2208.35, 0.000, 0.000, 0.000, 14:13:39.759
100, -1848.77, -2074.59, -2370.85, -1992.48, 0.000, 0.000, 0.000, 14:13:39.759
101, -1606.69, -1811.98, -2166.53, -1814.08, 0.000, 0.000, 0.000, 14:13:39.774
102, -1931.99, -2188.71, -2493.29, -2119.28, 0.000, 0.000, 0.000, 14:13:39.774
103, -2088.20, -2333.20, -2603.62, -2219.22, 0.000, 0.000, 0.000, 14:13:39.774
104, -1840.90, -2063.83, -2366.33, -1997.83, 0.000, 0.000, 0.000, 14:13:39.774
105, -1592.81, -1798.87, -2157.21, -1797.84, 0.000, 0.000, 0.000, 14:13:39.789
106, -1940.30, -2202.17, -2501.10, -2119.52, 0.000, 0.000, 0.000, 14:13:39.789
107, -2093.31, -2338.79, -2610.63, -2210.34, 0.000, 0.000, 0.000, 14:13:39.789
108, -1843.59, -2067.58, -2365.31, -1994.12, 0.000, 0.000, 0.000, 14:13:39.789
109, -1600.32, -1805.86, -2168.86, -1802.03, 0.000, 0.000, 0.000, 14:13:39.804
110, -1940.85, -2202.56, -2503.62, -2122.11, 0.000, 0.000, 0.000, 14:13:39.804
111, -2085.60, -2342.29, -2602.82, -2205.94, 0.000, 0.000, 0.000, 14:13:39.818
112, -1850.31, -2060.36, -2365.87, -1992.44, 0.000, 0.000, 0.000, 14:13:39.819
113, -1601.10, -1802.80, -2169.56, -1813.77, 0.000, 0.000, 0.000, 14:13:39.819
114, -1937.74, -2199.41, -2503.56, -2117.64, 0.000, 0.000, 0.000, 14:13:39.819
115, -2087.22, -2343.21, -2605.16, -2209.21, 0.000, 0.000, 0.000, 14:13:39.834
116, -1851.89, -2065.49, -2374.81, -2002.95, 0.000, 0.000, 0.000, 14:13:39.834
117, -1599.36, -1809.15, -2168.49, -1809.42, 0.000, 0.000, 0.000, 14:13:39.849
118, -1946.55, -2196.59, -2511.86, -2122.94, 0.000, 0.000, 0.000, 14:13:39.849
119, -2091.67, -2341.24, -2608.61, -2218.56, 0.000, 0.000, 0.000, 14:13:39.849
120, -1845.26, -2059.23, -2367.66, -1992.04, 0.000, 0.000, 0.000, 14:13:39.849
121, -1606.01, -1809.10, -2176.03, -1818.23, 0.000, 0.000, 0.000, 14:13:39.863
122, -1943.58, -2206.18, -2509.60, -2122.99, 0.000, 0.000, 0.000, 14:13:39.864
123, -2078.54, -2335.06, -2601.19, -2200.75, 0.000, 0.000, 0.000, 14:13:39.879
124, -1838.17, -2057.64, -2359.55, -1999.83, 0.000, 0.000, 0.000, 14:13:39.879
125, -1599.25, -1804.11, -2167.52, -1823.25, 0.000, 0.000, 0.000, 14:13:39.879
126, -1948.73, -2208.41, -2514.28, -2118.16, 0.000, 0.000, 0.000, 14:13:39.879
127, -2086.59, -2333.04, -2607.57, -2203.00, 0.000, 0.000, 0.000, 14:13:39.894
128, -1847.68, -2069.16, -2375.64, -1996.87, 0.000, 0.000, 0.000, 14:13:39.894
129, -1601.77, -1806.44, -2170.88, -1810.45, 0.000, 0.000, 0.000, 14:13:39.909
130, -1952.76, -2204.73, -2517.36, -2125.28, 0.000, 0.000, 0.000, 14:13:39.909
131, -2091.72, -2349.60, -2614.07, -2216.31, 0.000, 0.000, 0.000, 14:13:39.909
132, -1839.34, -2059.69, -2367.50, -1994.25, 0.000, 0.000, 0.000, 14:13:39.910
133, -1605.33, -1803.78, -2171.24, -1805.12, 0.000, 0.000, 0.000, 14:13:39.923
134, -1951.37, -2209.35, -2517.86, -2124.01, 0.000, 0.000, 0.000, 14:13:39.923
135, -2086.56, -2345.49, -2610.39, -2215.21, 0.000, 0.000, 0.000, 14:13:39.939
136, -1841.94, -2061.18, -2366.23, -1993.23, 0.000, 0.000, 0.000, 14:13:39.939
137, -1600.12, -1801.80, -2168.34, -1804.91, 0.000, 0.000, 0.000, 14:13:39.939
138, -1957.79, -2219.37, -2522.51, -2120.27, 0.000, 0.000, 0.000, 14:13:39.940
139, -2116.10, -2366.22, -2631.29, -2233.43, 0.000, 0.000, 0.000, 14:13:39.954
140, -1906.42, -2123.75, -2420.63, -2024.67, 0.000, 0.000, 0.000, 14:13:39.954
141, -1684.89, -1885.22, -2226.31, -1860.41, 0.000, 0.000, 0.000, 14:13:39.968
142, -2040.05, -2303.88, -2579.97, -2188.99, 0.000, 0.000, 0.000, 14:13:39.968
143, -2183.10, -2436.95, -2669.73, -2266.15, 0.000, 0.000, 0.000, 14:13:39.969
144, -1935.44, -2167.26, -2435.01, -2044.09, 0.000, 0.000, 0.000, 14:13:39.969
145, -1684.60, -1887.75, -2229.01, -1855.62, 0.000, 0.000, 0.000, 14:13:39.984
146, -2034.85, -2286.78, -2574.72, -2168.45, 0.000, 0.000, 0.000, 14:13:39.984
147, -2167.39, -2415.30, -2654.80, -2255.64, 0.000, 0.000, 0.000, 14:13:39.999
148, -1912.30, -2133.25, -2416.21, -2022.72, 0.000, 0.000, 0.000, 14:13:39.999
149, -1651.47, -1856.35, -2206.28, -1837.94, 0.000, 0.000, 0.000, 14:13:39.999
150, -1968.08, -2229.79, -2528.83, -2141.46, 0.000, 0.000, 0.000, 14:13:39.999
151, -2080.53, -2345.63, -2602.80, -2206.75, 0.000, 0.000, 0.000, 14:13:40.014
152, -1848.39, -2059.71, -2376.53, -1985.77, 0.000, 0.000, 0.000, 14:13:40.014
153, -1620.85, -1817.60, -2191.13, -1823.96, 0.000, 0.000, 0.000, 14:13:40.030
154, -1996.86, -2249.92, -2546.08, -2154.04, 0.000, 0.000, 0.000, 14:13:40.030
155, -2138.87, -2394.91, -2646.26, -2239.28, 0.000, 0.000, 0.000, 14:13:40.030
156, -1907.33, -2135.19, -2417.47, -2020.32, 0.000, 0.000, 0.000, 14:13:40.030
157, -1680.92, -1903.41, -2234.81, -1851.24, 0.000, 0.000, 0.000, 14:13:40.044
158, -2036.97, -2312.97, -2575.48, -2181.93, 0.000, 0.000, 0.000, 14:13:40.044
159, -2170.31, -2436.27, -2664.38, -2258.22, 0.000, 0.000, 0.000, 14:13:40.059
160, -1926.84, -2154.73, -2425.26, -2037.63, 0.000, 0.000, 0.000, 14:13:40.059
161, -1677.86, -1897.19, -2221.30, -1854.64, 0.000, 0.000, 0.000, 14:13:40.060
162, -2036.27, -2316.51, -2575.12, -2174.73, 0.000, 0.000, 0.000, 14:13:40.060
163, -2167.11, -2412.68, -2653.71, -2264.44, 0.000, 0.000, 0.000, 14:13:40.074
164, -1911.20, -2131.79, -2406.51, -2044.39, 0.000, 0.000, 0.000, 14:13:40.074
165, -1675.33, -1878.03, -2220.39, -1849.93, 0.000, 0.000, 0.000, 14:13:40.089
166, -2040.82, -2302.39, -2571.54, -2173.60, 0.000, 0.000, 0.000, 14:13:40.089
167, -2166.89, -2419.42, -2654.75, -2246.19, 0.000, 0.000, 0.000, 14:13:40.089
168, -1916.38, -2134.62, -2411.19, -2025.17, 0.000, 0.000, 0.000, 14:13:40.089
169, -1680.82, -1881.65, -2227.42, -1857.09, 0.000, 0.000, 0.000, 14:13:40.103
170, -2044.94, -2306.69, -2580.27, -2187.04, 0.000, 0.000, 0.000, 14:13:40.103
171, -2169.64, -2422.36, -2658.60, -2257.04, 0.000, 0.000, 0.000, 14:13:40.118
172, -1916.26, -2131.46, -2416.55, -2035.53, 0.000, 0.000, 0.000, 14:13:40.118
173, -1681.53, -1874.42, -2227.86, -1855.85, 0.000, 0.000, 0.000, 14:13:40.125
174, -2022.32, -2284.89, -2570.81, -2158.15, 0.000, 0.000, 0.000, 14:13:40.126
175, -2149.75, -2397.59, -2652.48, -2232.01, 0.000, 0.000, 0.000, 14:13:40.149
176, -1889.65, -2110.43, -2406.87, -2033.72, 0.000, 0.000, 0.000, 14:13:40.149
177, -1659.01, -1865.98, -2213.59, -1837.71, 0.000, 0.000, 0.000, 14:13:40.150
178, -2006.86, -2274.38, -2558.05, -2157.49, 0.000, 0.000, 0.000, 14:13:40.150
179, -2137.46, -2394.39, -2638.48, -2230.79, 0.000, 0.000, 0.000, 14:13:40.150
180, -1881.27, -2100.40, -2392.19, -2010.31, 0.000, 0.000, 0.000, 14:13:40.150
181, -1650.06, -1857.19, -2200.44, -1840.61, 0.000, 0.000, 0.000, 14:13:40.164
182, -2010.32, -2278.12, -2557.12, -2164.09, 0.000, 0.000, 0.000, 14:13:40.164
183, -2135.80, -2392.74, -2637.08, -2238.55, 0.000, 0.000, 0.000, 14:13:40.179
184, -1884.97, -2102.19, -2401.33, -2000.01, 0.000, 0.000, 0.000, 14:13:40.179
185, -1650.13, -1851.91, -2205.77, -1838.89, 0.000, 0.000, 0.000, 14:13:40.179
186, -2008.26, -2264.11, -2561.07, -2165.15, 0.000, 0.000, 0.000, 14:13:40.179
187, -2131.75, -2384.62, -2631.16, -2232.76, 0.000, 0.000, 0.000, 14:13:40.194
188, -1884.17, -2101.80, -2398.65, -2015.63, 0.000, 0.000, 0.000, 14:13:40.194
189, -1653.13, -1858.77, -2204.47, -1838.66, 0.000, 0.000, 0.000, 14:13:40.208
190, -2013.48, -2261.90, -2556.99, -2159.20, 0.000, 0.000, 0.000, 14:13:40.208
191, -2127.93, -2376.14, -2632.28, -2225.27, 0.000, 0.000, 0.000, 14:13:40.209
192, -1875.45, -2102.58, -2390.55, -2011.14, 0.000, 0.000, 0.000, 14:13:40.209
193, -1640.36, -1845.23, -2198.32, -1838.18, 0.000, 0.000, 0.000, 14:13:40.224
194, -1989.68, -2254.06, -2546.02, -2158.42, 0.000, 0.000, 0.000, 14:13:40.224
195, -2114.34, -2368.20, -2629.43, -2220.78, 0.000, 0.000, 0.000, 14:13:40.238
196, -1869.77, -2084.81, -2381.90, -2004.14, 0.000, 0.000, 0.000, 14:13:40.238
197, -1636.18, -1830.42, -2186.53, -1825.09, 0.000, 0.000, 0.000, 14:13:40.239
198, -1997.26, -2253.17, -2547.89, -2156.14, 0.000, 0.000, 0.000, 14:13:40.239
199, -2117.84, -2378.20, -2624.91, -2226.61, 0.000, 0.000, 0.000, 14:13:40.255
200, -1869.13, -2094.59, -2385.79, -2001.52, 0.000, 0.000, 0.000, 14:13:40.255
0, -1640.81, -1851.47, -2196.13, -1839.52, 0.000, 0.000, 0.000, 14:13:40.255
1, -2021.50, -2286.54, -2565.12, -2172.83, 0.000, 0.000, 0.000, 14:13:40.270
2, -2133.18, -2394.30, -2643.89, -2251.73, 0.000, 0.000, 0.000, 14:13:40.270
3, -1904.33, -2139.72, -2409.22, -2023.20, 0.000, 0.000, 0.000, 14:13:40.284
4, -1689.56, -1896.29, -2230.69, -1858.84, 0.000, 0.000, 0.000, 14:13:40.284
5, -2056.34, -2320.52, -2588.92, -2197.99, 0.000, 0.000, 0.000, 14:13:40.285
6, -2172.36, -2433.72, -2669.23, -2248.55, 0.000, 0.000, 0.000, 14:13:40.285
7, -1917.11, -2146.63, -2419.95, -2024.43, 0.000, 0.000, 0.000, 14:13:40.299
8, -1689.59, -1910.17, -2238.68, -1865.97, 0.000, 0.000, 0.000, 14:13:40.299
9, -2054.54, -2312.41, -2588.81, -2183.83, 0.000, 0.000, 0.000, 14:13:40.313
10, -2161.42, -2407.37, -2654.97, -2247.47, 0.000, 0.000, 0.000, 14:13:40.314
11, -1901.17, -2119.02, -2404.35, -2015.36, 0.000, 0.000, 0.000, 14:13:40.315
12, -1667.98, -1872.85, -2217.61, -1847.79, 0.000, 0.000, 0.000, 14:13:40.315
13, -2035.56, -2298.73, -2570.37, -2167.62, 0.000, 0.000, 0.000, 14:13:40.328
14, -2141.19, -2401.54, -2642.86, -2237.72, 0.000, 0.000, 0.000, 14:13:40.328
15, -1888.45, -2102.92, -2394.21, -2004.37, 0.000, 0.000, 0.000, 14:13:40.344
16, -1647.79, -1852.09, -2200.52, -1843.93, 0.000, 0.000, 0.000, 14:13:40.344
17, -2021.30, -2292.88, -2563.39, -2173.42, 0.000, 0.000, 0.000, 14:13:40.344
18, -2120.45, -2385.79, -2631.68, -2222.04, 0.000, 0.000, 0.000, 14:13:40.345
19, -1870.96, -2097.61, -2386.04, -1995.73, 0.000, 0.000, 0.000, 14:13:40.358
20, -1639.56, -1854.69, -2203.81, -1835.60, 0.000, 0.000, 0.000, 14:13:40.358
21, -2011.67, -2281.95, -2570.41, -2175.71, 0.000, 0.000, 0.000, 14:13:40.374
22, -2133.13, -2394.77, -2631.33, -2226.38, 0.000, 0.000, 0.000, 14:13:40.374
23, -1872.91, -2093.00, -2387.92, -2005.24, 0.000, 0.000, 0.000, 14:13:40.374
24, -1656.49, -1856.59, -2210.27, -1835.86, 0.000, 0.000, 0.000, 14:13:40.374
25, -2037.77, -2298.27, -2582.57, -2176.21, 0.000, 0.000, 0.000, 14:13:40.389
26, -2162.03, -2419.38, -2658.19, -2248.12, 0.000, 0.000, 0.000, 14:13:40.389
27, -1917.29, -2146.09, -2418.58, -2032.38, 0.000, 0.000, 0.000, 14:13:40.404
28, -1718.92, -1925.80, -2252.09, -1865.91, 0.000, 0.000, 0.000, 14:13:40.404
29, -2095.31, -2361.06, -2627.69, -2212.48, 0.000, 0.000, 0.000, 14:13:40.404
30, -2211.18, -2462.48, -2694.92, -2286.28, 0.000, 0.000, 0.000, 14:13:40.404
31, -1948.31, -2170.30, -2442.79, -2042.33, 0.000, 0.000, 0.000, 14:13:40.419
32, -1726.85, -1939.70, -2266.36, -1878.25, 0.000, 0.000, 0.000, 14:13:40.419
33, -2091.69, -2349.42, -2616.50, -2208.56, 0.000, 0.000, 0.000, 14:13:40.434
34, -2202.95, -2459.89, -2688.53, -2267.98, 0.000, 0.000, 0.000, 14:13:40.434
35, -1923.73, -2142.93, -2425.42, -2031.26, 0.000, 0.000, 0.000, 14:13:40.435
36, -1691.65, -1901.87, -2238.26, -1862.55, 0.000, 0.000, 0.000, 14:13:40.435
37, -2040.61, -2305.49, -2585.14, -2182.80, 0.000, 0.000, 0.000, 14:13:40.455
38, -2149.29, -2405.13, -2653.92, -2236.39, 0.000, 0.000, 0.000, 14:13:40.455
39, -1876.56, -2087.65, -2389.42, -1990.28, 0.000, 0.000, 0.000, 14:13:40.464
40, -1652.21, -1862.34, -2213.91, -1858.75, 0.000, 0.000, 0.000, 14:13:40.464
41, -2027.34, -2284.92, -2574.11, -2176.94, 0.000, 0.000, 0.000, 14:13:40.464
42, -2126.01, -2372.20, -2629.45, -2226.78, 0.000, 0.000, 0.000, 14:13:40.465
43, -1879.19, -2090.35, -2385.48, -2000.31, 0.000, 0.000, 0.000, 14:13:40.479
44, -1643.70, -1851.93, -2199.21, -1841.90, 0.000, 0.000, 0.000, 14:13:40.479
45, -2026.41, -2294.90, -2567.69, -2175.14, 0.000, 0.000, 0.000, 14:13:40.494
46, -2133.24, -2387.43, -2632.47, -2227.60, 0.000, 0.000, 0.000, 14:13:40.494
47, -1874.76, -2100.99, -2384.39, -2005.47, 0.000, 0.000, 0.000, 14:13:40.494
48, -1654.76, -1868.51, -2212.79, -1850.69, 0.000, 0.000, 0.000, 14:13:40.494
49, -2028.17, -2290.19, -2580.46, -2182.85, 0.000, 0.000, 0.000, 14:13:40.508
50, -2121.09, -2385.75, -2632.59, -2228.17, 0.000, 0.000, 0.000, 14:13:40.508
51, -1868.49, -2082.39, -2387.71, -1994.12, 0.000, 0.000, 0.000, 14:13:40.524
52, -1653.45, -1861.02, -2215.82, -1853.65, 0.000, 0.000, 0.000, 14:13:40.524
53, -2030.06, -2288.14, -2576.25, -2177.66, 0.000, 0.000, 0.000, 14:13:40.525
54, -2119.54, -2381.31, -2634.77, -2228.02, 0.000, 0.000, 0.000, 14:13:40.525
55, -1863.09, -2074.64, -2370.66, -1998.36, 0.000, 0.000, 0.000, 14:13:40.539
56, -1639.44, -1847.59, -2197.87, -1840.13, 0.000, 0.000, 0.000, 14:13:40.539
57, -2008.69, -2279.10, -2560.34, -2171.17, 0.000, 0.000, 0.000, 14:13:40.554
58, -2119.04, -2375.76, -2625.14, -2223.56, 0.000, 0.000, 0.000, 14:13:40.554
59, -1861.41, -2063.74, -2371.57, -2000.87, 0.000, 0.000, 0.000, 14:13:40.555
60, -1643.91, -1852.51, -2205.51, -1836.44, 0.000, 0.000, 0.000, 14:13:40.555
61, -2025.87, -2277.27, -2574.40, -2173.87, 0.000, 0.000, 0.000, 14:13:40.569
62, -2128.00, -2372.17, -2629.53, -2223.59, 0.000, 0.000, 0.000, 14:13:40.569
63, -1855.36, -2072.01, -2368.01, -1980.43, 0.000, 0.000, 0.000, 14:13:40.584
64, -1639.61, -1838.64, -2194.86, -1825.30, 0.000, 0.000, 0.000, 14:13:40.584
65, -2018.04, -2278.29, -2562.41, -2188.83, 0.000, 0.000, 0.000, 14:13:40.585
66, -2121.46, -2372.74, -2622.13, -2227.29, 0.000, 0.000, 0.000, 14:13:40.585
67, -1853.47, -2065.53, -2368.54, -1981.58, 0.000, 0.000, 0.000, 14:13:40.599
68, -1635.19, -1834.65, -2197.23, -1838.05, 0.000, 0.000, 0.000, 14:13:40.599
69, -2014.88, -2280.98, -2561.96, -2163.45, 0.000, 0.000, 0.000, 14:13:40.614
70, -2116.19, -2369.74, -2626.05, -2230.20, 0.000, 0.000, 0.000, 14:13:40.614
71, -1848.04, -2072.18, -2373.56, -1987.36, 0.000, 0.000, 0.000, 14:13:40.615
72, -1640.09, -1844.44, -2200.93, -1842.08, 0.000, 0.000, 0.000, 14:13:40.616
73, -2028.12, -2293.93, -2575.10, -2181.89, 0.000, 0.000, 0.000, 14:13:40.629
74, -2124.81, -2383.54, -2634.25, -2220.74, 0.000, 0.000, 0.000, 14:13:40.630
75, -1863.16, -2086.88, -2386.72, -1995.19, 0.000, 0.000, 0.000, 14:13:40.659
76, -1654.58, -1868.55, -2213.60, -1845.84, 0.000, 0.000, 0.000, 14:13:40.660
77, -2036.44, -2323.38, -2590.46, -2177.87, 0.000, 0.000, 0.000, 14:13:40.660
78, -2164.12, -2422.51, -2659.31, -2249.11, 0.000, 0.000, 0.000, 14:13:40.660
79, -1919.74, -2153.23, -2419.96, -2030.49, 0.000, 0.000, 0.000, 14:13:40.660
80, -1717.34, -1942.14, -2262.91, -1889.48, 0.000, 0.000, 0.000, 14:13:40.661
81, -2095.29, -2416.00, -2633.51, -2218.80, 0.000, 0.000, 0.000, 14:13:40.661
82, -2176.34, -2480.87, -2675.53, -2267.47, 0.000, 0.000, 0.000, 14:13:40.661
83, -1866.02, -2134.09, -2397.58, -2009.65, 0.000, 0.000, 0.000, 14:13:40.674
84, -1614.01, -1891.19, -2207.94, -1836.40, 0.000, 0.000, 0.000, 14:13:40.674
85, -1974.15, -2339.51, -2574.42, -2187.86, 0.000, 0.000, 0.000, 14:13:40.689
86, -2040.75, -2432.67, -2615.48, -2223.97, 0.000, 0.000, 0.000, 14:13:40.689
87, -1754.66, -2120.90, -2370.26, -1986.42, 0.000, 0.000, 0.000, 14:13:40.703
88, -1513.76, -1949.76, -2203.03, -1830.38, 0.000, 0.000, 0.000, 14:13:40.703
89, -1879.54, -2406.05, -2582.67, -2166.33, 0.000, 0.000, 0.000, 14:13:40.704
90, -1930.07, -2489.17, -2638.08, -2237.93, 0.000, 0.000, 0.000, 14:13:40.704
91, -1631.81, -2224.76, -2383.88, -1995.92, 0.000, 0.000, 0.000, 14:13:40.719
92, -1393.01, -2015.39, -2220.76, -1826.05, 0.000, 0.000, 0.000, 14:13:40.719
93, -1775.15, -2456.10, -2586.47, -2163.93, 0.000, 0.000, 0.000, 14:13:40.733
94, -1877.13, -2525.88, -2626.12, -2219.10, 0.000, 0.000, 0.000, 14:13:40.733
95, -1646.98, -2209.36, -2379.44, -1983.97, 0.000, 0.000, 0.000, 14:13:40.734
96, -1457.69, -1962.98, -2194.23, -1829.47, 0.000, 0.000, 0.000, 14:13:40.734
97, -1841.69, -2324.97, -2544.31, -2142.40, 0.000, 0.000, 0.000, 14:13:40.748
98, -1927.78, -2316.29, -2551.18, -2142.33, 0.000, 0.000, 0.000, 14:13:40.749
99, -1685.23, -1966.36, -2287.34, -1903.27, 0.000, 0.000, 0.000, 14:13:40.763
100, -1510.91, -1723.42, -2128.22, -1767.44, 0.000, 0.000, 0.000, 14:13:40.763
101, -1847.46, -2063.10, -2431.99, -2066.81, 0.000, 0.000, 0.000, 14:13:40.764
102, -1892.39, -2057.21, -2433.24, -2068.06, 0.000, 0.000, 0.000, 14:13:40.764
103, -1557.11, -1650.11, -2114.92, -1792.72, 0.000, 0.000, 0.000, 14:13:40.779
104, -1342.17, -1400.59, -1942.60, -1627.51, 0.000, 0.000, 0.000, 14:13:40.779
105, -1706.24, -1801.69, -2290.04, -1946.53, 0.000, 0.000, 0.000, 14:13:40.794
106, -1811.94, -1872.04, -2340.83, -1996.73, 0.000, 0.000, 0.000, 14:13:40.794
107, -1550.12, -1575.47, -2086.94, -1770.45, 0.000, 0.000, 0.000, 14:13:40.794
108, -1382.17, -1393.80, -1955.84, -1643.68, 0.000, 0.000, 0.000, 14:13:40.794
109, -1786.10, -1862.84, -2345.52, -2000.32, 0.000, 0.000, 0.000, 14:13:40.809
110, -1881.65, -1942.45, -2384.18, -2041.61, 0.000, 0.000, 0.000, 14:13:40.809
111, -1629.21, -1658.73, -2144.59, -1821.77, 0.000, 0.000, 0.000, 14:13:40.824
112, -1435.70, -1466.87, -1983.46, -1680.52, 0.000, 0.000, 0.000, 14:13:40.824
113, -1832.24, -1910.91, -2371.10, -2020.21, 0.000, 0.000, 0.000, 14:13:40.824
114, -1926.49, -2004.06, -2421.60, -2064.65, 0.000, 0.000, 0.000, 14:13:40.824
115, -1683.01, -1730.39, -2185.40, -1844.95, 0.000, 0.000, 0.000, 14:13:40.839
116, -1511.55, -1555.13, -2051.14, -1719.65, 0.000, 0.000, 0.000, 14:13:40.839
117, -1904.70, -2016.85, -2431.13, -2072.97, 0.000, 0.000, 0.000, 14:13:40.854
118, -1998.92, -2110.76, -2482.22, -2115.90, 0.000, 0.000, 0.000, 14:13:40.854
119, -1737.28, -1812.07, -2225.73, -1882.83, 0.000, 0.000, 0.000, 14:13:40.854
120, -1555.04, -1641.46, -2090.74, -1759.24, 0.000, 0.000, 0.000, 14:13:40.854
121, -1933.06, -2091.57, -2468.63, -2087.96, 0.000, 0.000, 0.000, 14:13:40.883
122, -2026.05, -2171.21, -2514.38, -2136.52, 0.000, 0.000, 0.000, 14:13:40.883
123, -1774.05, -1898.45, -2278.73, -1913.17, 0.000, 0.000, 0.000, 14:13:40.884
124, -1580.35, -1702.97, -2128.22, -1782.28, 0.000, 0.000, 0.000, 14:13:40.884
125, -1967.70, -2152.59, -2501.32, -2115.10, 0.000, 0.000, 0.000, 14:13:40.884
126, -2041.07, -2210.92, -2539.42, -2155.53, 0.000, 0.000, 0.000, 14:13:40.885
127, -1775.62, -1912.76, -2289.05, -1914.31, 0.000, 0.000, 0.000, 14:13:40.905
128, -1591.77, -1735.80, -2140.09, -1798.73, 0.000, 0.000, 0.000, 14:13:40.905
129, -1976.08, -2191.99, -2518.89, -2130.84, 0.000, 0.000, 0.000, 14:13:40.914
130, -2048.67, -2254.00, -2547.23, -2164.54, 0.000, 0.000, 0.000, 14:13:40.914
131, -1785.82, -1951.10, -2303.19, -1933.76, 0.000, 0.000, 0.000, 14:13:40.915
132, -1591.21, -1754.69, -2153.69, -1802.17, 0.000, 0.000, 0.000, 14:13:40.915
133, -1963.68, -2191.63, -2517.57, -2137.31, 0.000, 0.000, 0.000, 14:13:40.929
134, -2047.50, -2262.21, -2555.21, -2170.55, 0.000, 0.000, 0.000, 14:13:40.930
135, -1784.11, -1972.81, -2306.10, -1941.49, 0.000, 0.000, 0.000, 14:13:40.944
136, -1593.12, -1776.09, -2158.51, -1811.30, 0.000, 0.000, 0.000, 14:13:40.944
137, -1972.17, -2209.74, -2522.91, -2145.49, 0.000, 0.000, 0.000, 14:13:40.944
138, -2047.20, -2289.02, -2564.52, -2179.55, 0.000, 0.000, 0.000, 14:13:40.944
139, -1793.97, -1995.68, -2321.22, -1961.35, 0.000, 0.000, 0.000, 14:13:40.958
140, -1606.28, -1802.11, -2179.88, -1823.78, 0.000, 0.000, 0.000, 14:13:40.958
141, -1975.43, -2234.09, -2532.31, -2151.87, 0.000, 0.000, 0.000, 14:13:40.974
142, -2043.53, -2284.35, -2563.20, -2173.39, 0.000, 0.000, 0.000, 14:13:40.974
143, -1791.52, -1990.57, -2314.36, -1952.16, 0.000, 0.000, 0.000, 14:13:40.974
144, -1606.81, -1816.50, -2184.04, -1825.77, 0.000, 0.000, 0.000, 14:13:40.974
145, -1984.32, -2229.15, -2533.04, -2146.90, 0.000, 0.000, 0.000, 14:13:40.989
146, -2055.94, -2284.94, -2570.82, -2184.99, 0.000, 0.000, 0.000, 14:13:40.989
147, -1787.37, -1989.59, -2329.74, -1949.80, 0.000, 0.000, 0.000, 14:13:41.004
148, -1628.33, -1830.15, -2199.19, -1841.54, 0.000, 0.000, 0.000, 14:13:41.004
149, -1982.84, -2238.55, -2541.15, -2156.33, 0.000, 0.000, 0.000, 14:13:41.004
150, -2044.61, -2292.03, -2565.03, -2161.85, 0.000, 0.000, 0.000, 14:13:41.004
151, -1802.36, -1998.87, -2325.88, -1958.53, 0.000, 0.000, 0.000, 14:13:41.018
152, -1628.18, -1833.26, -2198.95, -1847.51, 0.000, 0.000, 0.000, 14:13:41.018
153, -1985.52, -2248.31, -2545.59, -2148.86, 0.000, 0.000, 0.000, 14:13:41.033
154, -2037.29, -2298.43, -2557.66, -2163.01, 0.000, 0.000, 0.000, 14:13:41.033
155, -1799.92, -1991.36, -2327.08, -1958.91, 0.000, 0.000, 0.000, 14:13:41.034
156, -1623.58, -1809.13, -2192.69, -1836.34, 0.000, 0.000, 0.000, 14:13:41.034
157, -1958.27, -2194.68, -2523.50, -2140.57, 0.000, 0.000, 0.000, 14:13:41.049
158, -2031.73, -2259.32, -2548.64, -2164.92, 0.000, 0.000, 0.000, 14:13:41.049
159, -1793.87, -1989.72, -2323.13, -1955.43, 0.000, 0.000, 0.000, 14:13:41.064
160, -1635.70, -1833.52, -2210.98, -1849.98, 0.000, 0.000, 0.000, 14:13:41.064
161, -1967.49, -2214.67, -2521.21, -2141.80, 0.000, 0.000, 0.000, 14:13:41.064
162, -2040.41, -2279.55, -2560.01, -2174.16, 0.000, 0.000, 0.000, 14:13:41.064
163, -1793.98, -1996.77, -2328.18, -1959.27, 0.000, 0.000, 0.000, 14:13:41.080
164, -1624.92, -1827.49, -2195.08, -1848.31, 0.000, 0.000, 0.000, 14:13:41.080
165, -1983.91, -2234.44, -2538.41, -2156.28, 0.000, 0.000, 0.000, 14:13:41.094
166, -2048.47, -2285.08, -2561.96, -2187.32, 0.000, 0.000, 0.000, 14:13:41.096
167, -1805.93, -2015.82, -2328.27, -1965.67, 0.000, 0.000, 0.000, 14:13:41.096
168, -1634.38, -1848.33, -2207.85, -1855.71, 0.000, 0.000, 0.000, 14:13:41.097
169, -1968.98, -2237.65, -2531.75, -2148.65, 0.000, 0.000, 0.000, 14:13:41.109
170, -2053.93, -2294.84, -2576.36, -2180.76, 0.000, 0.000, 0.000, 14:13:41.109
171, -1805.44, -2021.15, -2341.37, -1965.55, 0.000, 0.000, 0.000, 14:13:41.123
172, -1632.33, -1845.38, -2207.24, -1843.16, 0.000, 0.000, 0.000, 14:13:41.124
173, -1982.45, -2251.72, -2546.39, -2159.37, 0.000, 0.000, 0.000, 14:13:41.124
174, -2041.22, -2297.34, -2568.75, -2178.08, 0.000, 0.000, 0.000, 14:13:41.124
175, -1802.56, -2023.09, -2336.04, -1964.20, 0.000, 0.000, 0.000, 14:13:41.139
176, -1632.84, -1852.73, -2212.72, -1844.42, 0.000, 0.000, 0.000, 14:13:41.139
177, -1979.54, -2254.03, -2542.71, -2145.97, 0.000, 0.000, 0.000, 14:13:41.154
178, -2038.79, -2303.15, -2565.92, -2179.30, 0.000, 0.000, 0.000, 14:13:41.154
179, -1794.40, -2023.90, -2327.05, -1963.81, 0.000, 0.000, 0.000, 14:13:41.154
180, -1631.55, -1857.65, -2211.05, -1853.46, 0.000, 0.000, 0.000, 14:13:41.154
181, -1982.64, -2255.83, -2542.57, -2155.79, 0.000, 0.000, 0.000, 14:13:41.169
182, -2037.38, -2299.29, -2560.18, -2181.18, 0.000, 0.000, 0.000, 14:13:41.169
183, -1795.32, -2015.77, -2327.50, -1956.93, 0.000, 0.000, 0.000, 14:13:41.184
184, -1640.28, -1859.55, -2216.03, -1857.05, 0.000, 0.000, 0.000, 14:13:41.184
185, -1989.26, -2266.65, -2546.88, -2163.78, 0.000, 0.000, 0.000, 14:13:41.184
186, -2048.69, -2309.48, -2565.46, -2183.56, 0.000, 0.000, 0.000, 14:13:41.184
187, -1800.79, -2018.17, -2327.40, -1967.71, 0.000, 0.000, 0.000, 14:13:41.213
188, -1635.04, -1859.74, -2205.85, -1850.95, 0.000, 0.000, 0.000, 14:13:41.213
189, -1991.96, -2269.48, -2552.40, -2168.58, 0.000, 0.000, 0.000, 14:13:41.214
190, -2046.94, -2304.90, -2570.19, -2190.03, 0.000, 0.000, 0.000, 14:13:41.214
191, -1798.59, -2008.92, -2328.05, -1964.81, 0.000, 0.000, 0.000, 14:13:41.215
192, -1628.14, -1842.13, -2204.14, -1842.07, 0.000, 0.000, 0.000, 14:13:41.215
193, -1998.50, -2266.45, -2557.89, -2162.77, 0.000, 0.000, 0.000, 14:13:41.229
194, -2056.34, -2311.08, -2575.86, -2187.46, 0.000, 0.000, 0.000, 14:13:41.230
195, -1795.60, -2010.05, -2333.64, -1950.54, 0.000, 0.000, 0.000, 14:13:41.245
196, -1625.02, -1841.68, -2197.97, -1857.76, 0.000, 0.000, 0.000, 14:13:41.245
197, -2002.25, -2267.32, -2559.83, -2167.48, 0.000, 0.000, 0.000, 14:13:41.245
198, -2063.25, -2312.32, -2589.46, -2181.00, 0.000, 0.000, 0.000, 14:13:41.245
199, -1790.17, -2014.54, -2329.44, -1958.88, 0.000, 0.000, 0.000, 14:13:41.259
200, -1628.45, -1837.07, -2198.99, -1842.61, 0.000, 0.000, 0.000, 14:13:41.259
0, -2009.30, -2272.55, -2556.41, -2176.90, 0.000, 0.000, 0.000, 14:13:41.259
1, -2062.85, -2313.19, -2583.18, -2181.25, 0.000, 0.000, 0.000, 14:13:41.274
2, -1792.73, -2009.21, -2326.03, -1953.48, 0.000, 0.000, 0.000, 14:13:41.274
3, -1627.34, -1832.18, -2202.30, -1846.32, 0.000, 0.000, 0.000, 14:13:41.290
4, -1993.21, -2269.47, -2547.95, -2172.87, 0.000, 0.000, 0.000, 14:13:41.290
5, -2061.08, -2308.69, -2572.95, -2186.56, 0.000, 0.000, 0.000, 14:13:41.304
6, -1783.89, -2006.68, -2319.08, -1947.05, 0.000, 0.000, 0.000, 14:13:41.304
7, -1630.05, -1834.43, -2198.56, -1845.46, 0.000, 0.000, 0.000, 14:13:41.304
8, -2005.66, -2265.22, -2566.41, -2165.96, 0.000, 0.000, 0.000, 14:13:41.304
9, -2062.70, -2313.13, -2577.60, -2181.24, 0.000, 0.000, 0.000, 14:13:41.318
10, -1789.42, -2007.84, -2330.29, -1958.90, 0.000, 0.000, 0.000, 14:13:41.319
11, -1631.73, -1843.83, -2213.24, -1841.68, 0.000, 0.000, 0.000, 14:13:41.319
12, -2002.85, -2273.64, -2561.85, -2171.95, 0.000, 0.000, 0.000, 14:13:41.319
13, -2058.33, -2301.11, -2574.00, -2176.04, 0.000, 0.000, 0.000, 14:13:41.349
14, -1796.21, -2012.39, -2338.60, -1957.77, 0.000, 0.000, 0.000, 14:13:41.349
15, -1634.68, -1851.09, -2214.47, -1834.63, 0.000, 0.000, 0.000, 14:13:41.349
16, -2014.00, -2278.20, -2577.80, -2169.91, 0.000, 0.000, 0.000, 14:13:41.349
17, -2059.76, -2313.56, -2575.76, -2184.23, 0.000, 0.000, 0.000, 14:13:41.350
18, -1791.20, -2007.31, -2326.37, -1951.09, 0.000, 0.000, 0.000, 14:13:41.350
19, -1622.44, -1830.40, -2197.36, -1838.45, 0.000, 0.000, 0.000, 14:13:41.363
20, -2005.53, -2272.34, -2566.42, -2171.22, 0.000, 0.000, 0.000, 14:13:41.364
21, -2051.36, -2304.30, -2581.73, -2177.98, 0.000, 0.000, 0.000, 14:13:41.379
22, -1794.68, -2013.23, -2330.79, -1950.91, 0.000, 0.000, 0.000, 14:13:41.379
23, -1628.75, -1844.66, -2205.17, -1837.83, 0.000, 0.000, 0.000, 14:13:41.379
24, -2008.41, -2280.30, -2563.45, -2178.65, 0.000, 0.000, 0.000, 14:13:41.379
25, -2057.19, -2312.90, -2577.30, -2180.67, 0.000, 0.000, 0.000, 14:13:41.393
26, -1787.04, -1999.09, -2325.12, -1947.47, 0.000, 0.000, 0.000, 14:13:41.393
27, -1620.03, -1827.18, -2198.61, -1833.95, 0.000, 0.000, 0.000, 14:13:41.409
28, -2004.74, -2268.87, -2560.27, -2173.66, 0.000, 0.000, 0.000, 14:13:41.409
29, -2058.23, -2301.69, -2577.25, -2179.33, 0.000, 0.000, 0.000, 14:13:41.416
30, -1794.51, -1999.24, -2322.06, -1947.88, 0.000, 0.000, 0.000, 14:13:41.416
31, -1627.61, -1839.12, -2208.64, -1846.14, 0.000, 0.000, 0.000, 14:13:41.424
32, -2010.68, -2276.37, -2568.78, -2175.30, 0.000, 0.000, 0.000, 14:13:41.424
33, -2053.86, -2304.11, -2577.95, -2175.14, 0.000, 0.000, 0.000, 14:13:41.438
34, -1783.23, -1994.51, -2314.56, -1938.45, 0.000, 0.000, 0.000, 14:13:41.438
35, -1616.34, -1833.41, -2205.19, -1827.32, 0.000, 0.000, 0.000, 14:13:41.439
36, -2001.85, -2275.13, -2568.27, -2170.52, 0.000, 0.000, 0.000, 14:13:41.439
37, -2054.67, -2298.67, -2575.31, -2182.84, 0.000, 0.000, 0.000, 14:13:41.468
38, -1779.07, -1994.32, -2313.39, -1934.37, 0.000, 0.000, 0.000, 14:13:41.468
39, -1621.96, -1829.15, -2193.34, -1829.78, 0.000, 0.000, 0.000, 14:13:41.469
40, -2006.73, -2272.75, -2562.67, -2183.25, 0.000, 0.000, 0.000, 14:13:41.469
41, -2054.10, -2308.30, -2568.31, -2184.57, 0.000, 0.000, 0.000, 14:13:41.469
42, -1787.28, -2004.03, -2318.52, -1955.27, 0.000, 0.000, 0.000, 14:13:41.469
43, -1634.05, -1838.10, -2204.40, -1850.30, 0.000, 0.000, 0.000, 14:13:41.483
44, -2024.49, -2277.29, -2572.21, -2175.39, 0.000, 0.000, 0.000, 14:13:41.483
45, -2073.88, -2310.97, -2574.65, -2188.47, 0.000, 0.000, 0.000, 14:13:41.499
46, -1808.27, -2009.96, -2328.44, -1963.08, 0.000, 0.000, 0.000, 14:13:41.499
47, -1644.93, -1848.64, -2207.05, -1846.59, 0.000, 0.000, 0.000, 14:13:41.514
48, -2021.25, -2282.35, -2570.98, -2187.65, 0.000, 0.000, 0.000, 14:13:41.514
49, -2070.79, -2313.73, -2583.64, -2183.57, 0.000, 0.000, 0.000, 14:13:41.515
50, -1795.29, -2004.64, -2323.24, -1947.97, 0.000, 0.000, 0.000, 14:13:41.515
51, -1630.01, -1843.59, -2206.31, -1851.42, 0.000, 0.000, 0.000, 14:13:41.529
52, -2015.50, -2278.56, -2570.97, -2176.37, 0.000, 0.000, 0.000, 14:13:41.529
53, -2062.45, -2308.23, -2577.02, -2186.87, 0.000, 0.000, 0.000, 14:13:41.529
54, -1787.28, -1993.30, -2317.76, -1943.81, 0.000, 0.000, 0.000, 14:13:41.529
55, -1630.22, -1838.17, -2204.07, -1843.38, 0.000, 0.000, 0.000, 14:13:41.544
56, -2016.98, -2281.68, -2569.26, -2180.50, 0.000, 0.000, 0.000, 14:13:41.544
57, -2062.01, -2310.46, -2572.69, -2186.40, 0.000, 0.000, 0.000, 14:13:41.558
58, -1783.42, -1988.07, -2315.85, -1946.69, 0.000, 0.000, 0.000, 14:13:41.559
59, -1623.74, -1836.07, -2202.01, -1844.37, 0.000, 0.000, 0.000, 14:13:41.559
60, -2024.20, -2288.21, -2581.06, -2179.18, 0.000, 0.000, 0.000, 14:13:41.559
61, -2052.97, -2296.82, -2572.76, -2183.31, 0.000, 0.000, 0.000, 14:13:41.574
62, -1760.57, -1967.80, -2302.82, -1916.88, 0.000, 0.000, 0.000, 14:13:41.574
63, -1578.31, -1791.56, -2174.20, -1818.13, 0.000, 0.000, 0.000, 14:13:41.589
64, -1931.77, -2196.22, -2512.17, -2132.50, 0.000, 0.000, 0.000, 14:13:41.589
65, -1915.73, -2159.03, -2480.89, -2103.85, 0.000, 0.000, 0.000, 14:13:41.589
66, -1590.61, -1802.64, -2188.67, -1839.31, 0.000, 0.000, 0.000, 14:13:41.589
67, -1406.11, -1620.57, -2050.77, -1726.18, 0.000, 0.000, 0.000, 14:13:41.603
68, -1786.24, -2044.77, -2406.62, -2045.58, 0.000, 0.000, 0.000, 14:13:41.603
69, -1830.55, -2071.32, -2410.16, -2058.48, 0.000, 0.000, 0.000, 14:13:41.619
70, -1562.88, -1758.48, -2157.34, -1830.29, 0.000, 0.000, 0.000, 14:13:41.619
71, -1422.81, -1613.18, -2050.93, -1730.26, 0.000, 0.000, 0.000, 14:13:41.619
72, -1821.84, -2072.23, -2432.81, -2072.62, 0.000, 0.000, 0.000, 14:13:41.619
73, -1872.35, -2103.14, -2437.97, -2078.03, 0.000, 0.000, 0.000, 14:13:41.633
74, -1600.70, -1806.95, -2188.16, -1846.39, 0.000, 0.000, 0.000, 14:13:41.633
75, -1464.65, -1662.91, -2090.42, -1745.86, 0.000, 0.000, 0.000, 14:13:41.649
76, -1861.05, -2117.58, -2460.01, -2103.21, 0.000, 0.000, 0.000, 14:13:41.649
77, -1904.81, -2144.25, -2461.29, -2102.53, 0.000, 0.000, 0.000, 14:13:41.649
78, -1631.94, -1837.26, -2202.90, -1855.39, 0.000, 0.000, 0.000, 14:13:41.649
79, -1498.94, -1699.33, -2112.68, -1771.18, 0.000, 0.000, 0.000, 14:13:41.664
80, -1890.09, -2146.41, -2478.72, -2116.66, 0.000, 0.000, 0.000, 14:13:41.664
81, -1936.11, -2169.03, -2477.77, -2115.01, 0.000, 0.000, 0.000, 14:13:41.679
82, -1662.21, -1854.62, -2224.48, -1873.12, 0.000, 0.000, 0.000, 14:13:41.679
83, -1525.74, -1732.24, -2127.21, -1794.08, 0.000, 0.000, 0.000, 14:13:41.679
84, -1918.47, -2174.19, -2500.24, -2117.76, 0.000, 0.000, 0.000, 14:13:41.679
85, -1953.13, -2187.66, -2496.58, -2116.68, 0.000, 0.000, 0.000, 14:13:41.695
86, -1685.65, -1883.28, -2240.11, -1893.71, 0.000, 0.000, 0.000, 14:13:41.695
87, -1555.05, -1750.30, -2151.70, -1806.90, 0.000, 0.000, 0.000, 14:13:41.709
88, -1952.68, -2209.18, -2522.02, -2140.04, 0.000, 0.000, 0.000, 14:13:41.709
89, -1985.29, -2225.60, -2521.26, -2135.86, 0.000, 0.000, 0.000, 14:13:41.710
90, -1721.85, -1931.01, -2268.80, -1913.94, 0.000, 0.000, 0.000, 14:13:41.710
91, -1596.75, -1806.69, -2191.10, -1836.94, 0.000, 0.000, 0.000, 14:13:41.724
92, -1998.28, -2265.47, -2549.07, -2168.90, 0.000, 0.000, 0.000, 14:13:41.724
93, -2033.40, -2276.41, -2546.24, -2168.92, 0.000, 0.000, 0.000, 14:13:41.739
94, -1768.03, -1972.39, -2307.08, -1926.14, 0.000, 0.000, 0.000, 14:13:41.739
95, -1638.48, -1849.37, -2213.10, -1848.97, 0.000, 0.000, 0.000, 14:13:41.740
96, -2016.63, -2277.85, -2566.89, -2177.95, 0.000, 0.000, 0.000, 14:13:41.740
97, -2045.47, -2292.66, -2569.57, -2178.72, 0.000, 0.000, 0.000, 14:13:41.769
98, -1765.19, -1975.21, -2305.27, -1930.13, 0.000, 0.000, 0.000, 14:13:41.769
99, -1626.54, -1832.06, -2208.19, -1842.04, 0.000, 0.000, 0.000, 14:13:41.769
100, -2004.68, -2256.23, -2560.99, -2178.11, 0.000, 0.000, 0.000, 14:13:41.769
101, -2031.75, -2271.28, -2557.28, -2167.02, 0.000, 0.000, 0.000, 14:13:41.770
102, -1745.83, -1959.12, -2299.20, -1916.65, 0.000, 0.000, 0.000, 14:13:41.770
103, -1609.06, -1826.94, -2198.66, -1844.74, 0.000, 0.000, 0.000, 14:13:41.790
104, -1997.11, -2265.75, -2564.87, -2177.50, 0.000, 0.000, 0.000, 14:13:41.790
105, -2022.40, -2271.07, -2557.80, -2160.52, 0.000, 0.000, 0.000, 14:13:41.799
106, -1745.96, -1964.26, -2296.37, -1928.27, 0.000, 0.000, 0.000, 14:13:41.799
107, -1614.02, -1833.18, -2205.11, -1850.06, 0.000, 0.000, 0.000, 14:13:41.800
108, -2008.16, -2276.21, -2565.42, -2175.88, 0.000, 0.000, 0.000, 14:13:41.800
109, -2027.64, -2275.02, -2557.46, -2167.50, 0.000, 0.000, 0.000, 14:13:41.814
110, -1747.17, -1958.22, -2288.24, -1925.80, 0.000, 0.000, 0.000, 14:13:41.814
111, -1625.97, -1835.20, -2206.05, -1849.93, 0.000, 0.000, 0.000, 14:13:41.829
112, -2022.80, -2288.79, -2570.47, -2189.33, 0.000, 0.000, 0.000, 14:13:41.829
113, -2052.04, -2299.91, -2564.00, -2180.80, 0.000, 0.000, 0.000, 14:13:41.829
114, -1784.81, -2002.29, -2315.66, -1942.17, 0.000, 0.000, 0.000, 14:13:41.829
115, -1678.31, -1890.41, -2235.13, -1878.96, 0.000, 0.000, 0.000, 14:13:41.845
116, -2087.78, -2354.75, -2618.78, -2229.77, 0.000, 0.000, 0.000, 14:13:41.845
117, -2115.26, -2382.91, -2618.00, -2216.70, 0.000, 0.000, 0.000, 14:13:41.859
118, -1850.37, -2060.29, -2356.59, -1974.61, 0.000, 0.000, 0.000, 14:13:41.860
119, -1723.84, -1927.00, -2274.20, -1898.18, 0.000, 0.000, 0.000, 14:13:41.860
120, -2117.76, -2388.53, -2641.82, -2241.11, 0.000, 0.000, 0.000, 14:13:41.860
121, -2138.24, -2391.66, -2630.44, -2225.93, 0.000, 0.000, 0.000, 14:13:41.873
122, -1867.62, -2073.90, -2368.68, -1982.88, 0.000, 0.000, 0.000, 14:13:41.873
123, -1746.61, -1956.92, -2292.44, -1918.00, 0.000, 0.000, 0.000, 14:13:41.888
124, -2138.44, -2402.03, -2652.55, -2251.52, 0.000, 0.000, 0.000, 14:13:41.888
125, -2161.34, -2404.84, -2638.51, -2233.05, 0.000, 0.000, 0.000, 14:13:41.889
126, -1881.65, -2089.16, -2375.93, -1991.36, 0.000, 0.000, 0.000, 14:13:41.889
127, -1754.24, -1971.73, -2289.69, -1915.85, 0.000, 0.000, 0.000, 14:13:41.904
128, -2147.14, -2417.10, -2658.74, -2261.85, 0.000, 0.000, 0.000, 14:13:41.904
129, -2170.56, -2413.68, -2642.08, -2238.60, 0.000, 0.000, 0.000, 14:13:41.919
130, -1889.02, -2105.08, -2379.14, -1994.68, 0.000, 0.000, 0.000, 14:13:41.919
131, -1758.19, -1981.84, -2305.18, -1922.16, 0.000, 0.000, 0.000, 14:13:41.919
132, -2153.78, -2433.98, -2665.24, -2264.31, 0.000, 0.000, 0.000, 14:13:41.920
133, -2162.83, -2417.26, -2641.67, -2240.50, 0.000, 0.000, 0.000, 14:13:41.933
134, -1892.99, -2107.26, -2387.22, -1996.70, 0.000, 0.000, 0.000, 14:13:41.933
135, -1769.86, -2000.00, -2307.04, -1929.96, 0.000, 0.000, 0.000, 14:13:41.949
136, -2152.42, -2433.23, -2672.81, -2258.83, 0.000, 0.000, 0.000, 14:13:41.949
137, -2164.79, -2429.02, -2647.36, -2233.80, 0.000, 0.000, 0.000, 14:13:41.949
138, -1868.00, -2083.23, -2372.05, -1987.09, 0.000, 0.000, 0.000, 14:13:41.949
139, -1750.46, -1962.69, -2301.22, -1916.20, 0.000, 0.000, 0.000, 14:13:41.965
140, -2139.87, -2412.51, -2661.52, -2256.73, 0.000, 0.000, 0.000, 14:13:41.965
141, -2153.83, -2410.36, -2640.07, -2238.25, 0.000, 0.000, 0.000, 14:13:41.994
142, -1853.60, -2066.87, -2366.56, -1975.15, 0.000, 0.000, 0.000, 14:13:41.995
143, -1728.42, -1947.02, -2278.90, -1904.74, 0.000, 0.000, 0.000, 14:13:41.995
144, -2121.45, -2393.90, -2648.46, -2238.25, 0.000, 0.000, 0.000, 14:13:41.995
145, -2115.70, -2376.29, -2618.05, -2208.75, 0.000, 0.000, 0.000, 14:13:41.996
146, -1826.54, -2039.03, -2334.34, -1961.63, 0.000, 0.000, 0.000, 14:13:41.996
147, -1701.46, -1918.41, -2262.60, -1890.78, 0.000, 0.000, 0.000, 14:13:41.996
148, -2099.15, -2372.17, -2626.56, -2226.77, 0.000, 0.000, 0.000, 14:13:41.996
149, -2094.28, -2353.92, -2600.35, -2197.56, 0.000, 0.000, 0.000, 14:13:42.009
150, -1810.86, -2026.53, -2334.87, -1945.22, 0.000, 0.000, 0.000, 14:13:42.009
151, -1679.13, -1904.96, -2244.93, -1878.83, 0.000, 0.000, 0.000, 14:13:42.023
152, -2074.47, -2353.82, -2617.95, -2219.32, 0.000, 0.000, 0.000, 14:13:42.023
153, -2076.82, -2332.41, -2589.70, -2189.32, 0.000, 0.000, 0.000, 14:13:42.038
154, -1789.84, -2005.71, -2321.13, -1944.90, 0.000, 0.000, 0.000, 14:13:42.038
155, -1665.16, -1888.89, -2241.93, -1874.28, 0.000, 0.000, 0.000, 14:13:42.039
156, -2060.16, -2327.44, -2605.90, -2210.84, 0.000, 0.000, 0.000, 14:13:42.039
157, -2070.90, -2315.78, -2581.51, -2188.46, 0.000, 0.000, 0.000, 14:13:42.069
158, -1778.86, -1987.09, -2306.75, -1938.60, 0.000, 0.000, 0.000, 14:13:42.069
159, -1662.12, -1876.21, -2229.51, -1856.84, 0.000, 0.000, 0.000, 14:13:42.069
160, -2059.51, -2330.08, -2606.63, -2206.51, 0.000, 0.000, 0.000, 14:13:42.070
161, -2052.91, -2311.60, -2572.12, -2180.12, 0.000, 0.000, 0.000, 14:13:42.070
162, -1772.55, -1979.73, -2298.41, -1932.70, 0.000, 0.000, 0.000, 14:13:42.070
163, -1656.96, -1869.12, -2230.35, -1864.55, 0.000, 0.000, 0.000, 14:13:42.084
164, -2048.06, -2313.64, -2598.57, -2204.45, 0.000, 0.000, 0.000, 14:13:42.084
165, -2059.67, -2302.49, -2571.46, -2179.08, 0.000, 0.000, 0.000, 14:13:42.099
166, -1776.62, -1981.14, -2308.67, -1927.01, 0.000, 0.000, 0.000, 14:13:42.099
167, -1667.37, -1877.34, -2231.93, -1872.13, 0.000, 0.000, 0.000, 14:13:42.100
168, -2053.82, -2324.40, -2601.61, -2202.26, 0.000, 0.000, 0.000, 14:13:42.100
169, -2058.52, -2300.32, -2562.57, -2180.18, 0.000, 0.000, 0.000, 14:13:42.114
170, -1776.56, -1983.72, -2306.34, -1929.94, 0.000, 0.000, 0.000, 14:13:42.114
171, -1663.27, -1875.85, -2235.90, -1864.92, 0.000, 0.000, 0.000, 14:13:42.129
172, -2052.38, -2318.94, -2601.36, -2196.21, 0.000, 0.000, 0.000, 14:13:42.129
173, -2058.26, -2303.44, -2574.16, -2178.28, 0.000, 0.000, 0.000, 14:13:42.130
174, -1772.51, -1986.31, -2308.31, -1920.91, 0.000, 0.000, 0.000, 14:13:42.130
175, -1665.43, -1885.91, -2243.76, -1878.36, 0.000, 0.000, 0.000, 14:13:42.159
176, -2056.34, -2331.36, -2610.01, -2201.79, 0.000, 0.000, 0.000, 14:13:42.159
177, -2044.88, -2293.52, -2564.85, -2178.55, 0.000, 0.000, 0.000, 14:13:42.159
178, -1747.73, -1961.90, -2284.73, -1919.85, 0.000, 0.000, 0.000, 14:13:42.159
179, -1654.60, -1868.25, -2227.94, -1867.66, 0.000, 0.000, 0.000, 14:13:42.161
180, -2040.18, -2308.89, -2582.89, -2201.23, 0.000, 0.000, 0.000, 14:13:42.161
181, -2042.19, -2297.47, -2565.22, -2175.74, 0.000, 0.000, 0.000, 14:13:42.174
182, -1761.59, -1975.31, -2294.19, -1933.81, 0.000, 0.000, 0.000, 14:13:42.174
183, -1656.57, -1871.63, -2232.83, -1871.11, 0.000, 0.000, 0.000, 14:13:42.188
184, -2033.05, -2309.52, -2594.30, -2200.66, 0.000, 0.000, 0.000, 14:13:42.188
185, -2046.13, -2297.64, -2562.87, -2172.00, 0.000, 0.000, 0.000, 14:13:42.189
186, -1761.89, -1973.79, -2293.93, -1915.90, 0.000, 0.000, 0.000, 14:13:42.189
187, -1653.46, -1877.90, -2231.82, -1867.69, 0.000, 0.000, 0.000, 14:13:42.203
188, -2045.35, -2322.05, -2601.58, -2207.91, 0.000, 0.000, 0.000, 14:13:42.203
189, -2042.13, -2299.81, -2565.64, -2173.92, 0.000, 0.000, 0.000, 14:13:42.219
190, -1751.74, -1976.31, -2297.41, -1930.78, 0.000, 0.000, 0.000, 14:13:42.219
191, -1642.41, -1870.08, -2226.86, -1864.84, 0.000, 0.000, 0.000, 14:13:42.219
192, -2034.85, -2308.21, -2590.60, -2196.60, 0.000, 0.000, 0.000, 14:13:42.220
193, -2035.42, -2289.17, -2561.31, -2164.20, 0.000, 0.000, 0.000, 14:13:42.234
194, -1746.43, -1969.86, -2288.51, -1924.84, 0.000, 0.000, 0.000, 14:13:42.234
195, -1645.97, -1863.81, -2232.23, -1863.61, 0.000, 0.000, 0.000, 14:13:42.264
196, -2051.39, -2311.49, -2600.94, -2214.96, 0.000, 0.000, 0.000, 14:13:42.264
197, -2035.72, -2299.79, -2552.34, -2172.62, 0.000, 0.000, 0.000, 14:13:42.264
198, -1743.19, -1957.28, -2284.96, -1918.96, 0.000, 0.000, 0.000, 14:13:42.264
199, -1657.36, -1878.14, -2233.37, -1866.74, 0.000, 0.000, 0.000, 14:13:42.266
200, -2051.38, -2319.03, -2596.46, -2214.38, 0.000, 0.000, 0.000, 14:13:42.266
0, -2049.75, -2299.46, -2563.94, -2175.31, 0.000, 0.000, 0.000, 14:13:42.280
1, -1764.65, -1970.58, -2293.13, -1924.48, 0.000, 0.000, 0.000, 14:13:42.294
2, -1658.53, -1874.81, -2229.91, -1865.28, 0.000, 0.000, 0.000, 14:13:42.295
3, -2053.40, -2315.63, -2597.58, -2193.07, 0.000, 0.000, 0.000, 14:13:42.295
4, -2048.81, -2293.88, -2560.28, -2171.77, 0.000, 0.000, 0.000, 14:13:42.295
5, -1761.28, -1962.07, -2292.10, -1912.10, 0.000, 0.000, 0.000, 14:13:42.295
6, -1661.47, -1867.93, -2240.66, -1861.97, 0.000, 0.000, 0.000, 14:13:42.295
7, -2057.97, -2315.81, -2600.95, -2215.72, 0.000, 0.000, 0.000, 14:13:42.309
8, -2051.82, -2301.65, -2572.26, -2167.65, 0.000, 0.000, 0.000, 14:13:42.309
9, -1779.46, -2000.70, -2314.65, -1930.86, 0.000, 0.000, 0.000, 14:13:42.324
10, -1703.70, -1923.49, -2268.11, -1894.38, 0.000, 0.000, 0.000, 14:13:42.324
11, -2040.83, -2309.32, -2578.21, -2220.05, 0.000, 0.000, 0.000, 14:13:42.324
12, -2020.61, -2279.33, -2521.22, -2182.46, 0.000, 0.000, 0.000, 14:13:42.324
13, -1720.59, -1924.69, -2234.19, -1939.41, 0.000, 0.000, 0.000, 14:13:42.338
14, -1611.20, -1827.59, -2156.85, -1896.91, 0.000, 0.000, 0.000, 14:13:42.339
15, -2010.86, -2274.76, -2514.85, -2243.34, 0.000, 0.000, 0.000, 14:13:42.354
16, -2007.50, -2239.60, -2468.59, -2228.28, 0.000, 0.000, 0.000, 14:13:42.354
17, -1717.77, -1912.58, -2189.06, -1982.76, 0.000, 0.000, 0.000, 14:13:42.355
18, -1626.56, -1818.89, -2136.49, -1945.59, 0.000, 0.000, 0.000, 14:13:42.355
19, -2028.64, -2272.99, -2494.41, -2276.21, 0.000, 0.000, 0.000, 14:13:42.369
20, -2015.10, -2230.50, -2443.64, -2255.46, 0.000, 0.000, 0.000, 14:13:42.369
21, -1733.05, -1902.47, -2172.21, -2001.18, 0.000, 0.000, 0.000, 14:13:42.383
22, -1629.01, -1815.59, -2110.34, -1952.89, 0.000, 0.000, 0.000, 14:13:42.384
23, -2034.90, -2261.23, -2485.12, -2299.00, 0.000, 0.000, 0.000, 14:13:42.384
24, -2022.04, -2221.33, -2431.61, -2246.73, 0.000, 0.000, 0.000, 14:13:42.384
25, -1736.54, -1904.47, -2167.74, -2011.23, 0.000, 0.000, 0.000, 14:13:42.414
26, -1650.73, -1834.86, -2117.01, -1955.22, 0.000, 0.000, 0.000, 14:13:42.414
27, -2040.43, -2271.03, -2486.45, -2292.88, 0.000, 0.000, 0.000, 14:13:42.415
28, -2034.58, -2239.25, -2453.07, -2241.62, 0.000, 0.000, 0.000, 14:13:42.415
29, -1743.84, -1925.27, -2192.11, -1992.57, 0.000, 0.000, 0.000, 14:13:42.416
30, -1658.83, -1845.48, -2151.23, -1938.67, 0.000, 0.000, 0.000, 14:13:42.416
31, -2049.90, -2297.69, -2516.92, -2277.90, 0.000, 0.000, 0.000, 14:13:42.429
32, -2041.87, -2262.65, -2488.58, -2218.21, 0.000, 0.000, 0.000, 14:13:42.429
33, -1746.51, -1922.21, -2215.90, -1955.94, 0.000, 0.000, 0.000, 14:13:42.444
34, -1665.15, -1855.37, -2180.57, -1907.11, 0.000, 0.000, 0.000, 14:13:42.444
35, -2074.78, -2305.15, -2560.08, -2243.55, 0.000, 0.000, 0.000, 14:13:42.445
36, -2041.19, -2261.26, -2506.42, -2195.16, 0.000, 0.000, 0.000, 14:13:42.445
37, -1748.02, -1931.18, -2237.97, -1945.42, 0.000, 0.000, 0.000, 14:13:42.459
38, -1667.47, -1869.74, -2199.10, -1903.86, 0.000, 0.000, 0.000, 14:13:42.459
39, -2067.86, -2323.43, -2573.20, -2232.85, 0.000, 0.000, 0.000, 14:13:42.474
40, -2049.09, -2283.19, -2523.47, -2183.62, 0.000, 0.000, 0.000, 14:13:42.474
41, -1746.16, -1946.57, -2249.53, -1931.29, 0.000, 0.000, 0.000, 14:13:42.474
42, -1672.97, -1871.42, -2217.87, -1898.37, 0.000, 0.000, 0.000, 14:13:42.474
43, -2059.10, -2313.95, -2578.27, -2231.88, 0.000, 0.000, 0.000, 14:13:42.489
44, -2040.57, -2279.92, -2531.67, -2177.55, 0.000, 0.000, 0.000, 14:13:42.489
45, -1743.18, -1942.39, -2254.50, -1925.46, 0.000, 0.000, 0.000, 14:13:42.503
46, -1657.56, -1871.85, -2219.91, -1878.41, 0.000, 0.000, 0.000, 14:13:42.503
47, -2064.18, -2327.05, -2596.98, -2228.44, 0.000, 0.000, 0.000, 14:13:42.504
48, -2039.51, -2280.62, -2540.24, -2185.65, 0.000, 0.000, 0.000, 14:13:42.504
49, -1749.36, -1950.98, -2270.57, -1915.06, 0.000, 0.000, 0.000, 14:13:42.519
50, -1662.67, -1871.04, -2227.94, -1883.02, 0.000, 0.000, 0.000, 14:13:42.519
51, -2058.08, -2330.44, -2595.72, -2218.85, 0.000, 0.000, 0.000, 14:13:42.533
52, -2042.99, -2280.58, -2538.90, -2171.75, 0.000, 0.000, 0.000, 14:13:42.534
53, -1742.24, -1951.51, -2265.36, -1910.31, 0.000, 0.000, 0.000, 14:13:42.535
54, -1672.33, -1883.25, -2228.85, -1884.63, 0.000, 0.000, 0.000, 14:13:42.535
55, -2069.30, -2329.38, -2599.99, -2224.21, 0.000, 0.000, 0.000, 14:13:42.548
56, -2035.83, -2284.02, -2545.52, -2169.85, 0.000, 0.000, 0.000, 14:13:42.548
57, -1742.96, -1951.43, -2268.52, -1913.69, 0.000, 0.000, 0.000, 14:13:42.579
58, -1657.33, -1883.68, -2229.67, -1879.76, 0.000, 0.000, 0.000, 14:13:42.579
59, -2057.62, -2329.96, -2597.41, -2214.59, 0.000, 0.000, 0.000, 14:13:42.580
60, -2039.59, -2287.87, -2540.17, -2164.63, 0.000, 0.000, 0.000, 14:13:42.580
61, -1743.13, -1945.39, -2269.81, -1917.66, 0.000, 0.000, 0.000, 14:13:42.580
62, -1667.51, -1879.05, -2235.62, -1884.45, 0.000, 0.000, 0.000, 14:13:42.580
63, -2068.26, -2339.06, -2604.83, -2222.99, 0.000, 0.000, 0.000, 14:13:42.580
64, -2047.53, -2288.93, -2550.53, -2169.98, 0.000, 0.000, 0.000, 14:13:42.580
65, -1740.92, -1942.91, -2270.61, -1906.46, 0.000, 0.000, 0.000, 14:13:42.593
66, -1672.13, -1889.80, -2233.89, -1881.49, 0.000, 0.000, 0.000, 14:13:42.594
67, -2067.22, -2327.03, -2601.47, -2216.77, 0.000, 0.000, 0.000, 14:13:42.609
68, -2035.42, -2282.76, -2545.62, -2157.46, 0.000, 0.000, 0.000, 14:13:42.609
69, -1726.17, -1937.19, -2262.17, -1901.19, 0.000, 0.000, 0.000, 14:13:42.623
70, -1660.37, -1877.02, -2233.40, -1876.83, 0.000, 0.000, 0.000, 14:13:42.623
71, -2063.82, -2331.00, -2608.76, -2221.11, 0.000, 0.000, 0.000, 14:13:42.624
72, -2033.36, -2278.55, -2544.74, -2167.17, 0.000, 0.000, 0.000, 14:13:42.624
73, -1734.90, -1942.71, -2258.88, -1902.95, 0.000, 0.000, 0.000, 14:13:42.638
74, -1669.60, -1890.24, -2239.42, -1881.89, 0.000, 0.000, 0.000, 14:13:42.638
75, -2070.31, -2335.66, -2605.86, -2220.67, 0.000, 0.000, 0.000, 14:13:42.653
76, -2044.85, -2283.87, -2543.26, -2168.51, 0.000, 0.000, 0.000, 14:13:42.653
77, -1743.98, -1946.40, -2268.74, -1910.18, 0.000, 0.000, 0.000, 14:13:42.654
78, -1665.44, -1884.10, -2234.06, -1879.90, 0.000, 0.000, 0.000, 14:13:42.654
79, -2066.02, -2328.25, -2607.21, -2225.34, 0.000, 0.000, 0.000, 14:13:42.668
80, -2045.33, -2285.80, -2556.86, -2172.22, 0.000, 0.000, 0.000, 14:13:42.668
81, -1738.91, -1942.25, -2264.22, -1915.55, 0.000, 0.000, 0.000, 14:13:42.683
82, -1672.45, -1888.64, -2240.16, -1885.12, 0.000, 0.000, 0.000, 14:13:42.683
83, -2072.41, -2341.30, -2608.75, -2219.23, 0.000, 0.000, 0.000, 14:13:42.684
84, -2029.85, -2273.30, -2542.17, -2162.29, 0.000, 0.000, 0.000, 14:13:42.684
85, -1737.35, -1940.25, -2270.93, -1913.92, 0.000, 0.000, 0.000, 14:13:42.699
86, -1659.07, -1878.65, -2231.97, -1876.90, 0.000, 0.000, 0.000, 14:13:42.699
87, -2065.67, -2336.57, -2600.85, -2221.60, 0.000, 0.000, 0.000, 14:13:42.714
88, -2034.42, -2278.01, -2537.65, -2168.94, 0.000, 0.000, 0.000, 14:13:42.714
89, -1728.09, -1934.76, -2261.41, -1906.31, 0.000, 0.000, 0.000, 14:13:42.715
90, -1663.42, -1883.70, -2233.10, -1880.83, 0.000, 0.000, 0.000, 14:13:42.716
91, -2064.99, -2332.61, -2601.91, -2222.28, 0.000, 0.000, 0.000, 14:13:42.730
92, -2023.69, -2263.57, -2540.33, -2165.58, 0.000, 0.000, 0.000, 14:13:42.730
93, -1730.43, -1932.19, -2265.56, -1910.95, 0.000, 0.000, 0.000, 14:13:42.744
94, -1663.17, -1883.66, -2237.73, -1881.79, 0.000, 0.000, 0.000, 14:13:42.744
95, -2063.32, -2323.88, -2594.24, -2222.33, 0.000, 0.000, 0.000, 14:13:42.745
96, -2032.94, -2267.19, -2535.72, -2160.53, 0.000, 0.000, 0.000, 14:13:42.745
97, -1731.23, -1935.73, -2262.10, -1907.40, 0.000, 0.000, 0.000, 14:13:42.759
98, -1677.09, -1891.86, -2241.47, -1888.09, 0.000, 0.000, 0.000, 14:13:42.759
99, -2077.86, -2333.94, -2606.54, -2219.73, 0.000, 0.000, 0.000, 14:13:42.773
100, -2035.54, -2277.57, -2536.23, -2156.38, 0.000, 0.000, 0.000, 14:13:42.773
101, -1734.71, -1940.58, -2264.96, -1903.88, 0.000, 0.000, 0.000, 14:13:42.774
102, -1667.82, -1895.37, -2239.95, -1889.05, 0.000, 0.000, 0.000, 14:13:42.774
103, -2064.88, -2338.31, -2605.86, -2225.71, 0.000, 0.000, 0.000, 14:13:42.789
104, -2032.94, -2273.69, -2539.19, -2159.80, 0.000, 0.000, 0.000, 14:13:42.789
105, -1728.22, -1937.23, -2256.66, -1904.25, 0.000, 0.000, 0.000, 14:13:42.804
106, -1671.42, -1890.94, -2243.70, -1894.62, 0.000, 0.000, 0.000, 14:13:42.804
107, -2061.93, -2332.95, -2600.94, -2223.53, 0.000, 0.000, 0.000, 14:13:42.804
108, -2031.86, -2280.06, -2545.17, -2161.52, 0.000, 0.000, 0.000, 14:13:42.804
109, -1722.88, -1936.27, -2262.74, -1898.92, 0.000, 0.000, 0.000, 14:13:42.819
110, -1677.81, -1898.89, -2248.98, -1892.56, 0.000, 0.000, 0.000, 14:13:42.819
111, -2078.04, -2350.86, -2612.94, -2224.61, 0.000, 0.000, 0.000, 14:13:42.834
112, -2040.59, -2275.78, -2542.06, -2153.43, 0.000, 0.000, 0.000, 14:13:42.834
113, -1727.57, -1927.46, -2259.44, -1909.57, 0.000, 0.000, 0.000, 14:13:42.834
114, -1665.68, -1888.15, -2247.03, -1889.20, 0.000, 0.000, 0.000, 14:13:42.834
115, -2069.08, -2342.61, -2619.12, -2225.84, 0.000, 0.000, 0.000, 14:13:42.849
116, -2024.79, -2271.06, -2537.44, -2156.82, 0.000, 0.000, 0.000, 14:13:42.849
117, -1730.16, -1936.13, -2265.07, -1903.25, 0.000, 0.000, 0.000, 14:13:42.864
118, -1666.57, -1898.77, -2246.97, -1883.25, 0.000, 0.000, 0.000, 14:13:42.864
119, -2066.10, -2334.62, -2608.10, -2219.06, 0.000, 0.000, 0.000, 14:13:42.865
120, -2023.70, -2260.90, -2536.73, -2149.14, 0.000, 0.000, 0.000, 14:13:42.865
121, -1720.82, -1927.48, -2260.63, -1900.28, 0.000, 0.000, 0.000, 14:13:42.879
122, -1671.10, -1889.09, -2244.85, -1889.24, 0.000, 0.000, 0.000, 14:13:42.880
123, -2069.41, -2337.48, -2599.82, -2225.65, 0.000, 0.000, 0.000, 14:13:42.894
124, -2018.41, -2263.13, -2534.32, -2160.88, 0.000, 0.000, 0.000, 14:13:42.894
125, -1730.77, -1930.80, -2257.39, -1892.60, 0.000, 0.000, 0.000, 14:13:42.894
126, -1678.10, -1895.47, -2247.46, -1886.28, 0.000, 0.000, 0.000, 14:13:42.895
127, -2078.06, -2342.39, -2614.33, -2228.99, 0.000, 0.000, 0.000, 14:13:42.909
128, -2030.78, -2273.89, -2545.30, -2159.31, 0.000, 0.000, 0.000, 14:13:42.909
129, -1724.74, -1933.03, -2262.84, -1897.15, 0.000, 0.000, 0.000, 14:13:42.924
130, -1675.89, -1892.82, -2253.14, -1897.45, 0.000, 0.000, 0.000, 14:13:42.924
131, -2081.07, -2334.07, -2608.53, -2224.56, 0.000, 0.000, 0.000, 14:13:42.924
132, -2039.28, -2275.78, -2540.16, -2155.15, 0.000, 0.000, 0.000, 14:13:42.924
133, -1727.75, -1937.64, -2258.31, -1900.53, 0.000, 0.000, 0.000, 14:13:42.939
134, -1678.81, -1899.66, -2252.44, -1893.74, 0.000, 0.000, 0.000, 14:13:42.939
135, -2084.27, -2347.75, -2623.43, -2239.80, 0.000, 0.000, 0.000, 14:13:42.953
136, -2037.92, -2272.07, -2547.06, -2160.57, 0.000, 0.000, 0.000, 14:13:42.954
137, -1724.90, -1933.65, -2263.93, -1896.75, 0.000, 0.000, 0.000, 14:13:42.954
138, -1679.04, -1890.30, -2251.06, -1886.69, 0.000, 0.000, 0.000, 14:13:42.954
139, -2082.61, -2349.43, -2622.33, -2236.90, 0.000, 0.000, 0.000, 14:13:42.968
140, -2037.72, -2280.06, -2543.70, -2166.70, 0.000, 0.000, 0.000, 14:13:42.968
141, -1713.30, -1924.80, -2247.80, -1889.62, 0.000, 0.000, 0.000, 14:13:42.984
142, -1669.74, -1903.98, -2249.60, -1888.59, 0.000, 0.000, 0.000, 14:13:42.984
143, -2087.45, -2346.85, -2622.61, -2236.78, 0.000, 0.000, 0.000, 14:13:42.984
144, -2030.84, -2268.43, -2545.48, -2160.63, 0.000, 0.000, 0.000, 14:13:42.984
145, -1706.25, -1920.46, -2244.97, -1890.07, 0.000, 0.000, 0.000, 14:13:42.999
146, -1672.82, -1896.80, -2249.20, -1887.24, 0.000, 0.000, 0.000, 14:13:42.999
147, -2083.88, -2355.44, -2625.78, -2237.21, 0.000, 0.000, 0.000, 14:13:43.014
148, -2038.34, -2276.44, -2540.34, -2163.40, 0.000, 0.000, 0.000, 14:13:43.014
149, -1707.23, -1906.46, -2245.15, -1886.87, 0.000, 0.000, 0.000, 14:13:43.015
150, -1679.80, -1891.70, -2252.79, -1885.46, 0.000, 0.000, 0.000, 14:13:43.015
151, -2093.90, -2362.44, -2631.09, -2240.68, 0.000, 0.000, 0.000, 14:13:43.029
152, -2032.32, -2288.33, -2549.03, -2171.29, 0.000, 0.000, 0.000, 14:13:43.029
153, -1715.44, -1936.25, -2257.90, -1897.48, 0.000, 0.000, 0.000, 14:13:43.044
154, -1686.34, -1915.25, -2262.64, -1904.30, 0.000, 0.000, 0.000, 14:13:43.044
155, -2091.13, -2357.38, -2628.73, -2249.86, 0.000, 0.000, 0.000, 14:13:43.044
156, -2025.44, -2269.61, -2545.75, -2162.37, 0.000, 0.000, 0.000, 14:13:43.044
157, -1705.52, -1913.73, -2246.88, -1886.96, 0.000, 0.000, 0.000, 14:13:43.065
158, -1680.04, -1899.57, -2249.73, -1887.36, 0.000, 0.000, 0.000, 14:13:43.065
159, -2086.48, -2347.54, -2616.65, -2232.27, 0.000, 0.000, 0.000, 14:13:43.073
160, -2015.14, -2269.40, -2536.71, -2155.90, 0.000, 0.000, 0.000, 14:13:43.073
161, -1707.32, -1910.80, -2246.43, -1888.10, 0.000, 0.000, 0.000, 14:13:43.074
162, -1683.48, -1902.21, -2255.51, -1894.54, 0.000, 0.000, 0.000, 14:13:43.074
163, -2076.91, -2349.61, -2616.14, -2232.85, 0.000, 0.000, 0.000, 14:13:43.089
164, -2027.17, -2270.00, -2538.30, -2152.07, 0.000, 0.000, 0.000, 14:13:43.089
165, -1712.29, -1910.36, -2250.24, -1887.56, 0.000, 0.000, 0.000, 14:13:43.104
166, -1680.96, -1895.22, -2256.56, -1894.41, 0.000, 0.000, 0.000, 14:13:43.104
167, -2084.00, -2343.20, -2622.74, -2233.36, 0.000, 0.000, 0.000, 14:13:43.104
168, -2024.48, -2267.80, -2537.83, -2160.84, 0.000, 0.000, 0.000, 14:13:43.105
169, -1713.98, -1914.33, -2247.75, -1884.88, 0.000, 0.000, 0.000, 14:13:43.134
170, -1683.76, -1903.44, -2258.06, -1894.03, 0.000, 0.000, 0.000, 14:13:43.134
171, -2091.48, -2351.32, -2628.55, -2235.57, 0.000, 0.000, 0.000, 14:13:43.135
172, -2018.61, -2261.69, -2530.77, -2148.36, 0.000, 0.000, 0.000, 14:13:43.135
173, -1710.59, -1913.54, -2244.13, -1880.09, 0.000, 0.000, 0.000, 14:13:43.148
174, -1673.49, -1899.90, -2261.92, -1899.66, 0.000, 0.000, 0.000, 14:13:43.148
175, -2082.87, -2345.68, -2619.24, -2231.36, 0.000, 0.000, 0.000, 14:13:43.149
176, -2022.04, -2268.53, -2537.86, -2152.39, 0.000, 0.000, 0.000, 14:13:43.149
177, -1706.68, -1910.42, -2243.96, -1880.10, 0.000, 0.000, 0.000, 14:13:43.164
178, -1688.92, -1907.43, -2266.15, -1900.88, 0.000, 0.000, 0.000, 14:13:43.164
179, -2092.87, -2357.32, -2630.72, -2237.69, 0.000, 0.000, 0.000, 14:13:43.165
180, -2038.51, -2268.92, -2547.35, -2156.63, 0.000, 0.000, 0.000, 14:13:43.165
181, -1716.51, -1919.01, -2254.07, -1889.43, 0.000, 0.000, 0.000, 14:13:43.179
182, -1695.76, -1914.63, -2267.47, -1899.72, 0.000, 0.000, 0.000, 14:13:43.179
183, -2098.40, -2355.04, -2627.66, -2237.84, 0.000, 0.000, 0.000, 14:13:43.194
184, -2028.03, -2261.68, -2536.30, -2145.80, 0.000, 0.000, 0.000, 14:13:43.195
185, -1709.62, -1915.25, -2247.71, -1878.07, 0.000, 0.000, 0.000, 14:13:43.195
186, -1701.09, -1917.17, -2268.88, -1912.31, 0.000, 0.000, 0.000, 14:13:43.195
187, -2094.91, -2354.37, -2629.07, -2245.07, 0.000, 0.000, 0.000, 14:13:43.224
188, -2027.92, -2268.88, -2537.73, -2152.37, 0.000, 0.000, 0.000, 14:13:43.224
189, -1712.09, -1914.17, -2245.88, -1894.02, 0.000, 0.000, 0.000, 14:13:43.224
190, -1687.66, -1906.84, -2259.13, -1908.42, 0.000, 0.000, 0.000, 14:13:43.224
191, -2094.97, -2352.05, -2626.32, -2241.06, 0.000, 0.000, 0.000, 14:13:43.225
192, -2011.46, -2266.20, -2526.30, -2145.36, 0.000, 0.000, 0.000, 14:13:43.225
193, -1708.46, -1913.91, -2242.98, -1885.75, 0.000, 0.000, 0.000, 14:13:43.239
194, -1689.31, -1915.81, -2259.38, -1895.27, 0.000, 0.000, 0.000, 14:13:43.239
195, -2076.58, -2346.71, -2616.54, -2235.95, 0.000, 0.000, 0.000, 14:13:43.253
196, -2021.31, -2268.62, -2534.56, -2153.33, 0.000, 0.000, 0.000, 14:13:43.253
197, -1694.65, -1908.78, -2241.63, -1883.52, 0.000, 0.000, 0.000, 14:13:43.269
198, -1692.71, -1922.09, -2267.28, -1904.74, 0.000, 0.000, 0.000, 14:13:43.269
199, -2080.70, -2342.61, -2611.39, -2232.58, 0.000, 0.000, 0.000, 14:13:43.270
200, -2009.12, -2257.02, -2522.48, -2143.10, 0.000, 0.000, 0.000, 14:13:43.270
0, -1699.35, -1906.59, -2239.02, -1885.73, 0.000, 0.000, 0.000, 14:13:43.271
1, -1683.27, -1910.11, -2257.96, -1908.67, 0.000, 0.000, 0.000, 14:13:43.284
2, -2075.73, -2337.78, -2608.61, -2233.36, 0.000, 0.000, 0.000, 14:13:43.284
3, -1995.60, -2241.00, -2515.13, -2142.28, 0.000, 0.000, 0.000, 14:13:43.299
4, -1699.30, -1896.48, -2239.53, -1883.16, 0.000, 0.000, 0.000, 14:13:43.299
5, -1695.23, -1911.27, -2259.83, -1907.43, 0.000, 0.000, 0.000, 14:13:43.330
6, -2069.72, -2332.19, -2607.19, -2229.18, 0.000, 0.000, 0.000, 14:13:43.330
7, -2001.39, -2237.87, -2508.94, -2136.63, 0.000, 0.000, 0.000, 14:13:43.330
8, -1697.28, -1892.85, -2234.98, -1880.00, 0.000, 0.000, 0.000, 14:13:43.330
9, -1683.30, -1907.90, -2261.02, -1905.41, 0.000, 0.000, 0.000, 14:13:43.330
10, -2071.47, -2329.69, -2603.24, -2223.20, 0.000, 0.000, 0.000, 14:13:43.330
11, -2001.10, -2239.21, -2515.79, -2136.56, 0.000, 0.000, 0.000, 14:13:43.332
12, -1694.79, -1893.09, -2241.95, -1880.60, 0.000, 0.000, 0.000, 14:13:43.332
13, -1688.46, -1917.80, -2270.69, -1900.44, 0.000, 0.000, 0.000, 14:13:43.374
14, -2072.39, -2335.36, -2613.39, -2231.36, 0.000, 0.000, 0.000, 14:13:43.374
15, -2005.10, -2235.88, -2519.48, -2137.77, 0.000, 0.000, 0.000, 14:13:43.374
16, -1699.65, -1897.81, -2245.16, -1881.75, 0.000, 0.000, 0.000, 14:13:43.374
17, -1688.88, -1911.81, -2272.49, -1903.79, 0.000, 0.000, 0.000, 14:13:43.375
18, -2075.74, -2341.78, -2616.08, -2227.82, 0.000, 0.000, 0.000, 14:13:43.375
19, -1996.01, -2243.21, -2512.88, -2132.64, 0.000, 0.000, 0.000, 14:13:43.376
20, -1695.34, -1902.34, -2244.40, -1878.17, 0.000, 0.000, 0.000, 14:13:43.376
21, -1699.41, -1929.81, -2275.81, -1913.33, 0.000, 0.000, 0.000, 14:13:43.377
22, -2093.80, -2357.43, -2627.13, -2235.28, 0.000, 0.000, 0.000, 14:13:43.377
23, -2013.94, -2255.56, -2529.02, -2145.48, 0.000, 0.000, 0.000, 14:13:43.404
24, -1708.69, -1926.39, -2257.87, -1886.36, 0.000, 0.000, 0.000, 14:13:43.404
25, -1700.59, -1935.40, -2283.27, -1914.58, 0.000, 0.000, 0.000, 14:13:43.405
26, -2086.00, -2362.11, -2635.78, -2233.61, 0.000, 0.000, 0.000, 14:13:43.405
27, -1995.44, -2288.87, -2517.74, -2130.79, 0.000, 0.000, 0.000, 14:13:43.419
28, -1687.34, -1937.45, -2237.81, -1874.20, 0.000, 0.000, 0.000, 14:13:43.419
29, -1671.42, -1910.21, -2282.17, -1914.60, 0.000, 0.000, 0.000, 14:13:43.419
30, -2037.96, -2366.63, -2619.83, -2247.66, 0.000, 0.000, 0.000, 14:13:43.419
31, -1951.41, -2289.67, -2520.66, -2130.78, 0.000, 0.000, 0.000, 14:13:43.434
32, -1615.58, -1960.68, -2241.31, -1838.50, 0.000, 0.000, 0.000, 14:13:43.434
33, -1611.87, -1976.60, -2297.61, -1876.06, 0.000, 0.000, 0.000, 14:13:43.448
34, -1970.19, -2410.55, -2630.97, -2178.27, 0.000, 0.000, 0.000, 14:13:43.449
35, -1884.76, -2296.35, -2549.01, -2067.46, 0.000, 0.000, 0.000, 14:13:43.449
36, -1589.58, -1990.82, -2299.33, -1816.51, 0.000, 0.000, 0.000, 14:13:43.449
37, -1572.82, -2007.18, -2336.09, -1833.40, 0.000, 0.000, 0.000, 14:13:43.464
38, -1949.59, -2413.03, -2673.81, -2120.35, 0.000, 0.000, 0.000, 14:13:43.464
39, -1901.16, -2306.28, -2599.09, -2032.36, 0.000, 0.000, 0.000, 14:13:43.478
40, -1632.68, -1970.52, -2338.27, -1780.22, 0.000, 0.000, 0.000, 14:13:43.478
41, -1668.38, -1969.83, -2380.34, -1807.38, 0.000, 0.000, 0.000, 14:13:43.479
42, -2069.73, -2354.23, -2712.90, -2112.80, 0.000, 0.000, 0.000, 14:13:43.479
43, -2034.88, -2237.87, -2626.88, -2025.58, 0.000, 0.000, 0.000, 14:13:43.494
44, -1769.99, -1879.71, -2357.60, -1773.86, 0.000, 0.000, 0.000, 14:13:43.494
45, -1795.36, -1878.84, -2381.66, -1803.28, 0.000, 0.000, 0.000, 14:13:43.524
46, -2195.14, -2271.16, -2722.44, -2112.52, 0.000, 0.000, 0.000, 14:13:43.524
47, -2166.37, -2180.36, -2641.28, -2040.16, 0.000, 0.000, 0.000, 14:13:43.525
48, -1892.70, -1829.23, -2371.36, -1794.04, 0.000, 0.000, 0.000, 14:13:43.525
49, -1902.72, -1833.71, -2397.86, -1825.64, 0.000, 0.000, 0.000, 14:13:43.526
50, -2295.47, -2251.21, -2743.46, -2142.89, 0.000, 0.000, 0.000, 14:13:43.527
51, -2232.47, -2139.59, -2645.40, -2051.80, 0.000, 0.000, 0.000, 14:13:43.527
52, -1941.27, -1791.05, -2358.43, -1801.20, 0.000, 0.000, 0.000, 14:13:43.527
53, -1952.29, -1819.59, -2402.96, -1834.51, 0.000, 0.000, 0.000, 14:13:43.538
54, -2331.13, -2228.81, -2735.46, -2142.74, 0.000, 0.000, 0.000, 14:13:43.538
55, -2261.02, -2114.75, -2631.30, -2056.88, 0.000, 0.000, 0.000, 14:13:43.554
56, -1957.21, -1774.93, -2346.52, -1796.54, 0.000, 0.000, 0.000, 14:13:43.554
57, -1956.58, -1796.57, -2387.95, -1837.70, 0.000, 0.000, 0.000, 14:13:43.568
58, -2332.52, -2221.28, -2719.66, -2152.17, 0.000, 0.000, 0.000, 14:13:43.569
59, -2248.05, -2115.25, -2612.82, -2066.08, 0.000, 0.000, 0.000, 14:13:43.569
60, -1938.42, -1784.11, -2327.77, -1810.19, 0.000, 0.000, 0.000, 14:13:43.569
61, -1936.64, -1806.38, -2365.14, -1851.41, 0.000, 0.000, 0.000, 14:13:43.584
62, -2305.11, -2241.12, -2703.13, -2172.87, 0.000, 0.000, 0.000, 14:13:43.584
63, -2219.82, -2140.39, -2601.27, -2083.19, 0.000, 0.000, 0.000, 14:13:43.598
64, -1899.39, -1805.12, -2317.04, -1830.20, 0.000, 0.000, 0.000, 14:13:43.598
65, -1893.40, -1843.52, -2351.42, -1870.73, 0.000, 0.000, 0.000, 14:13:43.599
66, -2256.62, -2263.50, -2686.09, -2180.91, 0.000, 0.000, 0.000, 14:13:43.599
67, -2178.95, -2182.84, -2587.62, -2100.73, 0.000, 0.000, 0.000, 14:13:43.629
68, -1850.02, -1842.56, -2298.67, -1853.09, 0.000, 0.000, 0.000, 14:13:43.629
69, -1848.11, -1882.48, -2340.70, -1890.73, 0.000, 0.000, 0.000, 14:13:43.630
70, -2203.77, -2298.77, -2663.40, -2202.20, 0.000, 0.000, 0.000, 14:13:43.630
71, -2113.44, -2194.99, -2554.46, -2109.71, 0.000, 0.000, 0.000, 14:13:43.630
72, -1794.77, -1856.45, -2268.49, -1851.39, 0.000, 0.000, 0.000, 14:13:43.631
73, -1804.62, -1900.76, -2322.12, -1898.22, 0.000, 0.000, 0.000, 14:13:43.644
74, -2175.29, -2319.63, -2651.23, -2214.68, 0.000, 0.000, 0.000, 14:13:43.644
75, -2087.99, -2217.67, -2546.97, -2122.25, 0.000, 0.000, 0.000, 14:13:43.673
76, -1766.51, -1877.00, -2259.57, -1864.87, 0.000, 0.000, 0.000, 14:13:43.673
77, -1781.35, -1924.79, -2316.27, -1914.78, 0.000, 0.000, 0.000, 14:13:43.675
78, -2146.36, -2321.92, -2642.61, -2216.82, 0.000, 0.000, 0.000, 14:13:43.675
79, -2056.14, -2223.82, -2535.32, -2119.91, 0.000, 0.000, 0.000, 14:13:43.676
80, -1751.40, -1886.61, -2261.32, -1868.49, 0.000, 0.000, 0.000, 14:13:43.677
81, -1766.78, -1932.35, -2315.14, -1913.92, 0.000, 0.000, 0.000, 14:13:43.688
82, -2130.78, -2340.68, -2640.64, -2213.88, 0.000, 0.000, 0.000, 14:13:43.688
83, -2035.07, -2223.15, -2529.46, -2116.04, 0.000, 0.000, 0.000, 14:13:43.704
84, -1734.31, -1890.48, -2254.49, -1861.25, 0.000, 0.000, 0.000, 14:13:43.704
85, -1751.28, -1937.93, -2307.80, -1919.44, 0.000, 0.000, 0.000, 14:13:43.719
86, -2122.95, -2343.09, -2638.53, -2220.27, 0.000, 0.000, 0.000, 14:13:43.719
87, -2036.83, -2228.91, -2531.15, -2123.63, 0.000, 0.000, 0.000, 14:13:43.719
88, -1728.53, -1893.07, -2251.67, -1867.60, 0.000, 0.000, 0.000, 14:13:43.719
89, -1741.63, -1931.51, -2299.96, -1920.62, 0.000, 0.000, 0.000, 14:13:43.720
90, -2115.60, -2344.42, -2625.86, -2219.62, 0.000, 0.000, 0.000, 14:13:43.720
91, -2027.41, -2230.84, -2523.01, -2121.76, 0.000, 0.000, 0.000, 14:13:43.734
92, -1704.22, -1881.12, -2241.70, -1870.75, 0.000, 0.000, 0.000, 14:13:43.734
93, -1732.88, -1941.08, -2298.13, -1920.01, 0.000, 0.000, 0.000, 14:13:43.749
94, -2107.78, -2348.37, -2631.15, -2230.91, 0.000, 0.000, 0.000, 14:13:43.749
95, -2014.03, -2221.70, -2522.21, -2125.91, 0.000, 0.000, 0.000, 14:13:43.749
96, -1698.69, -1876.36, -2234.32, -1856.65, 0.000, 0.000, 0.000, 14:13:43.749
97, -1731.87, -1933.97, -2298.40, -1915.61, 0.000, 0.000, 0.000, 14:13:43.779
98, -2115.26, -2357.54, -2637.74, -2236.25, 0.000, 0.000, 0.000, 14:13:43.779
99, -2020.37, -2241.95, -2520.11, -2128.94, 0.000, 0.000, 0.000, 14:13:43.779
100, -1702.99, -1890.21, -2241.45, -1858.64, 0.000, 0.000, 0.000, 14:13:43.779
