%OpenBCI Raw EEG Data
%
%Sample Rate = 200.0 Hz
%First Column = SampleIndex
%Last Column = Timestamp 
%Other Columns = EEG data in microvolts followed by Accel Data (in G) interleaved with Aux Data
0, -2082.33, -2307.37, -2645.82, -2236.67, 0.000, 0.000, 0.000, 14:15:59.365
1, -1683.15, -1867.99, -2280.76, -1903.65, 0.000, 0.000, 0.000, 14:15:59.381
2, -1883.78, -2128.13, -2516.30, -2122.27, 0.000, 0.000, 0.000, 14:15:59.381
3, -2290.32, -2552.22, -2853.08, -2426.45, 0.000, 0.000, 0.000, 14:15:59.396
4, -2085.26, -2299.49, -2633.26, -2229.65, 0.000, 0.000, 0.000, 14:15:59.397
5, -1666.72, -1858.11, -2268.77, -1899.80, 0.000, 0.000, 0.000, 14:15:59.397
6, -1877.97, -2121.89, -2514.96, -2118.26, 0.000, 0.000, 0.000, 14:15:59.397
7, -2269.13, -2537.61, -2852.83, -2417.68, 0.000, 0.000, 0.000, 14:15:59.426
8, -2075.34, -2297.37, -2632.05, -2217.64, 0.000, 0.000, 0.000, 14:15:59.426
9, -1671.25, -1856.96, -2262.62, -1891.04, 0.000, 0.000, 0.000, 14:15:59.426
10, -1873.66, -2126.13, -2507.85, -2112.67, 0.000, 0.000, 0.000, 14:15:59.426
11, -2277.53, -2536.43, -2852.54, -2413.44, 0.000, 0.000, 0.000, 14:15:59.426
12, -2069.25, -2292.99, -2632.02, -2206.30, 0.000, 0.000, 0.000, 14:15:59.426
13, -1639.41, -1848.95, -2267.66, -1888.11, 0.000, 0.000, 0.000, 14:15:59.440
14, -1863.04, -2120.71, -2509.82, -2112.09, 0.000, 0.000, 0.000, 14:15:59.441
15, -2262.89, -2534.93, -2844.79, -2410.82, 0.000, 0.000, 0.000, 14:15:59.455
16, -2059.90, -2292.64, -2626.60, -2217.11, 0.000, 0.000, 0.000, 14:15:59.455
17, -1639.03, -1850.28, -2258.90, -1886.16, 0.000, 0.000, 0.000, 14:15:59.457
18, -1871.77, -2124.79, -2523.15, -2121.08, 0.000, 0.000, 0.000, 14:15:59.457
19, -2274.87, -2531.54, -2847.87, -2406.93, 0.000, 0.000, 0.000, 14:15:59.471
20, -2052.96, -2297.15, -2629.24, -2207.67, 0.000, 0.000, 0.000, 14:15:59.471
21, -1635.36, -1844.94, -2256.09, -1875.23, 0.000, 0.000, 0.000, 14:15:59.486
22, -1874.54, -2124.16, -2514.89, -2114.64, 0.000, 0.000, 0.000, 14:15:59.486
23, -2266.61, -2528.58, -2843.62, -2405.96, 0.000, 0.000, 0.000, 14:15:59.487
24, -2057.54, -2288.14, -2627.32, -2209.52, 0.000, 0.000, 0.000, 14:15:59.487
25, -1642.02, -1839.44, -2255.74, -1887.50, 0.000, 0.000, 0.000, 14:15:59.501
26, -1863.78, -2124.84, -2513.50, -2119.98, 0.000, 0.000, 0.000, 14:15:59.501
27, -2259.44, -2527.88, -2840.46, -2407.81, 0.000, 0.000, 0.000, 14:15:59.515
28, -2043.68, -2275.44, -2612.42, -2201.29, 0.000, 0.000, 0.000, 14:15:59.516
29, -1640.24, -1839.68, -2250.66, -1875.52, 0.000, 0.000, 0.000, 14:15:59.516
30, -1868.22, -2117.52, -2506.38, -2114.73, 0.000, 0.000, 0.000, 14:15:59.516
31, -2242.07, -2516.74, -2825.44, -2404.61, 0.000, 0.000, 0.000, 14:15:59.531
32, -2047.99, -2274.39, -2611.00, -2202.98, 0.000, 0.000, 0.000, 14:15:59.531
33, -1635.62, -1841.31, -2257.23, -1885.63, 0.000, 0.000, 0.000, 14:15:59.547
34, -1879.88, -2126.91, -2515.44, -2119.37, 0.000, 0.000, 0.000, 14:15:59.547
35, -2260.46, -2520.29, -2831.96, -2400.58, 0.000, 0.000, 0.000, 14:15:59.547
36, -2036.90, -2270.90, -2603.82, -2195.95, 0.000, 0.000, 0.000, 14:15:59.547
37, -1625.32, -1834.97, -2245.03, -1876.99, 0.000, 0.000, 0.000, 14:15:59.576
38, -1886.18, -2128.48, -2518.32, -2125.30, 0.000, 0.000, 0.000, 14:15:59.576
39, -2267.91, -2518.38, -2827.06, -2409.17, 0.000, 0.000, 0.000, 14:15:59.576
40, -2046.11, -2271.56, -2610.44, -2196.14, 0.000, 0.000, 0.000, 14:15:59.576
41, -1631.65, -1837.96, -2252.41, -1878.87, 0.000, 0.000, 0.000, 14:15:59.577
42, -1894.07, -2138.15, -2524.77, -2131.11, 0.000, 0.000, 0.000, 14:15:59.577
43, -2265.87, -2536.03, -2838.55, -2410.47, 0.000, 0.000, 0.000, 14:15:59.591
44, -2040.06, -2287.64, -2613.93, -2211.26, 0.000, 0.000, 0.000, 14:15:59.591
45, -1645.38, -1850.51, -2255.52, -1878.06, 0.000, 0.000, 0.000, 14:15:59.606
46, -1887.43, -2142.40, -2519.21, -2124.95, 0.000, 0.000, 0.000, 14:15:59.606
47, -2246.77, -2519.59, -2822.79, -2394.40, 0.000, 0.000, 0.000, 14:15:59.606
48, -2039.75, -2272.08, -2594.22, -2189.63, 0.000, 0.000, 0.000, 14:15:59.607
49, -1639.48, -1838.82, -2248.07, -1877.03, 0.000, 0.000, 0.000, 14:15:59.621
50, -1877.13, -2130.16, -2519.95, -2122.64, 0.000, 0.000, 0.000, 14:15:59.621
51, -2258.60, -2517.70, -2825.06, -2398.72, 0.000, 0.000, 0.000, 14:15:59.650
52, -2032.59, -2262.53, -2601.00, -2189.87, 0.000, 0.000, 0.000, 14:15:59.650
53, -1630.83, -1833.03, -2253.32, -1876.18, 0.000, 0.000, 0.000, 14:15:59.651
54, -1897.36, -2135.91, -2530.66, -2131.83, 0.000, 0.000, 0.000, 14:15:59.651
55, -2265.53, -2530.09, -2835.99, -2404.24, 0.000, 0.000, 0.000, 14:15:59.651
56, -2023.60, -2263.48, -2604.17, -2193.49, 0.000, 0.000, 0.000, 14:15:59.651
57, -1644.74, -1829.22, -2252.64, -1876.55, 0.000, 0.000, 0.000, 14:15:59.652
58, -1890.57, -2144.08, -2537.22, -2134.16, 0.000, 0.000, 0.000, 14:15:59.652
59, -2244.49, -2521.89, -2832.98, -2404.30, 0.000, 0.000, 0.000, 14:15:59.680
60, -2023.67, -2262.26, -2604.48, -2196.12, 0.000, 0.000, 0.000, 14:15:59.681
61, -1628.12, -1831.99, -2253.28, -1876.34, 0.000, 0.000, 0.000, 14:15:59.681
62, -1899.53, -2139.39, -2529.55, -2135.92, 0.000, 0.000, 0.000, 14:15:59.681
63, -2254.77, -2519.09, -2825.72, -2399.52, 0.000, 0.000, 0.000, 14:15:59.696
64, -2038.18, -2266.52, -2604.10, -2193.05, 0.000, 0.000, 0.000, 14:15:59.696
65, -1631.70, -1837.00, -2252.02, -1885.64, 0.000, 0.000, 0.000, 14:15:59.696
66, -1892.50, -2149.45, -2535.77, -2136.61, 0.000, 0.000, 0.000, 14:15:59.696
67, -2267.31, -2528.15, -2834.80, -2401.02, 0.000, 0.000, 0.000, 14:15:59.717
68, -2037.63, -2264.94, -2604.30, -2194.92, 0.000, 0.000, 0.000, 14:15:59.717
69, -1636.59, -1834.41, -2252.55, -1880.67, 0.000, 0.000, 0.000, 14:15:59.726
70, -1907.67, -2152.81, -2541.16, -2129.55, 0.000, 0.000, 0.000, 14:15:59.726
71, -2255.52, -2524.57, -2832.16, -2405.84, 0.000, 0.000, 0.000, 14:15:59.726
72, -2035.51, -2264.55, -2598.47, -2197.45, 0.000, 0.000, 0.000, 14:15:59.726
73, -1642.95, -1835.52, -2246.66, -1880.40, 0.000, 0.000, 0.000, 14:15:59.756
74, -1903.66, -2156.89, -2539.43, -2143.04, 0.000, 0.000, 0.000, 14:15:59.756
75, -2274.25, -2531.04, -2836.43, -2400.19, 0.000, 0.000, 0.000, 14:15:59.756
76, -2037.51, -2263.01, -2603.06, -2187.24, 0.000, 0.000, 0.000, 14:15:59.756
77, -1614.69, -1831.34, -2249.79, -1877.78, 0.000, 0.000, 0.000, 14:15:59.757
78, -1901.86, -2151.93, -2543.21, -2145.28, 0.000, 0.000, 0.000, 14:15:59.757
79, -2264.76, -2524.80, -2832.83, -2403.23, 0.000, 0.000, 0.000, 14:15:59.770
80, -2025.23, -2264.37, -2601.28, -2193.92, 0.000, 0.000, 0.000, 14:15:59.770
81, -1642.90, -1845.84, -2261.51, -1883.05, 0.000, 0.000, 0.000, 14:15:59.785
82, -1900.76, -2162.25, -2546.02, -2151.51, 0.000, 0.000, 0.000, 14:15:59.785
83, -2244.05, -2523.40, -2831.78, -2400.09, 0.000, 0.000, 0.000, 14:15:59.786
84, -2021.30, -2261.85, -2600.87, -2190.70, 0.000, 0.000, 0.000, 14:15:59.786
85, -1646.32, -1849.10, -2262.51, -1888.92, 0.000, 0.000, 0.000, 14:15:59.800
86, -1900.13, -2160.06, -2550.44, -2148.10, 0.000, 0.000, 0.000, 14:15:59.800
87, -2250.83, -2513.61, -2824.72, -2397.27, 0.000, 0.000, 0.000, 14:15:59.816
88, -2015.97, -2250.75, -2586.80, -2183.45, 0.000, 0.000, 0.000, 14:15:59.816
89, -1637.05, -1841.52, -2254.41, -1880.29, 0.000, 0.000, 0.000, 14:15:59.816
90, -1917.44, -2168.90, -2547.81, -2149.00, 0.000, 0.000, 0.000, 14:15:59.816
91, -2252.63, -2521.18, -2824.59, -2404.72, 0.000, 0.000, 0.000, 14:15:59.830
92, -2025.55, -2253.33, -2588.82, -2189.71, 0.000, 0.000, 0.000, 14:15:59.830
93, -1633.50, -1833.73, -2251.22, -1879.82, 0.000, 0.000, 0.000, 14:15:59.846
94, -1917.92, -2170.10, -2548.80, -2150.77, 0.000, 0.000, 0.000, 14:15:59.846
95, -2261.19, -2521.13, -2829.40, -2399.53, 0.000, 0.000, 0.000, 14:15:59.846
96, -2011.51, -2247.63, -2592.34, -2184.34, 0.000, 0.000, 0.000, 14:15:59.846
97, -1622.78, -1826.01, -2255.70, -1883.73, 0.000, 0.000, 0.000, 14:15:59.861
98, -1925.30, -2168.69, -2551.91, -2155.50, 0.000, 0.000, 0.000, 14:15:59.861
99, -2254.66, -2521.26, -2829.93, -2405.09, 0.000, 0.000, 0.000, 14:15:59.876
100, -2034.05, -2256.00, -2593.24, -2191.21, 0.000, 0.000, 0.000, 14:15:59.876
101, -1633.80, -1831.72, -2247.32, -1881.28, 0.000, 0.000, 0.000, 14:15:59.876
102, -1924.28, -2173.12, -2554.83, -2157.55, 0.000, 0.000, 0.000, 14:15:59.876
103, -2266.13, -2520.25, -2829.00, -2400.77, 0.000, 0.000, 0.000, 14:15:59.891
104, -2017.24, -2253.85, -2593.30, -2185.70, 0.000, 0.000, 0.000, 14:15:59.892
105, -1624.59, -1834.67, -2253.99, -1879.54, 0.000, 0.000, 0.000, 14:15:59.905
106, -1915.91, -2173.55, -2552.15, -2153.76, 0.000, 0.000, 0.000, 14:15:59.905
107, -2258.07, -2524.22, -2821.78, -2398.05, 0.000, 0.000, 0.000, 14:15:59.906
108, -2025.95, -2252.79, -2593.89, -2182.08, 0.000, 0.000, 0.000, 14:15:59.906
109, -1627.03, -1826.72, -2253.14, -1875.51, 0.000, 0.000, 0.000, 14:15:59.920
110, -1935.97, -2178.15, -2566.14, -2165.75, 0.000, 0.000, 0.000, 14:15:59.920
111, -2253.89, -2511.68, -2826.83, -2399.41, 0.000, 0.000, 0.000, 14:15:59.936
112, -2008.09, -2250.15, -2583.58, -2179.26, 0.000, 0.000, 0.000, 14:15:59.936
113, -1621.01, -1818.73, -2242.40, -1867.86, 0.000, 0.000, 0.000, 14:15:59.936
114, -1921.57, -2183.28, -2560.18, -2160.13, 0.000, 0.000, 0.000, 14:15:59.937
115, -2243.91, -2511.61, -2818.45, -2391.00, 0.000, 0.000, 0.000, 14:15:59.950
116, -2012.15, -2241.60, -2578.16, -2174.29, 0.000, 0.000, 0.000, 14:15:59.950
117, -1633.15, -1827.44, -2246.54, -1873.45, 0.000, 0.000, 0.000, 14:15:59.966
118, -1925.94, -2174.24, -2562.42, -2163.22, 0.000, 0.000, 0.000, 14:15:59.966
119, -2247.11, -2518.50, -2825.64, -2404.69, 0.000, 0.000, 0.000, 14:15:59.966
120, -2007.29, -2247.82, -2587.61, -2179.03, 0.000, 0.000, 0.000, 14:15:59.966
121, -1636.66, -1841.33, -2257.88, -1877.13, 0.000, 0.000, 0.000, 14:15:59.996
122, -1942.25, -2194.46, -2574.85, -2165.37, 0.000, 0.000, 0.000, 14:15:59.996
123, -2258.69, -2518.80, -2828.73, -2396.73, 0.000, 0.000, 0.000, 14:15:59.996
124, -2027.84, -2238.84, -2586.37, -2173.90, 0.000, 0.000, 0.000, 14:15:59.996
125, -1620.28, -1826.38, -2247.91, -1870.70, 0.000, 0.000, 0.000, 14:15:59.996
126, -1939.62, -2194.97, -2574.35, -2164.89, 0.000, 0.000, 0.000, 14:15:59.997
127, -2239.23, -2511.77, -2823.70, -2400.71, 0.000, 0.000, 0.000, 14:16:00.010
128, -2018.21, -2233.21, -2578.46, -2172.75, 0.000, 0.000, 0.000, 14:16:00.010
129, -1623.31, -1825.39, -2241.47, -1866.40, 0.000, 0.000, 0.000, 14:16:00.026
130, -1932.10, -2178.94, -2566.39, -2164.75, 0.000, 0.000, 0.000, 14:16:00.026
131, -2244.82, -2519.36, -2824.00, -2396.83, 0.000, 0.000, 0.000, 14:16:00.026
132, -2016.97, -2239.01, -2583.59, -2173.40, 0.000, 0.000, 0.000, 14:16:00.027
133, -1628.03, -1825.80, -2248.12, -1872.57, 0.000, 0.000, 0.000, 14:16:00.041
134, -1937.06, -2195.59, -2573.46, -2170.41, 0.000, 0.000, 0.000, 14:16:00.041
135, -2260.72, -2521.74, -2829.61, -2404.62, 0.000, 0.000, 0.000, 14:16:00.055
136, -2000.87, -2238.62, -2579.47, -2170.36, 0.000, 0.000, 0.000, 14:16:00.055
137, -1621.29, -1823.23, -2244.88, -1871.06, 0.000, 0.000, 0.000, 14:16:00.056
138, -1943.65, -2189.11, -2581.06, -2172.08, 0.000, 0.000, 0.000, 14:16:00.056
139, -2253.58, -2523.71, -2829.93, -2398.25, 0.000, 0.000, 0.000, 14:16:00.070
140, -2001.65, -2236.42, -2586.18, -2173.54, 0.000, 0.000, 0.000, 14:16:00.071
141, -1627.04, -1835.98, -2254.58, -1878.64, 0.000, 0.000, 0.000, 14:16:00.101
142, -1948.02, -2190.02, -2580.80, -2172.65, 0.000, 0.000, 0.000, 14:16:00.101
143, -2261.84, -2511.75, -2821.06, -2396.26, 0.000, 0.000, 0.000, 14:16:00.101
144, -2008.61, -2237.69, -2582.08, -2169.76, 0.000, 0.000, 0.000, 14:16:00.101
145, -1621.78, -1825.88, -2246.68, -1873.27, 0.000, 0.000, 0.000, 14:16:00.102
146, -1935.28, -2201.52, -2573.09, -2174.85, 0.000, 0.000, 0.000, 14:16:00.102
147, -2252.38, -2517.91, -2823.44, -2397.19, 0.000, 0.000, 0.000, 14:16:00.103
148, -1997.85, -2235.61, -2583.70, -2172.88, 0.000, 0.000, 0.000, 14:16:00.103
149, -1626.83, -1826.96, -2249.72, -1872.20, 0.000, 0.000, 0.000, 14:16:00.116
150, -1954.15, -2202.12, -2585.42, -2175.13, 0.000, 0.000, 0.000, 14:16:00.116
151, -2240.62, -2514.89, -2822.82, -2393.98, 0.000, 0.000, 0.000, 14:16:00.130
152, -1984.62, -2220.72, -2566.50, -2160.62, 0.000, 0.000, 0.000, 14:16:00.130
153, -1621.25, -1824.69, -2241.74, -1871.60, 0.000, 0.000, 0.000, 14:16:00.147
154, -1948.90, -2209.30, -2580.99, -2172.43, 0.000, 0.000, 0.000, 14:16:00.147
155, -2243.40, -2516.34, -2827.93, -2395.30, 0.000, 0.000, 0.000, 14:16:00.147
156, -2000.98, -2230.90, -2570.13, -2173.37, 0.000, 0.000, 0.000, 14:16:00.147
157, -1615.35, -1819.20, -2240.83, -1876.51, 0.000, 0.000, 0.000, 14:16:00.161
158, -1941.98, -2205.23, -2579.09, -2184.63, 0.000, 0.000, 0.000, 14:16:00.161
159, -2250.16, -2517.11, -2813.88, -2396.37, 0.000, 0.000, 0.000, 14:16:00.176
160, -1986.12, -2230.42, -2572.15, -2169.33, 0.000, 0.000, 0.000, 14:16:00.176
161, -1616.46, -1819.12, -2245.85, -1872.64, 0.000, 0.000, 0.000, 14:16:00.176
162, -1943.81, -2204.16, -2589.43, -2189.27, 0.000, 0.000, 0.000, 14:16:00.176
163, -2249.08, -2516.31, -2821.43, -2395.94, 0.000, 0.000, 0.000, 14:16:00.205
164, -1992.94, -2229.57, -2569.26, -2160.99, 0.000, 0.000, 0.000, 14:16:00.205
165, -1613.67, -1820.17, -2243.25, -1868.33, 0.000, 0.000, 0.000, 14:16:00.206
166, -1967.63, -2212.31, -2594.52, -2186.97, 0.000, 0.000, 0.000, 14:16:00.206
167, -2241.26, -2516.00, -2821.63, -2394.00, 0.000, 0.000, 0.000, 14:16:00.206
168, -1998.34, -2224.91, -2569.98, -2160.50, 0.000, 0.000, 0.000, 14:16:00.206
169, -1618.38, -1824.49, -2244.96, -1868.57, 0.000, 0.000, 0.000, 14:16:00.221
170, -1947.67, -2211.83, -2590.33, -2180.62, 0.000, 0.000, 0.000, 14:16:00.221
171, -2237.52, -2506.44, -2822.31, -2394.02, 0.000, 0.000, 0.000, 14:16:00.235
172, -1999.47, -2215.46, -2572.88, -2155.95, 0.000, 0.000, 0.000, 14:16:00.235
173, -1621.40, -1822.53, -2247.75, -1869.82, 0.000, 0.000, 0.000, 14:16:00.236
174, -1959.85, -2222.61, -2597.56, -2187.39, 0.000, 0.000, 0.000, 14:16:00.236
175, -2240.56, -2519.42, -2823.19, -2386.38, 0.000, 0.000, 0.000, 14:16:00.250
176, -2003.92, -2219.61, -2564.80, -2156.44, 0.000, 0.000, 0.000, 14:16:00.250
177, -1628.96, -1817.11, -2243.34, -1868.36, 0.000, 0.000, 0.000, 14:16:00.266
178, -1955.86, -2210.22, -2591.48, -2192.79, 0.000, 0.000, 0.000, 14:16:00.266
179, -2245.59, -2511.76, -2827.22, -2397.52, 0.000, 0.000, 0.000, 14:16:00.266
180, -1998.03, -2221.02, -2562.57, -2160.34, 0.000, 0.000, 0.000, 14:16:00.267
181, -1631.19, -1833.00, -2250.64, -1875.64, 0.000, 0.000, 0.000, 14:16:00.281
182, -1970.52, -2224.84, -2604.71, -2197.44, 0.000, 0.000, 0.000, 14:16:00.281
183, -2238.81, -2511.52, -2822.43, -2389.06, 0.000, 0.000, 0.000, 14:16:00.296
184, -1978.53, -2204.41, -2551.40, -2152.88, 0.000, 0.000, 0.000, 14:16:00.296
185, -1620.56, -1811.65, -2241.22, -1871.84, 0.000, 0.000, 0.000, 14:16:00.296
186, -1968.66, -2219.85, -2601.97, -2192.54, 0.000, 0.000, 0.000, 14:16:00.296
187, -2253.04, -2503.05, -2814.77, -2391.59, 0.000, 0.000, 0.000, 14:16:00.311
188, -1985.41, -2216.59, -2565.31, -2155.95, 0.000, 0.000, 0.000, 14:16:00.311
189, -1613.26, -1818.28, -2243.62, -1868.61, 0.000, 0.000, 0.000, 14:16:00.326
190, -1954.75, -2225.60, -2596.06, -2193.94, 0.000, 0.000, 0.000, 14:16:00.326
191, -2245.86, -2505.81, -2810.17, -2381.34, 0.000, 0.000, 0.000, 14:16:00.326
192, -1971.12, -2205.67, -2553.53, -2145.72, 0.000, 0.000, 0.000, 14:16:00.326
193, -1625.81, -1820.71, -2242.26, -1860.11, 0.000, 0.000, 0.000, 14:16:00.340
194, -1958.00, -2229.62, -2597.75, -2196.42, 0.000, 0.000, 0.000, 14:16:00.341
195, -2237.25, -2504.35, -2815.62, -2390.11, 0.000, 0.000, 0.000, 14:16:00.355
196, -1975.56, -2206.88, -2549.61, -2157.78, 0.000, 0.000, 0.000, 14:16:00.356
197, -1606.54, -1812.97, -2239.59, -1869.92, 0.000, 0.000, 0.000, 14:16:00.356
198, -1975.11, -2232.39, -2602.52, -2199.61, 0.000, 0.000, 0.000, 14:16:00.356
199, -2261.12, -2508.54, -2813.66, -2392.41, 0.000, 0.000, 0.000, 14:16:00.370
200, -1991.74, -2222.36, -2562.48, -2154.34, 0.000, 0.000, 0.000, 14:16:00.370
0, -1635.05, -1837.82, -2253.89, -1878.14, 0.000, 0.000, 0.000, 14:16:00.371
1, -1986.73, -2245.41, -2613.40, -2210.76, 0.000, 0.000, 0.000, 14:16:00.385
2, -2250.72, -2526.64, -2820.05, -2397.90, 0.000, 0.000, 0.000, 14:16:00.385
3, -1982.22, -2217.42, -2560.14, -2158.53, 0.000, 0.000, 0.000, 14:16:00.400
4, -1622.26, -1826.09, -2234.41, -1869.49, 0.000, 0.000, 0.000, 14:16:00.400
5, -1980.70, -2229.20, -2606.73, -2199.66, 0.000, 0.000, 0.000, 14:16:00.401
6, -2255.73, -2505.31, -2819.17, -2387.39, 0.000, 0.000, 0.000, 14:16:00.401
7, -1981.01, -2197.26, -2556.61, -2150.38, 0.000, 0.000, 0.000, 14:16:00.415
8, -1614.18, -1819.12, -2238.97, -1867.36, 0.000, 0.000, 0.000, 14:16:00.415
9, -1974.69, -2237.50, -2610.09, -2201.83, 0.000, 0.000, 0.000, 14:16:00.430
10, -2240.16, -2502.72, -2807.24, -2386.80, 0.000, 0.000, 0.000, 14:16:00.430
11, -1985.09, -2206.56, -2549.67, -2143.53, 0.000, 0.000, 0.000, 14:16:00.431
12, -1620.79, -1812.68, -2241.05, -1863.39, 0.000, 0.000, 0.000, 14:16:00.431
13, -1986.94, -2238.58, -2616.70, -2205.14, 0.000, 0.000, 0.000, 14:16:00.446
14, -2226.57, -2504.35, -2819.63, -2384.78, 0.000, 0.000, 0.000, 14:16:00.446
15, -1972.67, -2206.54, -2552.88, -2149.98, 0.000, 0.000, 0.000, 14:16:00.461
16, -1628.99, -1830.91, -2245.47, -1873.58, 0.000, 0.000, 0.000, 14:16:00.461
17, -1980.38, -2240.04, -2618.05, -2207.91, 0.000, 0.000, 0.000, 14:16:00.462
18, -2245.57, -2497.51, -2808.69, -2391.55, 0.000, 0.000, 0.000, 14:16:00.462
19, -1980.26, -2202.76, -2541.39, -2146.82, 0.000, 0.000, 0.000, 14:16:00.477
20, -1627.00, -1824.73, -2249.26, -1877.03, 0.000, 0.000, 0.000, 14:16:00.477
21, -1986.32, -2243.30, -2616.98, -2213.16, 0.000, 0.000, 0.000, 14:16:00.491
22, -2239.92, -2507.83, -2814.97, -2388.45, 0.000, 0.000, 0.000, 14:16:00.491
23, -1989.48, -2213.20, -2554.99, -2150.45, 0.000, 0.000, 0.000, 14:16:00.492
24, -1636.56, -1823.99, -2248.71, -1880.86, 0.000, 0.000, 0.000, 14:16:00.492
25, -1992.65, -2237.99, -2619.57, -2214.96, 0.000, 0.000, 0.000, 14:16:00.506
26, -2246.06, -2501.69, -2813.63, -2383.11, 0.000, 0.000, 0.000, 14:16:00.506
27, -1977.82, -2207.82, -2547.29, -2145.74, 0.000, 0.000, 0.000, 14:16:00.520
28, -1615.28, -1809.21, -2241.74, -1866.54, 0.000, 0.000, 0.000, 14:16:00.520
29, -1993.63, -2248.26, -2621.55, -2207.57, 0.000, 0.000, 0.000, 14:16:00.521
30, -2249.18, -2503.62, -2809.87, -2387.22, 0.000, 0.000, 0.000, 14:16:00.521
31, -1967.35, -2195.47, -2542.83, -2141.92, 0.000, 0.000, 0.000, 14:16:00.536
32, -1623.80, -1819.98, -2238.69, -1865.56, 0.000, 0.000, 0.000, 14:16:00.536
33, -1987.86, -2251.91, -2618.39, -2220.22, 0.000, 0.000, 0.000, 14:16:00.551
34, -2248.41, -2501.90, -2807.92, -2384.84, 0.000, 0.000, 0.000, 14:16:00.552
35, -1974.66, -2191.86, -2540.80, -2144.40, 0.000, 0.000, 0.000, 14:16:00.559
36, -1612.09, -1816.75, -2237.45, -1872.21, 0.000, 0.000, 0.000, 14:16:00.559
37, -1991.40, -2246.07, -2616.56, -2214.11, 0.000, 0.000, 0.000, 14:16:00.566
38, -2250.82, -2502.92, -2809.81, -2391.40, 0.000, 0.000, 0.000, 14:16:00.566
39, -1968.73, -2193.99, -2539.52, -2146.57, 0.000, 0.000, 0.000, 14:16:00.581
40, -1627.21, -1821.19, -2246.45, -1874.02, 0.000, 0.000, 0.000, 14:16:00.581
41, -1992.67, -2252.05, -2619.46, -2216.20, 0.000, 0.000, 0.000, 14:16:00.581
42, -2241.08, -2506.78, -2813.80, -2389.56, 0.000, 0.000, 0.000, 14:16:00.581
43, -1977.24, -2199.47, -2544.13, -2140.33, 0.000, 0.000, 0.000, 14:16:00.597
44, -1619.55, -1816.06, -2248.15, -1871.85, 0.000, 0.000, 0.000, 14:16:00.597
45, -2011.01, -2258.25, -2633.55, -2215.87, 0.000, 0.000, 0.000, 14:16:00.610
46, -2250.87, -2505.29, -2809.84, -2388.29, 0.000, 0.000, 0.000, 14:16:00.610
47, -1964.82, -2199.43, -2549.91, -2141.19, 0.000, 0.000, 0.000, 14:16:00.611
48, -1618.89, -1816.95, -2249.53, -1871.39, 0.000, 0.000, 0.000, 14:16:00.612
49, -2001.43, -2261.77, -2631.46, -2218.41, 0.000, 0.000, 0.000, 14:16:00.626
50, -2242.92, -2504.54, -2803.90, -2387.60, 0.000, 0.000, 0.000, 14:16:00.626
51, -1950.71, -2183.51, -2531.10, -2132.41, 0.000, 0.000, 0.000, 14:16:00.641
52, -1619.35, -1818.27, -2237.80, -1869.59, 0.000, 0.000, 0.000, 14:16:00.641
53, -2020.49, -2265.03, -2630.78, -2228.15, 0.000, 0.000, 0.000, 14:16:00.641
54, -2239.03, -2500.84, -2809.24, -2389.98, 0.000, 0.000, 0.000, 14:16:00.642
55, -1972.50, -2183.13, -2527.73, -2134.98, 0.000, 0.000, 0.000, 14:16:00.656
56, -1635.72, -1821.74, -2244.55, -1869.83, 0.000, 0.000, 0.000, 14:16:00.656
57, -2005.36, -2264.08, -2637.01, -2232.70, 0.000, 0.000, 0.000, 14:16:00.671
58, -2247.87, -2496.49, -2812.03, -2384.18, 0.000, 0.000, 0.000, 14:16:00.671
59, -1953.83, -2183.70, -2530.87, -2128.02, 0.000, 0.000, 0.000, 14:16:00.672
60, -1626.02, -1819.87, -2240.09, -1869.33, 0.000, 0.000, 0.000, 14:16:00.672
61, -2010.10, -2268.13, -2631.89, -2225.92, 0.000, 0.000, 0.000, 14:16:00.686
62, -2251.10, -2507.41, -2813.89, -2382.54, 0.000, 0.000, 0.000, 14:16:00.686
63, -1960.47, -2183.46, -2536.66, -2130.22, 0.000, 0.000, 0.000, 14:16:00.700
64, -1622.02, -1819.15, -2244.59, -1870.09, 0.000, 0.000, 0.000, 14:16:00.700
65, -1998.98, -2278.18, -2641.36, -2228.65, 0.000, 0.000, 0.000, 14:16:00.701
66, -2237.80, -2506.19, -2810.05, -2384.56, 0.000, 0.000, 0.000, 14:16:00.701
67, -1964.72, -2178.11, -2531.29, -2131.90, 0.000, 0.000, 0.000, 14:16:00.716
68, -1613.12, -1814.84, -2241.88, -1867.79, 0.000, 0.000, 0.000, 14:16:00.716
69, -2009.79, -2264.52, -2639.70, -2227.42, 0.000, 0.000, 0.000, 14:16:00.731
70, -2238.27, -2504.38, -2811.97, -2376.50, 0.000, 0.000, 0.000, 14:16:00.731
71, -1970.28, -2185.58, -2540.14, -2130.38, 0.000, 0.000, 0.000, 14:16:00.731
72, -1604.46, -1819.01, -2248.97, -1873.17, 0.000, 0.000, 0.000, 14:16:00.731
73, -2019.46, -2278.66, -2645.85, -2237.18, 0.000, 0.000, 0.000, 14:16:00.746
74, -2249.02, -2506.04, -2814.11, -2382.46, 0.000, 0.000, 0.000, 14:16:00.746
75, -1960.76, -2176.77, -2528.56, -2132.83, 0.000, 0.000, 0.000, 14:16:00.760
76, -1622.78, -1822.13, -2243.12, -1870.23, 0.000, 0.000, 0.000, 14:16:00.760
77, -2025.98, -2276.97, -2643.24, -2231.42, 0.000, 0.000, 0.000, 14:16:00.762
78, -2247.08, -2502.86, -2804.65, -2379.26, 0.000, 0.000, 0.000, 14:16:00.762
79, -1958.26, -2176.16, -2536.44, -2122.97, 0.000, 0.000, 0.000, 14:16:00.791
80, -1617.88, -1819.21, -2253.20, -1873.57, 0.000, 0.000, 0.000, 14:16:00.791
81, -2007.54, -2284.24, -2646.62, -2234.19, 0.000, 0.000, 0.000, 14:16:00.791
82, -2236.29, -2502.24, -2808.32, -2374.47, 0.000, 0.000, 0.000, 14:16:00.791
83, -1946.99, -2173.53, -2527.30, -2119.18, 0.000, 0.000, 0.000, 14:16:00.793
84, -1612.18, -1821.33, -2248.22, -1869.97, 0.000, 0.000, 0.000, 14:16:00.793
85, -2016.43, -2274.65, -2651.09, -2237.29, 0.000, 0.000, 0.000, 14:16:00.806
86, -2242.57, -2490.97, -2806.03, -2377.53, 0.000, 0.000, 0.000, 14:16:00.806
87, -1961.46, -2169.35, -2523.43, -2122.17, 0.000, 0.000, 0.000, 14:16:00.820
88, -1609.78, -1825.84, -2248.21, -1871.68, 0.000, 0.000, 0.000, 14:16:00.820
89, -2022.75, -2285.37, -2652.07, -2238.90, 0.000, 0.000, 0.000, 14:16:00.821
90, -2243.27, -2502.04, -2813.14, -2386.13, 0.000, 0.000, 0.000, 14:16:00.821
91, -1962.93, -2168.08, -2530.20, -2123.35, 0.000, 0.000, 0.000, 14:16:00.835
92, -1620.61, -1815.75, -2239.79, -1867.50, 0.000, 0.000, 0.000, 14:16:00.835
93, -2023.89, -2285.29, -2657.31, -2234.80, 0.000, 0.000, 0.000, 14:16:00.851
94, -2237.82, -2501.41, -2807.55, -2380.99, 0.000, 0.000, 0.000, 14:16:00.851
95, -1945.37, -2165.10, -2526.53, -2121.79, 0.000, 0.000, 0.000, 14:16:00.851
96, -1624.39, -1817.92, -2248.68, -1876.06, 0.000, 0.000, 0.000, 14:16:00.852
97, -2038.64, -2281.90, -2653.15, -2247.04, 0.000, 0.000, 0.000, 14:16:00.866
98, -2243.95, -2500.96, -2807.36, -2381.56, 0.000, 0.000, 0.000, 14:16:00.866
99, -1953.51, -2170.94, -2514.47, -2121.85, 0.000, 0.000, 0.000, 14:16:00.880
100, -1608.10, -1812.87, -2242.40, -1870.59, 0.000, 0.000, 0.000, 14:16:00.880
101, -2029.48, -2289.79, -2656.72, -2245.34, 0.000, 0.000, 0.000, 14:16:00.881
102, -2243.72, -2504.85, -2808.63, -2376.02, 0.000, 0.000, 0.000, 14:16:00.881
103, -1945.00, -2169.35, -2522.12, -2115.78, 0.000, 0.000, 0.000, 14:16:00.896
104, -1622.84, -1818.68, -2251.17, -1871.57, 0.000, 0.000, 0.000, 14:16:00.896
105, -2034.96, -2286.74, -2657.18, -2245.81, 0.000, 0.000, 0.000, 14:16:00.910
106, -2239.76, -2495.48, -2807.25, -2379.48, 0.000, 0.000, 0.000, 14:16:00.910
107, -1939.15, -2161.31, -2515.60, -2112.30, 0.000, 0.000, 0.000, 14:16:00.911
108, -1618.97, -1810.76, -2237.68, -1865.36, 0.000, 0.000, 0.000, 14:16:00.913
109, -2028.33, -2292.24, -2658.53, -2245.88, 0.000, 0.000, 0.000, 14:16:00.926
110, -2241.96, -2492.13, -2807.69, -2377.54, 0.000, 0.000, 0.000, 14:16:00.926
111, -1948.78, -2162.71, -2513.51, -2112.76, 0.000, 0.000, 0.000, 14:16:00.940
112, -1615.47, -1811.46, -2243.00, -1870.04, 0.000, 0.000, 0.000, 14:16:00.941
113, -2027.14, -2289.08, -2657.55, -2246.78, 0.000, 0.000, 0.000, 14:16:00.941
114, -2235.06, -2495.68, -2803.87, -2380.90, 0.000, 0.000, 0.000, 14:16:00.941
115, -1924.94, -2158.74, -2508.89, -2111.40, 0.000, 0.000, 0.000, 14:16:00.956
116, -1615.81, -1807.14, -2236.83, -1866.52, 0.000, 0.000, 0.000, 14:16:00.956
117, -2025.00, -2292.45, -2657.74, -2247.10, 0.000, 0.000, 0.000, 14:16:00.971
118, -2231.51, -2486.85, -2798.87, -2374.51, 0.000, 0.000, 0.000, 14:16:00.971
119, -1923.36, -2153.51, -2512.86, -2111.00, 0.000, 0.000, 0.000, 14:16:00.971
120, -1601.98, -1807.39, -2243.81, -1868.15, 0.000, 0.000, 0.000, 14:16:00.971
121, -2043.48, -2300.14, -2664.51, -2254.29, 0.000, 0.000, 0.000, 14:16:00.985
122, -2230.53, -2498.93, -2806.42, -2376.12, 0.000, 0.000, 0.000, 14:16:00.985
123, -1921.87, -2153.99, -2509.90, -2111.00, 0.000, 0.000, 0.000, 14:16:01.001
124, -1618.72, -1828.04, -2251.08, -1871.18, 0.000, 0.000, 0.000, 14:16:01.001
125, -2034.65, -2307.01, -2670.30, -2256.12, 0.000, 0.000, 0.000, 14:16:01.001
126, -2233.49, -2493.09, -2799.72, -2381.56, 0.000, 0.000, 0.000, 14:16:01.001
127, -1919.15, -2147.96, -2503.91, -2113.52, 0.000, 0.000, 0.000, 14:16:01.016
128, -1618.52, -1815.42, -2241.44, -1877.73, 0.000, 0.000, 0.000, 14:16:01.016
129, -2056.42, -2305.32, -2671.94, -2254.94, 0.000, 0.000, 0.000, 14:16:01.030
130, -2230.50, -2497.57, -2804.00, -2376.99, 0.000, 0.000, 0.000, 14:16:01.030
131, -1938.67, -2158.99, -2510.53, -2111.93, 0.000, 0.000, 0.000, 14:16:01.031
132, -1616.87, -1816.38, -2247.02, -1872.62, 0.000, 0.000, 0.000, 14:16:01.031
133, -2049.37, -2310.72, -2663.64, -2261.08, 0.000, 0.000, 0.000, 14:16:01.046
134, -2222.30, -2487.57, -2793.08, -2372.52, 0.000, 0.000, 0.000, 14:16:01.046
135, -1920.51, -2152.79, -2500.84, -2108.59, 0.000, 0.000, 0.000, 14:16:01.060
136, -1614.75, -1820.51, -2241.56, -1877.73, 0.000, 0.000, 0.000, 14:16:01.060
137, -2052.22, -2312.62, -2668.34, -2262.03, 0.000, 0.000, 0.000, 14:16:01.061
138, -2226.59, -2505.94, -2794.54, -2375.31, 0.000, 0.000, 0.000, 14:16:01.062
139, -1915.74, -2175.79, -2492.61, -2106.78, 0.000, 0.000, 0.000, 14:16:01.076
140, -1605.95, -1838.73, -2244.44, -1866.98, 0.000, 0.000, 0.000, 14:16:01.076
141, -2038.29, -2331.43, -2671.49, -2266.23, 0.000, 0.000, 0.000, 14:16:01.091
142, -2200.51, -2526.39, -2789.00, -2363.67, 0.000, 0.000, 0.000, 14:16:01.091
143, -1885.24, -2182.74, -2505.00, -2105.12, 0.000, 0.000, 0.000, 14:16:01.091
144, -1534.11, -1844.96, -2241.25, -1874.06, 0.000, 0.000, 0.000, 14:16:01.091
145, -1982.25, -2360.57, -2666.29, -2252.75, 0.000, 0.000, 0.000, 14:16:01.106
146, -2102.63, -2547.04, -2793.62, -2373.23, 0.000, 0.000, 0.000, 14:16:01.106
147, -1769.89, -2204.52, -2490.29, -2081.89, 0.000, 0.000, 0.000, 14:16:01.135
148, -1419.39, -1903.94, -2232.18, -1855.56, 0.000, 0.000, 0.000, 14:16:01.135
149, -1794.76, -2421.41, -2667.15, -2247.92, 0.000, 0.000, 0.000, 14:16:01.136
150, -1957.13, -2601.14, -2797.09, -2356.05, 0.000, 0.000, 0.000, 14:16:01.136
151, -1634.30, -2263.83, -2501.59, -2080.93, 0.000, 0.000, 0.000, 14:16:01.136
152, -1339.62, -1949.08, -2247.49, -1851.46, 0.000, 0.000, 0.000, 14:16:01.136
153, -1800.50, -2452.33, -2675.70, -2247.60, 0.000, 0.000, 0.000, 14:16:01.137
154, -1981.06, -2623.96, -2795.41, -2352.15, 0.000, 0.000, 0.000, 14:16:01.137
155, -1682.78, -2273.06, -2497.50, -2080.78, 0.000, 0.000, 0.000, 14:16:01.151
156, -1399.39, -1946.27, -2242.81, -1863.22, 0.000, 0.000, 0.000, 14:16:01.151
157, -1860.71, -2437.88, -2677.11, -2254.51, 0.000, 0.000, 0.000, 14:16:01.165
158, -2048.74, -2599.35, -2803.75, -2361.89, 0.000, 0.000, 0.000, 14:16:01.165
159, -1762.67, -2237.20, -2493.26, -2086.33, 0.000, 0.000, 0.000, 14:16:01.180
160, -1489.90, -1908.99, -2249.92, -1867.62, 0.000, 0.000, 0.000, 14:16:01.180
161, -1964.34, -2410.27, -2691.95, -2257.65, 0.000, 0.000, 0.000, 14:16:01.181
162, -2146.98, -2562.04, -2802.48, -2363.62, 0.000, 0.000, 0.000, 14:16:01.181
163, -1868.96, -2184.51, -2508.41, -2096.93, 0.000, 0.000, 0.000, 14:16:01.195
164, -1593.04, -1850.23, -2253.13, -1871.73, 0.000, 0.000, 0.000, 14:16:01.196
165, -2058.99, -2344.69, -2690.50, -2274.44, 0.000, 0.000, 0.000, 14:16:01.211
166, -2254.17, -2503.86, -2810.77, -2377.33, 0.000, 0.000, 0.000, 14:16:01.211
167, -1974.58, -2138.11, -2511.45, -2104.06, 0.000, 0.000, 0.000, 14:16:01.212
168, -1694.46, -1807.67, -2267.92, -1890.83, 0.000, 0.000, 0.000, 14:16:01.213
169, -2162.39, -2296.70, -2693.42, -2285.90, 0.000, 0.000, 0.000, 14:16:01.226
170, -2332.38, -2434.57, -2799.60, -2380.06, 0.000, 0.000, 0.000, 14:16:01.226
171, -2026.30, -2069.84, -2493.99, -2103.91, 0.000, 0.000, 0.000, 14:16:01.241
172, -1746.43, -1742.11, -2250.05, -1885.10, 0.000, 0.000, 0.000, 14:16:01.241
173, -2214.84, -2258.19, -2688.69, -2284.26, 0.000, 0.000, 0.000, 14:16:01.243
174, -2371.86, -2398.62, -2796.53, -2377.61, 0.000, 0.000, 0.000, 14:16:01.243
175, -2068.71, -2044.06, -2493.74, -2101.65, 0.000, 0.000, 0.000, 14:16:01.256
176, -1760.10, -1741.12, -2253.48, -1879.28, 0.000, 0.000, 0.000, 14:16:01.256
177, -2216.09, -2252.06, -2686.42, -2282.38, 0.000, 0.000, 0.000, 14:16:01.271
178, -2368.38, -2405.99, -2796.02, -2384.29, 0.000, 0.000, 0.000, 14:16:01.271
179, -2049.90, -2052.59, -2487.53, -2101.22, 0.000, 0.000, 0.000, 14:16:01.272
180, -1763.04, -1746.10, -2248.64, -1883.79, 0.000, 0.000, 0.000, 14:16:01.272
181, -2197.35, -2262.67, -2694.65, -2283.00, 0.000, 0.000, 0.000, 14:16:01.286
182, -2341.74, -2416.23, -2798.13, -2376.37, 0.000, 0.000, 0.000, 14:16:01.286
183, -2030.73, -2062.32, -2491.43, -2101.30, 0.000, 0.000, 0.000, 14:16:01.300
184, -1720.90, -1756.49, -2252.30, -1884.60, 0.000, 0.000, 0.000, 14:16:01.300
185, -2168.87, -2273.39, -2690.73, -2280.72, 0.000, 0.000, 0.000, 14:16:01.301
186, -2330.86, -2429.85, -2796.15, -2377.96, 0.000, 0.000, 0.000, 14:16:01.301
187, -1988.89, -2075.18, -2485.03, -2094.89, 0.000, 0.000, 0.000, 14:16:01.316
188, -1704.70, -1777.81, -2258.48, -1882.83, 0.000, 0.000, 0.000, 14:16:01.316
189, -2154.71, -2293.57, -2702.19, -2284.78, 0.000, 0.000, 0.000, 14:16:01.331
190, -2308.26, -2437.22, -2792.89, -2372.44, 0.000, 0.000, 0.000, 14:16:01.331
191, -1993.13, -2082.89, -2494.97, -2095.94, 0.000, 0.000, 0.000, 14:16:01.331
192, -1684.72, -1781.55, -2254.34, -1880.09, 0.000, 0.000, 0.000, 14:16:01.331
193, -2137.43, -2310.55, -2703.67, -2288.00, 0.000, 0.000, 0.000, 14:16:01.346
194, -2283.49, -2446.07, -2788.93, -2370.67, 0.000, 0.000, 0.000, 14:16:01.346
195, -1960.31, -2090.51, -2493.31, -2090.60, 0.000, 0.000, 0.000, 14:16:01.360
196, -1664.94, -1794.06, -2251.34, -1880.57, 0.000, 0.000, 0.000, 14:16:01.360
197, -2118.58, -2322.68, -2697.52, -2288.13, 0.000, 0.000, 0.000, 14:16:01.363
198, -2260.59, -2459.30, -2787.41, -2362.69, 0.000, 0.000, 0.000, 14:16:01.363
199, -1939.12, -2098.19, -2482.90, -2086.64, 0.000, 0.000, 0.000, 14:16:01.375
200, -1655.41, -1805.22, -2256.02, -1887.64, 0.000, 0.000, 0.000, 14:16:01.375
0, -2115.94, -2326.44, -2701.33, -2292.08, 0.000, 0.000, 0.000, 14:16:01.376
1, -2239.38, -2459.04, -2784.39, -2369.98, 0.000, 0.000, 0.000, 14:16:01.391
2, -1921.61, -2101.51, -2481.98, -2087.18, 0.000, 0.000, 0.000, 14:16:01.391
3, -1638.83, -1812.15, -2248.98, -1883.76, 0.000, 0.000, 0.000, 14:16:01.406
4, -2105.92, -2335.47, -2704.56, -2292.72, 0.000, 0.000, 0.000, 14:16:01.406
5, -2238.33, -2459.70, -2790.18, -2362.97, 0.000, 0.000, 0.000, 14:16:01.412
6, -1917.40, -2102.57, -2477.21, -2088.86, 0.000, 0.000, 0.000, 14:16:01.413
7, -1645.42, -1818.63, -2249.23, -1884.93, 0.000, 0.000, 0.000, 14:16:01.420
8, -2107.42, -2350.97, -2705.36, -2295.08, 0.000, 0.000, 0.000, 14:16:01.420
9, -2241.55, -2471.72, -2787.16, -2358.95, 0.000, 0.000, 0.000, 14:16:01.451
10, -1896.88, -2105.74, -2474.52, -2080.24, 0.000, 0.000, 0.000, 14:16:01.451
11, -1625.71, -1814.20, -2252.37, -1885.87, 0.000, 0.000, 0.000, 14:16:01.451
12, -2100.00, -2341.99, -2711.61, -2294.50, 0.000, 0.000, 0.000, 14:16:01.451
13, -2239.00, -2471.81, -2784.95, -2364.71, 0.000, 0.000, 0.000, 14:16:01.452
14, -1907.62, -2106.72, -2478.98, -2082.71, 0.000, 0.000, 0.000, 14:16:01.452
15, -1610.49, -1814.84, -2251.78, -1885.14, 0.000, 0.000, 0.000, 14:16:01.453
16, -2093.69, -2349.31, -2711.48, -2292.34, 0.000, 0.000, 0.000, 14:16:01.453
17, -2222.39, -2476.30, -2795.32, -2366.14, 0.000, 0.000, 0.000, 14:16:01.466
18, -1909.05, -2110.02, -2479.21, -2074.77, 0.000, 0.000, 0.000, 14:16:01.466
19, -1638.52, -1818.06, -2260.31, -1883.83, 0.000, 0.000, 0.000, 14:16:01.480
20, -2093.14, -2348.64, -2711.59, -2292.12, 0.000, 0.000, 0.000, 14:16:01.480
21, -2227.85, -2478.80, -2793.34, -2361.32, 0.000, 0.000, 0.000, 14:16:01.496
22, -1900.21, -2107.93, -2480.68, -2074.02, 0.000, 0.000, 0.000, 14:16:01.496
23, -1625.08, -1824.05, -2255.62, -1876.15, 0.000, 0.000, 0.000, 14:16:01.496
24, -2086.08, -2355.29, -2713.62, -2296.18, 0.000, 0.000, 0.000, 14:16:01.496
25, -2226.27, -2474.08, -2783.57, -2363.86, 0.000, 0.000, 0.000, 14:16:01.510
26, -1891.47, -2101.75, -2472.65, -2072.27, 0.000, 0.000, 0.000, 14:16:01.510
27, -1608.85, -1816.20, -2254.06, -1882.52, 0.000, 0.000, 0.000, 14:16:01.526
28, -2085.83, -2352.92, -2710.16, -2297.60, 0.000, 0.000, 0.000, 14:16:01.526
29, -2226.76, -2468.46, -2779.93, -2357.20, 0.000, 0.000, 0.000, 14:16:01.526
30, -1878.39, -2099.72, -2464.69, -2071.89, 0.000, 0.000, 0.000, 14:16:01.526
31, -1620.06, -1818.61, -2258.86, -1880.53, 0.000, 0.000, 0.000, 14:16:01.541
32, -2095.65, -2358.79, -2715.81, -2297.83, 0.000, 0.000, 0.000, 14:16:01.542
33, -2231.92, -2479.74, -2788.90, -2370.57, 0.000, 0.000, 0.000, 14:16:01.557
34, -1883.65, -2097.97, -2465.87, -2076.69, 0.000, 0.000, 0.000, 14:16:01.557
35, -1614.02, -1820.83, -2250.03, -1877.83, 0.000, 0.000, 0.000, 14:16:01.557
36, -2093.92, -2362.19, -2715.30, -2301.88, 0.000, 0.000, 0.000, 14:16:01.557
37, -2231.91, -2476.63, -2795.23, -2365.89, 0.000, 0.000, 0.000, 14:16:01.570
38, -1887.04, -2105.26, -2469.39, -2073.99, 0.000, 0.000, 0.000, 14:16:01.570
39, -1615.08, -1829.24, -2262.30, -1883.77, 0.000, 0.000, 0.000, 14:16:01.585
40, -2091.45, -2361.02, -2713.42, -2296.34, 0.000, 0.000, 0.000, 14:16:01.585
41, -2222.07, -2472.31, -2786.55, -2357.58, 0.000, 0.000, 0.000, 14:16:01.586
42, -1883.14, -2095.66, -2468.96, -2070.55, 0.000, 0.000, 0.000, 14:16:01.586
43, -1613.49, -1827.33, -2256.24, -1883.45, 0.000, 0.000, 0.000, 14:16:01.601
44, -2084.56, -2362.19, -2711.03, -2300.84, 0.000, 0.000, 0.000, 14:16:01.601
45, -2215.33, -2469.48, -2777.04, -2354.54, 0.000, 0.000, 0.000, 14:16:01.615
46, -1888.89, -2098.05, -2464.08, -2068.85, 0.000, 0.000, 0.000, 14:16:01.615
47, -1627.45, -1832.73, -2264.23, -1885.93, 0.000, 0.000, 0.000, 14:16:01.617
48, -2103.84, -2366.74, -2720.35, -2306.23, 0.000, 0.000, 0.000, 14:16:01.617
49, -2226.37, -2474.59, -2786.09, -2360.92, 0.000, 0.000, 0.000, 14:16:01.631
50, -1876.41, -2095.13, -2461.90, -2067.81, 0.000, 0.000, 0.000, 14:16:01.631
51, -1621.07, -1835.81, -2262.83, -1889.24, 0.000, 0.000, 0.000, 14:16:01.646
52, -2116.75, -2379.75, -2730.38, -2310.73, 0.000, 0.000, 0.000, 14:16:01.646
53, -2216.43, -2476.74, -2781.23, -2368.77, 0.000, 0.000, 0.000, 14:16:01.646
54, -1889.91, -2097.89, -2463.27, -2069.85, 0.000, 0.000, 0.000, 14:16:01.646
55, -1613.43, -1839.39, -2257.15, -1889.68, 0.000, 0.000, 0.000, 14:16:01.661
56, -2112.59, -2386.40, -2723.08, -2313.34, 0.000, 0.000, 0.000, 14:16:01.661
57, -2220.70, -2477.27, -2784.12, -2360.76, 0.000, 0.000, 0.000, 14:16:01.676
58, -1872.57, -2090.71, -2457.48, -2064.29, 0.000, 0.000, 0.000, 14:16:01.676
59, -1624.73, -1842.41, -2260.96, -1885.90, 0.000, 0.000, 0.000, 14:16:01.677
60, -2108.23, -2376.92, -2724.19, -2314.58, 0.000, 0.000, 0.000, 14:16:01.677
61, -2216.99, -2475.58, -2773.76, -2358.98, 0.000, 0.000, 0.000, 14:16:01.691
62, -1884.50, -2094.12, -2462.73, -2068.82, 0.000, 0.000, 0.000, 14:16:01.691
63, -1623.51, -1833.70, -2257.94, -1886.81, 0.000, 0.000, 0.000, 14:16:01.706
64, -2106.64, -2379.50, -2718.93, -2312.04, 0.000, 0.000, 0.000, 14:16:01.706
65, -2214.39, -2474.19, -2778.76, -2351.72, 0.000, 0.000, 0.000, 14:16:01.706
66, -1867.67, -2091.79, -2450.97, -2063.58, 0.000, 0.000, 0.000, 14:16:01.706
67, -1625.78, -1832.57, -2251.62, -1880.93, 0.000, 0.000, 0.000, 14:16:01.720
68, -2100.92, -2375.86, -2723.36, -2303.14, 0.000, 0.000, 0.000, 14:16:01.720
69, -2201.75, -2464.76, -2769.66, -2354.21, 0.000, 0.000, 0.000, 14:16:01.735
70, -1864.42, -2082.56, -2456.47, -2062.03, 0.000, 0.000, 0.000, 14:16:01.735
71, -1617.82, -1833.26, -2257.12, -1884.28, 0.000, 0.000, 0.000, 14:16:01.736
72, -2108.84, -2379.37, -2728.21, -2317.60, 0.000, 0.000, 0.000, 14:16:01.736
73, -2206.29, -2468.53, -2779.50, -2356.30, 0.000, 0.000, 0.000, 14:16:01.750
74, -1879.02, -2087.58, -2459.71, -2061.67, 0.000, 0.000, 0.000, 14:16:01.750
75, -1622.41, -1834.49, -2259.00, -1887.06, 0.000, 0.000, 0.000, 14:16:01.766
76, -2112.80, -2391.36, -2737.21, -2312.25, 0.000, 0.000, 0.000, 14:16:01.766
77, -2207.63, -2473.24, -2775.90, -2350.21, 0.000, 0.000, 0.000, 14:16:01.766
78, -1872.70, -2088.79, -2450.03, -2053.56, 0.000, 0.000, 0.000, 14:16:01.767
79, -1613.37, -1830.51, -2260.32, -1891.55, 0.000, 0.000, 0.000, 14:16:01.787
80, -2119.70, -2392.77, -2734.34, -2314.55, 0.000, 0.000, 0.000, 14:16:01.787
81, -2216.76, -2473.07, -2782.16, -2351.13, 0.000, 0.000, 0.000, 14:16:01.796
82, -1869.69, -2085.78, -2451.88, -2059.76, 0.000, 0.000, 0.000, 14:16:01.796
83, -1628.61, -1845.27, -2263.44, -1885.41, 0.000, 0.000, 0.000, 14:16:01.796
84, -2111.21, -2381.51, -2719.51, -2311.52, 0.000, 0.000, 0.000, 14:16:01.796
85, -2209.58, -2470.13, -2773.70, -2351.05, 0.000, 0.000, 0.000, 14:16:01.810
86, -1864.01, -2076.48, -2443.63, -2058.99, 0.000, 0.000, 0.000, 14:16:01.811
87, -1616.47, -1840.17, -2261.66, -1895.41, 0.000, 0.000, 0.000, 14:16:01.826
88, -2120.07, -2393.46, -2736.17, -2321.22, 0.000, 0.000, 0.000, 14:16:01.826
89, -2214.02, -2458.37, -2774.49, -2354.01, 0.000, 0.000, 0.000, 14:16:01.826
90, -1860.68, -2085.65, -2446.50, -2059.26, 0.000, 0.000, 0.000, 14:16:01.826
91, -1623.26, -1836.72, -2268.66, -1893.07, 0.000, 0.000, 0.000, 14:16:01.841
92, -2128.78, -2394.38, -2742.89, -2324.48, 0.000, 0.000, 0.000, 14:16:01.841
93, -2212.24, -2469.69, -2778.52, -2350.55, 0.000, 0.000, 0.000, 14:16:01.856
94, -1874.91, -2078.52, -2453.50, -2055.91, 0.000, 0.000, 0.000, 14:16:01.856
95, -1631.67, -1847.56, -2272.96, -1896.36, 0.000, 0.000, 0.000, 14:16:01.856
96, -2119.87, -2394.56, -2740.19, -2318.23, 0.000, 0.000, 0.000, 14:16:01.857
97, -2210.97, -2461.54, -2775.44, -2349.66, 0.000, 0.000, 0.000, 14:16:01.870
98, -1872.88, -2080.35, -2452.78, -2050.26, 0.000, 0.000, 0.000, 14:16:01.870
99, -1637.04, -1842.59, -2270.68, -1894.64, 0.000, 0.000, 0.000, 14:16:01.885
100, -2126.92, -2388.12, -2735.61, -2321.29, 0.000, 0.000, 0.000, 14:16:01.885
101, -2216.22, -2459.39, -2782.70, -2357.29, 0.000, 0.000, 0.000, 14:16:01.886
102, -1873.56, -2076.41, -2449.21, -2050.14, 0.000, 0.000, 0.000, 14:16:01.886
103, -1641.02, -1844.63, -2274.45, -1899.43, 0.000, 0.000, 0.000, 14:16:01.900
104, -2131.16, -2403.96, -2741.89, -2331.20, 0.000, 0.000, 0.000, 14:16:01.900
105, -2216.19, -2475.41, -2774.29, -2354.53, 0.000, 0.000, 0.000, 14:16:01.916
106, -1865.26, -2075.64, -2442.95, -2053.45, 0.000, 0.000, 0.000, 14:16:01.916
107, -1638.17, -1842.60, -2270.34, -1898.26, 0.000, 0.000, 0.000, 14:16:01.917
108, -2128.41, -2397.28, -2744.14, -2319.63, 0.000, 0.000, 0.000, 14:16:01.917
109, -2207.41, -2459.14, -2775.95, -2351.07, 0.000, 0.000, 0.000, 14:16:01.931
110, -1861.05, -2071.20, -2446.09, -2050.00, 0.000, 0.000, 0.000, 14:16:01.931
111, -1630.01, -1840.20, -2275.17, -1900.36, 0.000, 0.000, 0.000, 14:16:01.946
112, -2133.09, -2401.42, -2746.13, -2329.46, 0.000, 0.000, 0.000, 14:16:01.946
113, -2202.28, -2457.94, -2771.16, -2346.94, 0.000, 0.000, 0.000, 14:16:01.946
114, -1849.00, -2070.02, -2443.60, -2044.61, 0.000, 0.000, 0.000, 14:16:01.947
115, -1617.36, -1840.83, -2266.79, -1893.32, 0.000, 0.000, 0.000, 14:16:01.961
116, -2128.68, -2401.49, -2748.36, -2331.82, 0.000, 0.000, 0.000, 14:16:01.961
117, -2218.24, -2458.66, -2772.91, -2346.15, 0.000, 0.000, 0.000, 14:16:01.975
118, -1861.65, -2069.41, -2439.95, -2043.22, 0.000, 0.000, 0.000, 14:16:01.975
119, -1636.23, -1843.26, -2271.13, -1896.51, 0.000, 0.000, 0.000, 14:16:01.976
120, -2134.10, -2400.40, -2744.82, -2326.84, 0.000, 0.000, 0.000, 14:16:01.976
121, -2206.78, -2455.90, -2771.61, -2351.70, 0.000, 0.000, 0.000, 14:16:01.991
122, -1847.31, -2070.58, -2438.94, -2044.20, 0.000, 0.000, 0.000, 14:16:01.991
123, -1632.86, -1849.54, -2279.15, -1900.68, 0.000, 0.000, 0.000, 14:16:02.006
124, -2137.23, -2412.50, -2751.55, -2334.86, 0.000, 0.000, 0.000, 14:16:02.006
125, -2207.23, -2462.94, -2779.70, -2352.04, 0.000, 0.000, 0.000, 14:16:02.007
126, -1857.87, -2072.11, -2449.46, -2048.54, 0.000, 0.000, 0.000, 14:16:02.007
127, -1633.67, -1862.45, -2278.85, -1902.39, 0.000, 0.000, 0.000, 14:16:02.020
128, -2121.69, -2411.42, -2750.05, -2325.42, 0.000, 0.000, 0.000, 14:16:02.020
129, -2187.76, -2453.23, -2755.47, -2336.55, 0.000, 0.000, 0.000, 14:16:02.036
130, -1826.61, -2049.68, -2425.88, -2030.91, 0.000, 0.000, 0.000, 14:16:02.036
131, -1628.75, -1833.79, -2260.85, -1892.58, 0.000, 0.000, 0.000, 14:16:02.036
132, -2137.64, -2401.55, -2751.75, -2329.66, 0.000, 0.000, 0.000, 14:16:02.036
133, -2205.58, -2451.74, -2766.00, -2346.33, 0.000, 0.000, 0.000, 14:16:02.051
134, -1852.61, -2062.12, -2432.53, -2040.60, 0.000, 0.000, 0.000, 14:16:02.051
135, -1635.11, -1856.74, -2278.81, -1898.29, 0.000, 0.000, 0.000, 14:16:02.065
136, -2143.14, -2415.01, -2750.58, -2323.97, 0.000, 0.000, 0.000, 14:16:02.065
137, -2214.25, -2454.36, -2771.44, -2343.55, 0.000, 0.000, 0.000, 14:16:02.066
138, -1848.01, -2056.06, -2427.83, -2031.38, 0.000, 0.000, 0.000, 14:16:02.066
139, -1636.49, -1848.65, -2279.22, -1896.07, 0.000, 0.000, 0.000, 14:16:02.081
140, -2129.57, -2400.78, -2753.52, -2330.06, 0.000, 0.000, 0.000, 14:16:02.081
141, -2193.89, -2455.03, -2767.50, -2339.65, 0.000, 0.000, 0.000, 14:16:02.096
142, -1852.18, -2059.10, -2427.01, -2030.65, 0.000, 0.000, 0.000, 14:16:02.096
143, -1625.70, -1844.84, -2271.18, -1898.68, 0.000, 0.000, 0.000, 14:16:02.096
144, -2144.63, -2415.42, -2753.77, -2336.42, 0.000, 0.000, 0.000, 14:16:02.096
145, -2199.27, -2445.35, -2764.85, -2342.27, 0.000, 0.000, 0.000, 14:16:02.111
146, -1842.77, -2056.74, -2431.08, -2037.76, 0.000, 0.000, 0.000, 14:16:02.111
147, -1639.02, -1853.83, -2283.98, -1901.95, 0.000, 0.000, 0.000, 14:16:02.126
148, -2153.52, -2415.55, -2763.29, -2334.54, 0.000, 0.000, 0.000, 14:16:02.126
149, -2196.98, -2457.58, -2766.09, -2341.12, 0.000, 0.000, 0.000, 14:16:02.126
150, -1833.22, -2051.41, -2424.74, -2034.92, 0.000, 0.000, 0.000, 14:16:02.126
151, -1644.61, -1855.67, -2281.51, -1902.48, 0.000, 0.000, 0.000, 14:16:02.141
152, -2151.35, -2415.46, -2762.07, -2338.91, 0.000, 0.000, 0.000, 14:16:02.142
153, -2202.44, -2455.68, -2771.92, -2345.74, 0.000, 0.000, 0.000, 14:16:02.155
154, -1843.38, -2059.67, -2430.68, -2032.14, 0.000, 0.000, 0.000, 14:16:02.155
155, -1630.39, -1850.29, -2279.97, -1901.42, 0.000, 0.000, 0.000, 14:16:02.170
156, -2152.17, -2426.91, -2765.09, -2348.63, 0.000, 0.000, 0.000, 14:16:02.170
157, -2200.75, -2450.11, -2762.90, -2341.83, 0.000, 0.000, 0.000, 14:16:02.171
158, -1841.12, -2047.52, -2421.24, -2032.72, 0.000, 0.000, 0.000, 14:16:02.171
159, -1643.87, -1859.25, -2282.53, -1910.13, 0.000, 0.000, 0.000, 14:16:02.185
160, -2148.71, -2425.72, -2763.53, -2346.01, 0.000, 0.000, 0.000, 14:16:02.185
161, -2202.22, -2466.16, -2770.52, -2348.53, 0.000, 0.000, 0.000, 14:16:02.186
162, -1839.56, -2054.56, -2424.79, -2036.66, 0.000, 0.000, 0.000, 14:16:02.186
163, -1645.26, -1856.78, -2282.69, -1903.70, 0.000, 0.000, 0.000, 14:16:02.216
164, -2159.49, -2420.86, -2763.45, -2346.96, 0.000, 0.000, 0.000, 14:16:02.216
165, -2194.76, -2445.18, -2763.10, -2342.25, 0.000, 0.000, 0.000, 14:16:02.216
166, -1834.56, -2043.74, -2421.85, -2025.15, 0.000, 0.000, 0.000, 14:16:02.216
167, -1638.89, -1859.94, -2285.82, -1903.97, 0.000, 0.000, 0.000, 14:16:02.217
168, -2151.28, -2424.77, -2766.75, -2339.47, 0.000, 0.000, 0.000, 14:16:02.217
169, -2186.01, -2441.72, -2757.98, -2333.14, 0.000, 0.000, 0.000, 14:16:02.237
170, -1826.32, -2046.64, -2416.50, -2029.28, 0.000, 0.000, 0.000, 14:16:02.237
171, -1646.65, -1865.30, -2288.79, -1907.82, 0.000, 0.000, 0.000, 14:16:02.245
172, -2151.04, -2424.73, -2764.49, -2344.05, 0.000, 0.000, 0.000, 14:16:02.245
173, -2191.86, -2450.91, -2758.27, -2337.34, 0.000, 0.000, 0.000, 14:16:02.246
174, -1833.69, -2045.46, -2419.58, -2021.40, 0.000, 0.000, 0.000, 14:16:02.246
175, -1633.66, -1855.39, -2283.07, -1907.87, 0.000, 0.000, 0.000, 14:16:02.260
176, -2162.63, -2435.13, -2765.25, -2342.64, 0.000, 0.000, 0.000, 14:16:02.260
177, -2188.53, -2444.62, -2753.14, -2342.39, 0.000, 0.000, 0.000, 14:16:02.275
178, -1830.99, -2043.25, -2414.72, -2028.79, 0.000, 0.000, 0.000, 14:16:02.275
179, -1663.10, -1863.22, -2291.43, -1909.86, 0.000, 0.000, 0.000, 14:16:02.276
180, -2156.29, -2427.43, -2771.87, -2355.14, 0.000, 0.000, 0.000, 14:16:02.276
181, -2178.04, -2449.97, -2759.81, -2334.17, 0.000, 0.000, 0.000, 14:16:02.292
182, -1832.41, -2044.15, -2417.47, -2030.87, 0.000, 0.000, 0.000, 14:16:02.292
183, -1651.60, -1861.81, -2289.22, -1909.01, 0.000, 0.000, 0.000, 14:16:02.306
184, -2155.56, -2433.84, -2769.81, -2346.49, 0.000, 0.000, 0.000, 14:16:02.307
185, -2196.46, -2443.88, -2765.20, -2332.58, 0.000, 0.000, 0.000, 14:16:02.307
186, -1814.44, -2035.35, -2411.74, -2023.91, 0.000, 0.000, 0.000, 14:16:02.307
187, -1646.65, -1857.34, -2285.90, -1914.37, 0.000, 0.000, 0.000, 14:16:02.320
188, -2166.60, -2432.65, -2769.03, -2349.10, 0.000, 0.000, 0.000, 14:16:02.320
189, -2193.95, -2441.19, -2760.03, -2338.45, 0.000, 0.000, 0.000, 14:16:02.336
190, -1815.26, -2032.36, -2412.18, -2017.91, 0.000, 0.000, 0.000, 14:16:02.336
191, -1642.43, -1860.50, -2288.11, -1906.06, 0.000, 0.000, 0.000, 14:16:02.350
192, -2153.06, -2433.42, -2768.40, -2344.57, 0.000, 0.000, 0.000, 14:16:02.350
193, -2188.26, -2448.82, -2754.71, -2332.53, 0.000, 0.000, 0.000, 14:16:02.352
194, -1817.32, -2020.52, -2405.49, -2021.16, 0.000, 0.000, 0.000, 14:16:02.352
195, -1653.03, -1863.31, -2293.07, -1912.50, 0.000, 0.000, 0.000, 14:16:02.366
196, -2171.51, -2437.69, -2769.90, -2350.99, 0.000, 0.000, 0.000, 14:16:02.366
197, -2201.48, -2442.64, -2763.61, -2340.81, 0.000, 0.000, 0.000, 14:16:02.366
198, -1825.72, -2023.18, -2404.96, -2023.39, 0.000, 0.000, 0.000, 14:16:02.366
199, -1672.12, -1868.32, -2290.33, -1920.58, 0.000, 0.000, 0.000, 14:16:02.381
200, -2174.04, -2446.21, -2781.94, -2362.10, 0.000, 0.000, 0.000, 14:16:02.381
0, -2203.86, -2444.32, -2754.46, -2337.02, 0.000, 0.000, 0.000, 14:16:02.382
1, -1817.80, -2031.43, -2409.40, -2021.93, 0.000, 0.000, 0.000, 14:16:02.396
2, -1658.02, -1873.42, -2292.82, -1922.02, 0.000, 0.000, 0.000, 14:16:02.396
3, -2174.91, -2437.85, -2772.87, -2356.80, 0.000, 0.000, 0.000, 14:16:02.426
4, -2203.55, -2443.80, -2761.30, -2335.80, 0.000, 0.000, 0.000, 14:16:02.426
5, -1822.56, -2024.85, -2402.19, -2013.81, 0.000, 0.000, 0.000, 14:16:02.427
6, -1660.15, -1864.90, -2284.72, -1918.55, 0.000, 0.000, 0.000, 14:16:02.427
7, -2153.88, -2441.76, -2781.65, -2355.94, 0.000, 0.000, 0.000, 14:16:02.428
8, -2175.43, -2441.30, -2749.93, -2326.99, 0.000, 0.000, 0.000, 14:16:02.428
9, -1809.51, -2024.50, -2400.24, -2015.83, 0.000, 0.000, 0.000, 14:16:02.428
10, -1651.53, -1875.90, -2293.13, -1917.82, 0.000, 0.000, 0.000, 14:16:02.429
11, -2175.93, -2439.00, -2773.42, -2349.66, 0.000, 0.000, 0.000, 14:16:02.441
12, -2180.45, -2432.22, -2748.52, -2327.11, 0.000, 0.000, 0.000, 14:16:02.441
13, -1804.18, -2016.72, -2393.16, -2009.64, 0.000, 0.000, 0.000, 14:16:02.456
14, -1646.30, -1869.24, -2289.21, -1915.54, 0.000, 0.000, 0.000, 14:16:02.456
15, -2170.60, -2448.27, -2779.23, -2356.57, 0.000, 0.000, 0.000, 14:16:02.471
16, -2202.72, -2436.97, -2749.45, -2328.24, 0.000, 0.000, 0.000, 14:16:02.471
17, -1808.22, -2020.73, -2400.22, -2011.64, 0.000, 0.000, 0.000, 14:16:02.485
18, -1652.49, -1870.22, -2291.40, -1919.69, 0.000, 0.000, 0.000, 14:16:02.486
19, -2173.69, -2449.24, -2781.89, -2354.79, 0.000, 0.000, 0.000, 14:16:02.486
20, -2188.67, -2434.31, -2748.36, -2328.63, 0.000, 0.000, 0.000, 14:16:02.486
21, -1813.99, -2017.45, -2400.34, -2010.24, 0.000, 0.000, 0.000, 14:16:02.501
22, -1650.79, -1867.48, -2295.85, -1920.41, 0.000, 0.000, 0.000, 14:16:02.501
23, -2177.78, -2437.63, -2781.81, -2359.94, 0.000, 0.000, 0.000, 14:16:02.508
24, -2193.94, -2432.89, -2754.65, -2336.02, 0.000, 0.000, 0.000, 14:16:02.509
25, -1804.70, -2020.47, -2395.95, -2011.69, 0.000, 0.000, 0.000, 14:16:02.515
26, -1647.69, -1876.40, -2297.08, -1920.95, 0.000, 0.000, 0.000, 14:16:02.515
27, -2176.13, -2459.27, -2787.61, -2363.99, 0.000, 0.000, 0.000, 14:16:02.531
28, -2196.90, -2439.36, -2754.89, -2329.69, 0.000, 0.000, 0.000, 14:16:02.531
29, -1817.92, -2018.24, -2402.16, -2008.95, 0.000, 0.000, 0.000, 14:16:02.531
30, -1668.87, -1875.98, -2302.81, -1924.72, 0.000, 0.000, 0.000, 14:16:02.531
31, -2179.59, -2449.96, -2783.19, -2359.50, 0.000, 0.000, 0.000, 14:16:02.546
32, -2185.91, -2436.60, -2758.78, -2330.58, 0.000, 0.000, 0.000, 14:16:02.546
33, -1819.01, -2011.91, -2397.84, -2007.59, 0.000, 0.000, 0.000, 14:16:02.561
34, -1661.89, -1871.04, -2302.04, -1920.55, 0.000, 0.000, 0.000, 14:16:02.561
35, -2173.75, -2451.46, -2787.16, -2362.28, 0.000, 0.000, 0.000, 14:16:02.576
36, -2190.79, -2431.52, -2755.64, -2329.53, 0.000, 0.000, 0.000, 14:16:02.576
37, -1802.02, -2015.52, -2393.76, -2013.11, 0.000, 0.000, 0.000, 14:16:02.576
38, -1672.30, -1886.53, -2309.10, -1932.96, 0.000, 0.000, 0.000, 14:16:02.576
39, -2187.26, -2455.64, -2786.28, -2361.82, 0.000, 0.000, 0.000, 14:16:02.579
40, -2187.64, -2426.42, -2741.99, -2326.29, 0.000, 0.000, 0.000, 14:16:02.579
41, -1808.30, -2006.06, -2390.46, -2007.40, 0.000, 0.000, 0.000, 14:16:02.591
42, -1667.95, -1881.67, -2298.29, -1932.14, 0.000, 0.000, 0.000, 14:16:02.591
43, -2195.20, -2454.44, -2785.77, -2365.52, 0.000, 0.000, 0.000, 14:16:02.605
44, -2183.79, -2429.28, -2750.28, -2322.11, 0.000, 0.000, 0.000, 14:16:02.605
45, -1794.43, -2010.26, -2389.43, -2003.45, 0.000, 0.000, 0.000, 14:16:02.620
46, -1653.13, -1882.88, -2303.34, -1925.23, 0.000, 0.000, 0.000, 14:16:02.620
47, -2188.22, -2457.11, -2788.49, -2365.45, 0.000, 0.000, 0.000, 14:16:02.621
48, -2174.35, -2438.08, -2753.51, -2327.90, 0.000, 0.000, 0.000, 14:16:02.621
49, -1793.50, -2006.87, -2383.43, -1995.98, 0.000, 0.000, 0.000, 14:16:02.636
50, -1667.37, -1884.75, -2313.62, -1924.82, 0.000, 0.000, 0.000, 14:16:02.636
51, -2193.85, -2463.78, -2797.42, -2367.01, 0.000, 0.000, 0.000, 14:16:02.650
52, -2166.76, -2435.02, -2743.78, -2325.91, 0.000, 0.000, 0.000, 14:16:02.650
53, -1792.92, -2009.43, -2395.04, -2003.07, 0.000, 0.000, 0.000, 14:16:02.651
54, -1673.80, -1880.85, -2307.98, -1925.56, 0.000, 0.000, 0.000, 14:16:02.651
55, -2198.59, -2463.45, -2793.90, -2369.87, 0.000, 0.000, 0.000, 14:16:02.665
56, -2186.97, -2429.34, -2746.96, -2325.43, 0.000, 0.000, 0.000, 14:16:02.665
57, -1806.00, -2006.22, -2384.43, -2003.62, 0.000, 0.000, 0.000, 14:16:02.681
58, -1673.99, -1891.96, -2307.55, -1934.87, 0.000, 0.000, 0.000, 14:16:02.681
59, -2192.64, -2465.53, -2793.03, -2373.30, 0.000, 0.000, 0.000, 14:16:02.711
60, -2179.34, -2428.04, -2740.30, -2326.38, 0.000, 0.000, 0.000, 14:16:02.711
61, -1804.49, -2006.22, -2382.20, -2000.05, 0.000, 0.000, 0.000, 14:16:02.711
62, -1663.78, -1880.86, -2303.26, -1933.35, 0.000, 0.000, 0.000, 14:16:02.712
63, -2191.32, -2456.89, -2792.11, -2368.11, 0.000, 0.000, 0.000, 14:16:02.712
64, -2174.59, -2431.50, -2740.37, -2323.12, 0.000, 0.000, 0.000, 14:16:02.712
65, -1787.82, -1996.19, -2378.94, -1998.92, 0.000, 0.000, 0.000, 14:16:02.713
66, -1674.63, -1888.26, -2309.75, -1932.75, 0.000, 0.000, 0.000, 14:16:02.713
67, -2187.91, -2462.27, -2796.04, -2367.68, 0.000, 0.000, 0.000, 14:16:02.725
68, -2171.04, -2423.54, -2743.81, -2319.86, 0.000, 0.000, 0.000, 14:16:02.725
69, -1791.48, -2006.34, -2382.65, -1992.57, 0.000, 0.000, 0.000, 14:16:02.741
70, -1664.59, -1888.78, -2307.46, -1932.06, 0.000, 0.000, 0.000, 14:16:02.742
71, -2190.72, -2466.26, -2797.02, -2369.24, 0.000, 0.000, 0.000, 14:16:02.742
72, -2177.70, -2422.00, -2737.60, -2316.56, 0.000, 0.000, 0.000, 14:16:02.742
73, -1796.33, -1996.54, -2384.68, -1993.32, 0.000, 0.000, 0.000, 14:16:02.756
74, -1673.82, -1890.18, -2320.20, -1931.10, 0.000, 0.000, 0.000, 14:16:02.756
75, -2178.84, -2467.42, -2798.67, -2366.13, 0.000, 0.000, 0.000, 14:16:02.770
76, -2179.16, -2420.69, -2736.70, -2315.49, 0.000, 0.000, 0.000, 14:16:02.770
77, -1773.35, -1992.26, -2382.65, -1995.61, 0.000, 0.000, 0.000, 14:16:02.771
78, -1663.71, -1898.88, -2324.68, -1935.69, 0.000, 0.000, 0.000, 14:16:02.771
79, -2200.02, -2477.38, -2809.48, -2378.62, 0.000, 0.000, 0.000, 14:16:02.816
80, -2178.70, -2440.80, -2754.63, -2320.17, 0.000, 0.000, 0.000, 14:16:02.816
81, -1784.27, -2001.21, -2384.97, -1997.13, 0.000, 0.000, 0.000, 14:16:02.816
82, -1669.07, -1892.66, -2317.19, -1939.25, 0.000, 0.000, 0.000, 14:16:02.816
83, -2185.43, -2457.56, -2783.24, -2369.77, 0.000, 0.000, 0.000, 14:16:02.817
84, -2154.58, -2417.32, -2733.59, -2312.77, 0.000, 0.000, 0.000, 14:16:02.817
85, -1784.40, -1989.52, -2375.45, -1993.26, 0.000, 0.000, 0.000, 14:16:02.817
86, -1678.92, -1888.57, -2316.05, -1936.70, 0.000, 0.000, 0.000, 14:16:02.817
87, -2189.85, -2462.07, -2794.58, -2371.09, 0.000, 0.000, 0.000, 14:16:02.818
88, -2178.25, -2421.62, -2742.56, -2314.39, 0.000, 0.000, 0.000, 14:16:02.818
89, -1784.00, -1989.36, -2375.60, -1985.76, 0.000, 0.000, 0.000, 14:16:02.830
90, -1676.64, -1897.19, -2319.09, -1941.89, 0.000, 0.000, 0.000, 14:16:02.831
91, -2199.68, -2474.04, -2795.31, -2375.75, 0.000, 0.000, 0.000, 14:16:02.861
92, -2164.80, -2416.64, -2730.53, -2311.27, 0.000, 0.000, 0.000, 14:16:02.861
93, -1785.06, -1979.17, -2365.31, -1975.27, 0.000, 0.000, 0.000, 14:16:02.876
94, -1672.15, -1896.93, -2311.39, -1938.70, 0.000, 0.000, 0.000, 14:16:02.876
95, -2197.74, -2470.74, -2799.07, -2375.37, 0.000, 0.000, 0.000, 14:16:02.876
96, -2162.24, -2417.22, -2735.27, -2313.27, 0.000, 0.000, 0.000, 14:16:02.876
97, -1778.19, -1988.64, -2369.88, -1987.39, 0.000, 0.000, 0.000, 14:16:02.877
98, -1671.68, -1896.33, -2317.21, -1941.82, 0.000, 0.000, 0.000, 14:16:02.878
99, -2196.92, -2467.83, -2800.31, -2380.53, 0.000, 0.000, 0.000, 14:16:02.884
100, -2171.38, -2417.38, -2731.99, -2315.71, 0.000, 0.000, 0.000, 14:16:02.884
101, -1768.20, -1984.36, -2369.65, -1981.83, 0.000, 0.000, 0.000, 14:16:02.906
102, -1688.27, -1902.43, -2324.16, -1948.57, 0.000, 0.000, 0.000, 14:16:02.907
103, -2200.02, -2474.58, -2802.19, -2375.95, 0.000, 0.000, 0.000, 14:16:02.907
104, -2164.78, -2418.24, -2736.61, -2312.23, 0.000, 0.000, 0.000, 14:16:02.907
105, -1770.31, -1977.20, -2364.54, -1979.70, 0.000, 0.000, 0.000, 14:16:02.907
106, -1687.61, -1902.03, -2325.50, -1945.64, 0.000, 0.000, 0.000, 14:16:02.907
107, -2200.96, -2472.78, -2809.68, -2377.36, 0.000, 0.000, 0.000, 14:16:02.920
108, -2157.91, -2418.31, -2730.31, -2317.12, 0.000, 0.000, 0.000, 14:16:02.920
109, -1772.46, -1979.23, -2365.50, -1981.24, 0.000, 0.000, 0.000, 14:16:02.936
110, -1686.13, -1908.00, -2325.96, -1950.31, 0.000, 0.000, 0.000, 14:16:02.936
111, -2211.23, -2492.30, -2808.52, -2386.15, 0.000, 0.000, 0.000, 14:16:02.950
112, -2168.39, -2420.09, -2728.72, -2317.95, 0.000, 0.000, 0.000, 14:16:02.950
113, -1774.47, -1987.33, -2365.15, -1978.40, 0.000, 0.000, 0.000, 14:16:02.966
114, -1678.64, -1909.52, -2327.18, -1951.32, 0.000, 0.000, 0.000, 14:16:02.966
115, -2210.08, -2473.08, -2807.95, -2381.62, 0.000, 0.000, 0.000, 14:16:02.967
116, -2168.14, -2411.99, -2732.90, -2313.78, 0.000, 0.000, 0.000, 14:16:02.967
117, -1782.49, -1988.85, -2368.66, -1988.67, 0.000, 0.000, 0.000, 14:16:02.968
118, -1692.84, -1913.65, -2328.65, -1947.87, 0.000, 0.000, 0.000, 14:16:02.968
119, -2203.35, -2483.51, -2810.49, -2381.94, 0.000, 0.000, 0.000, 14:16:02.981
120, -2170.89, -2415.30, -2734.55, -2306.56, 0.000, 0.000, 0.000, 14:16:02.981
121, -1764.32, -1979.61, -2367.87, -1983.50, 0.000, 0.000, 0.000, 14:16:02.995
122, -1696.67, -1912.78, -2331.33, -1948.36, 0.000, 0.000, 0.000, 14:16:02.995
123, -2214.09, -2491.86, -2813.68, -2385.70, 0.000, 0.000, 0.000, 14:16:03.011
124, -2171.02, -2410.20, -2730.76, -2308.89, 0.000, 0.000, 0.000, 14:16:03.012
125, -1775.99, -1969.35, -2364.83, -1976.78, 0.000, 0.000, 0.000, 14:16:03.012
126, -1694.26, -1913.30, -2335.02, -1950.39, 0.000, 0.000, 0.000, 14:16:03.012
127, -2205.24, -2482.92, -2813.33, -2383.11, 0.000, 0.000, 0.000, 14:16:03.026
128, -2152.38, -2423.26, -2727.26, -2302.85, 0.000, 0.000, 0.000, 14:16:03.026
129, -1765.51, -1970.41, -2359.03, -1976.58, 0.000, 0.000, 0.000, 14:16:03.042
130, -1706.60, -1913.72, -2340.38, -1955.32, 0.000, 0.000, 0.000, 14:16:03.042
131, -2216.30, -2483.64, -2810.55, -2386.68, 0.000, 0.000, 0.000, 14:16:03.042
132, -2174.00, -2413.44, -2728.50, -2311.78, 0.000, 0.000, 0.000, 14:16:03.042
133, -1756.74, -1972.01, -2363.96, -1972.82, 0.000, 0.000, 0.000, 14:16:03.056
134, -1685.22, -1910.11, -2333.71, -1949.45, 0.000, 0.000, 0.000, 14:16:03.056
135, -2231.48, -2480.62, -2814.58, -2385.95, 0.000, 0.000, 0.000, 14:16:03.070
136, -2159.00, -2397.45, -2723.02, -2308.95, 0.000, 0.000, 0.000, 14:16:03.071
137, -1771.77, -1956.80, -2356.01, -1968.73, 0.000, 0.000, 0.000, 14:16:03.071
138, -1696.41, -1911.07, -2335.22, -1959.09, 0.000, 0.000, 0.000, 14:16:03.072
139, -2204.90, -2481.30, -2807.24, -2388.94, 0.000, 0.000, 0.000, 14:16:03.085
140, -2169.47, -2403.39, -2720.48, -2306.57, 0.000, 0.000, 0.000, 14:16:03.085
141, -1763.41, -1962.04, -2356.63, -1968.67, 0.000, 0.000, 0.000, 14:16:03.100
142, -1700.10, -1919.80, -2338.95, -1957.93, 0.000, 0.000, 0.000, 14:16:03.100
143, -2212.87, -2483.88, -2811.59, -2386.16, 0.000, 0.000, 0.000, 14:16:03.101
144, -2152.16, -2400.45, -2720.71, -2303.57, 0.000, 0.000, 0.000, 14:16:03.101
145, -1767.86, -1967.30, -2355.01, -1973.64, 0.000, 0.000, 0.000, 14:16:03.116
146, -1703.06, -1922.63, -2341.37, -1958.23, 0.000, 0.000, 0.000, 14:16:03.116
147, -2209.55, -2483.99, -2817.72, -2383.75, 0.000, 0.000, 0.000, 14:16:03.131
148, -2153.40, -2401.88, -2720.97, -2308.08, 0.000, 0.000, 0.000, 14:16:03.131
149, -1765.98, -1963.49, -2354.14, -1969.14, 0.000, 0.000, 0.000, 14:16:03.131
150, -1688.50, -1916.96, -2333.17, -1959.18, 0.000, 0.000, 0.000, 14:16:03.131
151, -2217.23, -2490.65, -2815.18, -2387.01, 0.000, 0.000, 0.000, 14:16:03.146
152, -2153.11, -2401.86, -2719.75, -2302.23, 0.000, 0.000, 0.000, 14:16:03.146
153, -1750.53, -1965.02, -2341.06, -1966.66, 0.000, 0.000, 0.000, 14:16:03.161
154, -1707.47, -1924.95, -2346.77, -1964.72, 0.000, 0.000, 0.000, 14:16:03.161
155, -2206.34, -2490.24, -2809.61, -2390.69, 0.000, 0.000, 0.000, 14:16:03.168
156, -2158.86, -2402.62, -2725.93, -2302.17, 0.000, 0.000, 0.000, 14:16:03.168
157, -1759.23, -1955.80, -2351.12, -1969.52, 0.000, 0.000, 0.000, 14:16:03.177
158, -1695.47, -1924.28, -2343.84, -1958.16, 0.000, 0.000, 0.000, 14:16:03.177
159, -2224.83, -2487.93, -2811.09, -2385.76, 0.000, 0.000, 0.000, 14:16:03.191
160, -2158.51, -2397.81, -2716.16, -2301.96, 0.000, 0.000, 0.000, 14:16:03.192
161, -1755.30, -1959.28, -2348.77, -1963.01, 0.000, 0.000, 0.000, 14:16:03.192
162, -1709.37, -1930.30, -2349.63, -1963.87, 0.000, 0.000, 0.000, 14:16:03.192
163, -2228.38, -2488.80, -2819.46, -2391.63, 0.000, 0.000, 0.000, 14:16:03.206
164, -2150.23, -2404.40, -2718.15, -2296.78, 0.000, 0.000, 0.000, 14:16:03.206
165, -1748.27, -1961.64, -2353.37, -1966.66, 0.000, 0.000, 0.000, 14:16:03.221
166, -1713.22, -1930.52, -2359.10, -1971.89, 0.000, 0.000, 0.000, 14:16:03.221
167, -2224.98, -2496.42, -2824.56, -2391.96, 0.000, 0.000, 0.000, 14:16:03.221
168, -2154.11, -2395.57, -2718.49, -2298.81, 0.000, 0.000, 0.000, 14:16:03.221
169, -1752.93, -1952.37, -2355.19, -1968.04, 0.000, 0.000, 0.000, 14:16:03.236
170, -1718.13, -1936.14, -2356.58, -1974.88, 0.000, 0.000, 0.000, 14:16:03.236
171, -2219.13, -2499.75, -2818.98, -2399.05, 0.000, 0.000, 0.000, 14:16:03.266
172, -2149.32, -2399.41, -2718.64, -2300.21, 0.000, 0.000, 0.000, 14:16:03.266
173, -1752.96, -1951.90, -2347.43, -1964.71, 0.000, 0.000, 0.000, 14:16:03.266
174, -1704.08, -1933.31, -2351.68, -1969.96, 0.000, 0.000, 0.000, 14:16:03.266
175, -2217.11, -2495.61, -2820.76, -2392.54, 0.000, 0.000, 0.000, 14:16:03.267
176, -2153.65, -2401.34, -2713.26, -2294.30, 0.000, 0.000, 0.000, 14:16:03.267
177, -1752.61, -1954.55, -2345.80, -1959.98, 0.000, 0.000, 0.000, 14:16:03.268
178, -1711.70, -1937.19, -2354.46, -1972.72, 0.000, 0.000, 0.000, 14:16:03.268
179, -2220.60, -2503.32, -2820.95, -2397.45, 0.000, 0.000, 0.000, 14:16:03.281
180, -2154.90, -2400.60, -2719.23, -2297.13, 0.000, 0.000, 0.000, 14:16:03.281
181, -1738.74, -1952.99, -2345.33, -1956.44, 0.000, 0.000, 0.000, 14:16:03.295
182, -1727.31, -1939.87, -2361.07, -1971.98, 0.000, 0.000, 0.000, 14:16:03.295
183, -2227.33, -2499.19, -2818.40, -2397.26, 0.000, 0.000, 0.000, 14:16:03.311
184, -2146.70, -2387.02, -2708.96, -2295.11, 0.000, 0.000, 0.000, 14:16:03.312
185, -1754.16, -1948.66, -2336.72, -1964.07, 0.000, 0.000, 0.000, 14:16:03.312
186, -1700.37, -1939.33, -2346.53, -1973.26, 0.000, 0.000, 0.000, 14:16:03.312
187, -2230.77, -2502.93, -2813.15, -2392.26, 0.000, 0.000, 0.000, 14:16:03.325
188, -2160.51, -2399.36, -2707.82, -2292.75, 0.000, 0.000, 0.000, 14:16:03.325
189, -1743.95, -1947.69, -2339.55, -1958.61, 0.000, 0.000, 0.000, 14:16:03.341
190, -1715.51, -1941.03, -2356.84, -1978.97, 0.000, 0.000, 0.000, 14:16:03.341
191, -2218.83, -2493.99, -2820.58, -2401.68, 0.000, 0.000, 0.000, 14:16:03.341
192, -2146.51, -2396.74, -2703.91, -2300.88, 0.000, 0.000, 0.000, 14:16:03.341
193, -1750.27, -1944.02, -2330.21, -1959.32, 0.000, 0.000, 0.000, 14:16:03.356
194, -1718.85, -1939.86, -2362.61, -1979.52, 0.000, 0.000, 0.000, 14:16:03.356
195, -2225.49, -2501.04, -2823.54, -2400.81, 0.000, 0.000, 0.000, 14:16:03.371
196, -2147.90, -2382.42, -2706.40, -2294.57, 0.000, 0.000, 0.000, 14:16:03.371
197, -1724.20, -1942.16, -2336.26, -1952.84, 0.000, 0.000, 0.000, 14:16:03.372
198, -1723.38, -1938.90, -2361.40, -1979.33, 0.000, 0.000, 0.000, 14:16:03.372
199, -2239.64, -2498.52, -2827.22, -2396.08, 0.000, 0.000, 0.000, 14:16:03.385
200, -2149.18, -2389.58, -2715.09, -2283.93, 0.000, 0.000, 0.000, 14:16:03.385
0, -1741.33, -1942.66, -2342.40, -1948.45, 0.000, 0.000, 0.000, 14:16:03.386
1, -1729.26, -1961.96, -2367.83, -1980.33, 0.000, 0.000, 0.000, 14:16:03.400
2, -2216.02, -2514.13, -2823.23, -2390.23, 0.000, 0.000, 0.000, 14:16:03.400
3, -2140.95, -2407.66, -2706.34, -2286.68, 0.000, 0.000, 0.000, 14:16:03.416
4, -1731.54, -1971.08, -2331.05, -1945.30, 0.000, 0.000, 0.000, 14:16:03.416
5, -1714.20, -1964.72, -2371.22, -1972.60, 0.000, 0.000, 0.000, 14:16:03.416
6, -2201.21, -2516.38, -2819.70, -2383.21, 0.000, 0.000, 0.000, 14:16:03.416
7, -2087.24, -2387.91, -2703.95, -2288.29, 0.000, 0.000, 0.000, 14:16:03.430
8, -1657.36, -1967.71, -2329.23, -1953.07, 0.000, 0.000, 0.000, 14:16:03.431
9, -1637.92, -2005.80, -2356.36, -1960.65, 0.000, 0.000, 0.000, 14:16:03.446
10, -2076.11, -2530.39, -2818.44, -2400.76, 0.000, 0.000, 0.000, 14:16:03.446
11, -1942.12, -2441.86, -2700.22, -2282.52, 0.000, 0.000, 0.000, 14:16:03.446
12, -1478.75, -2030.05, -2322.30, -1928.20, 0.000, 0.000, 0.000, 14:16:03.447
13, -1427.29, -2080.37, -2354.34, -1963.50, 0.000, 0.000, 0.000, 14:16:03.461
14, -1933.22, -2608.84, -2818.55, -2380.34, 0.000, 0.000, 0.000, 14:16:03.462
15, -1831.75, -2511.97, -2691.15, -2268.65, 0.000, 0.000, 0.000, 14:16:03.476
16, -1451.32, -2080.23, -2320.44, -1930.37, 0.000, 0.000, 0.000, 14:16:03.476
17, -1434.54, -2099.67, -2358.61, -1970.60, 0.000, 0.000, 0.000, 14:16:03.476
18, -1966.07, -2639.65, -2816.60, -2373.03, 0.000, 0.000, 0.000, 14:16:03.476
19, -1907.71, -2521.58, -2700.37, -2269.04, 0.000, 0.000, 0.000, 14:16:03.491
20, -1515.35, -2063.91, -2322.64, -1924.20, 0.000, 0.000, 0.000, 14:16:03.491
21, -1531.55, -2074.80, -2369.57, -1969.58, 0.000, 0.000, 0.000, 14:16:03.506
22, -2080.83, -2612.77, -2829.06, -2385.74, 0.000, 0.000, 0.000, 14:16:03.507
23, -2018.31, -2467.78, -2700.73, -2272.74, 0.000, 0.000, 0.000, 14:16:03.507
24, -1631.15, -2008.97, -2331.95, -1936.43, 0.000, 0.000, 0.000, 14:16:03.507
25, -1653.56, -2023.15, -2383.08, -1980.39, 0.000, 0.000, 0.000, 14:16:03.521
26, -2213.58, -2549.38, -2835.67, -2396.18, 0.000, 0.000, 0.000, 14:16:03.521
27, -2140.70, -2408.32, -2710.11, -2282.40, 0.000, 0.000, 0.000, 14:16:03.536
28, -1747.30, -1938.86, -2330.33, -1947.96, 0.000, 0.000, 0.000, 14:16:03.536
29, -1785.14, -1958.51, -2390.66, -1993.13, 0.000, 0.000, 0.000, 14:16:03.536
30, -2306.46, -2482.21, -2835.88, -2400.46, 0.000, 0.000, 0.000, 14:16:03.536
31, -2223.32, -2343.81, -2713.59, -2290.71, 0.000, 0.000, 0.000, 14:16:03.550
32, -1825.34, -1880.74, -2330.04, -1945.51, 0.000, 0.000, 0.000, 14:16:03.550
33, -1848.71, -1905.29, -2383.05, -1998.28, 0.000, 0.000, 0.000, 14:16:03.566
34, -2353.47, -2443.65, -2830.44, -2410.20, 0.000, 0.000, 0.000, 14:16:03.566
35, -2272.00, -2311.92, -2709.23, -2292.48, 0.000, 0.000, 0.000, 14:16:03.566
36, -1859.43, -1858.16, -2327.44, -1950.88, 0.000, 0.000, 0.000, 14:16:03.566
37, -1874.64, -1899.46, -2390.29, -2005.74, 0.000, 0.000, 0.000, 14:16:03.580
38, -2376.44, -2435.60, -2833.68, -2402.26, 0.000, 0.000, 0.000, 14:16:03.581
39, -2260.39, -2303.77, -2693.64, -2282.24, 0.000, 0.000, 0.000, 14:16:03.595
40, -1845.76, -1862.83, -2326.52, -1956.28, 0.000, 0.000, 0.000, 14:16:03.595
41, -1876.85, -1898.88, -2388.00, -2009.11, 0.000, 0.000, 0.000, 14:16:03.596
42, -2362.09, -2457.02, -2843.02, -2412.19, 0.000, 0.000, 0.000, 14:16:03.596
43, -2264.13, -2314.65, -2713.66, -2291.56, 0.000, 0.000, 0.000, 14:16:03.612
44, -1825.94, -1855.71, -2318.03, -1941.91, 0.000, 0.000, 0.000, 14:16:03.612
45, -1851.33, -1919.99, -2392.04, -2005.15, 0.000, 0.000, 0.000, 14:16:03.626
46, -2341.80, -2471.24, -2842.75, -2409.55, 0.000, 0.000, 0.000, 14:16:03.626
47, -2221.75, -2331.69, -2705.43, -2289.98, 0.000, 0.000, 0.000, 14:16:03.626
48, -1809.87, -1869.22, -2323.05, -1942.09, 0.000, 0.000, 0.000, 14:16:03.626
49, -1829.64, -1916.43, -2383.61, -2005.48, 0.000, 0.000, 0.000, 14:16:03.641
50, -2319.89, -2468.47, -2841.00, -2410.06, 0.000, 0.000, 0.000, 14:16:03.641
51, -2208.62, -2312.67, -2689.91, -2277.39, 0.000, 0.000, 0.000, 14:16:03.656
52, -1792.96, -1862.36, -2308.27, -1930.04, 0.000, 0.000, 0.000, 14:16:03.656
53, -1814.37, -1922.78, -2386.33, -2004.29, 0.000, 0.000, 0.000, 14:16:03.657
54, -2309.97, -2472.15, -2836.88, -2409.37, 0.000, 0.000, 0.000, 14:16:03.657
55, -2200.52, -2336.62, -2695.10, -2280.68, 0.000, 0.000, 0.000, 14:16:03.671
56, -1773.71, -1882.96, -2319.23, -1941.05, 0.000, 0.000, 0.000, 14:16:03.671
57, -1804.37, -1946.01, -2385.79, -2006.98, 0.000, 0.000, 0.000, 14:16:03.685
58, -2308.00, -2488.18, -2837.70, -2410.11, 0.000, 0.000, 0.000, 14:16:03.686
59, -2178.98, -2344.03, -2692.98, -2285.10, 0.000, 0.000, 0.000, 14:16:03.686
60, -1765.12, -1895.74, -2320.19, -1936.62, 0.000, 0.000, 0.000, 14:16:03.686
61, -1792.37, -1970.57, -2395.16, -2015.59, 0.000, 0.000, 0.000, 14:16:03.700
62, -2273.71, -2493.17, -2827.51, -2406.71, 0.000, 0.000, 0.000, 14:16:03.700
63, -2158.89, -2355.59, -2697.13, -2274.75, 0.000, 0.000, 0.000, 14:16:03.716
64, -1757.00, -1899.53, -2323.38, -1944.79, 0.000, 0.000, 0.000, 14:16:03.716
65, -1776.30, -1962.24, -2394.15, -2015.64, 0.000, 0.000, 0.000, 14:16:03.716
66, -2278.83, -2496.53, -2832.95, -2414.21, 0.000, 0.000, 0.000, 14:16:03.716
67, -2144.60, -2358.01, -2689.93, -2276.06, 0.000, 0.000, 0.000, 14:16:03.731
68, -1745.73, -1913.73, -2327.57, -1945.17, 0.000, 0.000, 0.000, 14:16:03.731
69, -1775.70, -1975.02, -2403.27, -2015.50, 0.000, 0.000, 0.000, 14:16:03.746
70, -2254.97, -2500.62, -2833.25, -2410.90, 0.000, 0.000, 0.000, 14:16:03.746
71, -2141.34, -2349.41, -2689.54, -2268.75, 0.000, 0.000, 0.000, 14:16:03.746
72, -1725.96, -1907.10, -2316.10, -1939.38, 0.000, 0.000, 0.000, 14:16:03.746
73, -1769.71, -1983.61, -2396.45, -2018.44, 0.000, 0.000, 0.000, 14:16:03.762
74, -2251.80, -2510.22, -2834.84, -2403.16, 0.000, 0.000, 0.000, 14:16:03.762
75, -2135.83, -2353.74, -2686.77, -2271.15, 0.000, 0.000, 0.000, 14:16:03.776
76, -1726.72, -1912.48, -2320.88, -1930.48, 0.000, 0.000, 0.000, 14:16:03.776
77, -1772.93, -1985.05, -2409.11, -2013.86, 0.000, 0.000, 0.000, 14:16:03.776
78, -2240.20, -2501.10, -2833.63, -2399.84, 0.000, 0.000, 0.000, 14:16:03.776
79, -2121.69, -2360.93, -2684.69, -2263.61, 0.000, 0.000, 0.000, 14:16:03.791
80, -1709.35, -1894.74, -2309.72, -1933.74, 0.000, 0.000, 0.000, 14:16:03.791
81, -1765.76, -1989.21, -2400.81, -2012.49, 0.000, 0.000, 0.000, 14:16:03.806
82, -2254.62, -2516.63, -2831.86, -2408.57, 0.000, 0.000, 0.000, 14:16:03.806
83, -2133.18, -2366.01, -2684.15, -2268.62, 0.000, 0.000, 0.000, 14:16:03.807
84, -1716.99, -1919.61, -2318.42, -1935.38, 0.000, 0.000, 0.000, 14:16:03.807
85, -1766.14, -1990.45, -2412.13, -2013.15, 0.000, 0.000, 0.000, 14:16:03.821
86, -2257.16, -2514.94, -2835.64, -2399.97, 0.000, 0.000, 0.000, 14:16:03.821
87, -2133.18, -2358.07, -2694.37, -2265.66, 0.000, 0.000, 0.000, 14:16:03.835
88, -1709.05, -1905.05, -2320.93, -1933.14, 0.000, 0.000, 0.000, 14:16:03.835
89, -1768.60, -1998.31, -2408.98, -2022.75, 0.000, 0.000, 0.000, 14:16:03.836
90, -2247.78, -2505.33, -2831.68, -2392.55, 0.000, 0.000, 0.000, 14:16:03.836
91, -2121.74, -2351.30, -2684.85, -2265.11, 0.000, 0.000, 0.000, 14:16:03.850
92, -1695.77, -1908.80, -2311.39, -1929.43, 0.000, 0.000, 0.000, 14:16:03.851
93, -1764.55, -1995.33, -2404.70, -2019.76, 0.000, 0.000, 0.000, 14:16:03.866
94, -2249.76, -2523.79, -2830.78, -2401.33, 0.000, 0.000, 0.000, 14:16:03.866
95, -2109.18, -2353.09, -2681.47, -2266.48, 0.000, 0.000, 0.000, 14:16:03.867
96, -1706.47, -1901.70, -2309.97, -1926.24, 0.000, 0.000, 0.000, 14:16:03.867
97, -1769.43, -1996.79, -2402.03, -2023.99, 0.000, 0.000, 0.000, 14:16:03.880
98, -2242.98, -2512.47, -2830.12, -2402.29, 0.000, 0.000, 0.000, 14:16:03.880
99, -2095.59, -2343.64, -2665.99, -2257.96, 0.000, 0.000, 0.000, 14:16:03.896
100, -1711.10, -1899.84, -2306.36, -1924.49, 0.000, 0.000, 0.000, 14:16:03.896
101, -1766.31, -1998.05, -2411.55, -2029.33, 0.000, 0.000, 0.000, 14:16:03.896
102, -2254.05, -2512.83, -2833.49, -2405.54, 0.000, 0.000, 0.000, 14:16:03.896
103, -2096.25, -2349.09, -2672.72, -2264.81, 0.000, 0.000, 0.000, 14:16:03.912
104, -1704.72, -1904.56, -2305.65, -1929.02, 0.000, 0.000, 0.000, 14:16:03.912
105, -1768.36, -2009.45, -2413.33, -2026.18, 0.000, 0.000, 0.000, 14:16:03.926
106, -2238.29, -2517.23, -2839.88, -2409.75, 0.000, 0.000, 0.000, 14:16:03.926
107, -2113.37, -2344.82, -2678.29, -2264.08, 0.000, 0.000, 0.000, 14:16:03.926
108, -1705.38, -1901.89, -2299.00, -1925.55, 0.000, 0.000, 0.000, 14:16:03.927
109, -1789.55, -2015.73, -2422.57, -2035.01, 0.000, 0.000, 0.000, 14:16:03.942
110, -2265.99, -2518.30, -2835.56, -2405.65, 0.000, 0.000, 0.000, 14:16:03.942
111, -2118.02, -2350.49, -2680.13, -2266.16, 0.000, 0.000, 0.000, 14:16:03.956
112, -1692.94, -1899.30, -2302.35, -1928.61, 0.000, 0.000, 0.000, 14:16:03.956
113, -1779.58, -2013.71, -2418.62, -2030.43, 0.000, 0.000, 0.000, 14:16:03.963
114, -2245.03, -2527.99, -2839.00, -2407.44, 0.000, 0.000, 0.000, 14:16:03.963
115, -2102.74, -2342.91, -2675.99, -2253.64, 0.000, 0.000, 0.000, 14:16:03.985
116, -1707.75, -1904.99, -2311.31, -1925.69, 0.000, 0.000, 0.000, 14:16:03.985
117, -1791.47, -2014.44, -2427.37, -2034.24, 0.000, 0.000, 0.000, 14:16:03.986
118, -2254.47, -2515.22, -2831.82, -2406.57, 0.000, 0.000, 0.000, 14:16:03.986
119, -2108.62, -2353.28, -2686.70, -2263.33, 0.000, 0.000, 0.000, 14:16:03.986
120, -1706.05, -1907.80, -2306.00, -1924.13, 0.000, 0.000, 0.000, 14:16:03.986
121, -1788.00, -2020.98, -2428.13, -2038.27, 0.000, 0.000, 0.000, 14:16:04.000
122, -2246.79, -2517.03, -2834.88, -2406.25, 0.000, 0.000, 0.000, 14:16:04.001
123, -2103.40, -2338.30, -2665.17, -2254.33, 0.000, 0.000, 0.000, 14:16:04.016
124, -1690.72, -1899.03, -2304.62, -1925.93, 0.000, 0.000, 0.000, 14:16:04.016
125, -1770.30, -2024.66, -2427.52, -2043.26, 0.000, 0.000, 0.000, 14:16:04.016
126, -2252.23, -2531.09, -2838.82, -2399.00, 0.000, 0.000, 0.000, 14:16:04.016
127, -2110.12, -2355.81, -2678.86, -2256.24, 0.000, 0.000, 0.000, 14:16:04.031
128, -1690.93, -1895.87, -2299.29, -1922.77, 0.000, 0.000, 0.000, 14:16:04.031
129, -1781.84, -2022.97, -2426.24, -2038.58, 0.000, 0.000, 0.000, 14:16:04.046
130, -2247.13, -2517.12, -2829.28, -2403.02, 0.000, 0.000, 0.000, 14:16:04.046
131, -2105.25, -2345.77, -2671.17, -2255.47, 0.000, 0.000, 0.000, 14:16:04.046
132, -1686.50, -1895.11, -2291.40, -1919.14, 0.000, 0.000, 0.000, 14:16:04.046
133, -1784.14, -2019.91, -2420.43, -2039.78, 0.000, 0.000, 0.000, 14:16:04.060
134, -2240.69, -2517.08, -2830.26, -2400.17, 0.000, 0.000, 0.000, 14:16:04.061
135, -2092.10, -2331.95, -2664.45, -2252.10, 0.000, 0.000, 0.000, 14:16:04.092
136, -1694.35, -1897.68, -2303.90, -1922.89, 0.000, 0.000, 0.000, 14:16:04.092
137, -1785.63, -2022.39, -2435.24, -2040.64, 0.000, 0.000, 0.000, 14:16:04.092
138, -2231.99, -2510.57, -2824.27, -2399.86, 0.000, 0.000, 0.000, 14:16:04.092
139, -2095.63, -2337.83, -2668.42, -2250.02, 0.000, 0.000, 0.000, 14:16:04.092
140, -1690.44, -1890.80, -2296.21, -1915.42, 0.000, 0.000, 0.000, 14:16:04.092
141, -1796.49, -2033.14, -2437.85, -2044.44, 0.000, 0.000, 0.000, 14:16:04.093
142, -2241.82, -2518.39, -2824.01, -2401.14, 0.000, 0.000, 0.000, 14:16:04.093
143, -2095.23, -2332.77, -2656.18, -2246.98, 0.000, 0.000, 0.000, 14:16:04.121
144, -1689.89, -1899.90, -2296.03, -1925.60, 0.000, 0.000, 0.000, 14:16:04.121
145, -1798.32, -2037.93, -2444.17, -2047.84, 0.000, 0.000, 0.000, 14:16:04.121
146, -2260.54, -2524.19, -2833.77, -2401.27, 0.000, 0.000, 0.000, 14:16:04.122
147, -2102.53, -2344.24, -2665.52, -2250.30, 0.000, 0.000, 0.000, 14:16:04.136
148, -1688.45, -1891.93, -2293.58, -1916.53, 0.000, 0.000, 0.000, 14:16:04.136
149, -1806.14, -2034.25, -2439.11, -2050.68, 0.000, 0.000, 0.000, 14:16:04.136
150, -2251.23, -2521.92, -2831.19, -2409.46, 0.000, 0.000, 0.000, 14:16:04.136
151, -2106.92, -2331.73, -2661.92, -2254.66, 0.000, 0.000, 0.000, 14:16:04.151
152, -1698.27, -1893.67, -2300.14, -1920.89, 0.000, 0.000, 0.000, 14:16:04.151
153, -1797.13, -2035.20, -2444.31, -2052.35, 0.000, 0.000, 0.000, 14:16:04.166
154, -2256.23, -2517.01, -2833.94, -2403.35, 0.000, 0.000, 0.000, 14:16:04.166
155, -2092.14, -2325.85, -2664.73, -2253.62, 0.000, 0.000, 0.000, 14:16:04.166
156, -1694.76, -1887.56, -2291.15, -1920.02, 0.000, 0.000, 0.000, 14:16:04.166
157, -1803.63, -2040.12, -2447.31, -2053.86, 0.000, 0.000, 0.000, 14:16:04.181
158, -2248.69, -2519.57, -2837.07, -2411.08, 0.000, 0.000, 0.000, 14:16:04.181
159, -2095.37, -2328.58, -2661.71, -2248.04, 0.000, 0.000, 0.000, 14:16:04.196
160, -1679.72, -1880.90, -2296.07, -1912.96, 0.000, 0.000, 0.000, 14:16:04.196
161, -1800.85, -2034.97, -2439.39, -2055.64, 0.000, 0.000, 0.000, 14:16:04.196
162, -2260.48, -2520.80, -2840.44, -2406.65, 0.000, 0.000, 0.000, 14:16:04.196
163, -2092.74, -2337.17, -2665.17, -2242.12, 0.000, 0.000, 0.000, 14:16:04.211
164, -1685.41, -1885.53, -2295.51, -1915.34, 0.000, 0.000, 0.000, 14:16:04.211
165, -1798.32, -2038.45, -2448.12, -2055.35, 0.000, 0.000, 0.000, 14:16:04.226
166, -2247.05, -2526.70, -2839.71, -2408.53, 0.000, 0.000, 0.000, 14:16:04.226
167, -2089.63, -2325.25, -2657.14, -2238.61, 0.000, 0.000, 0.000, 14:16:04.226
168, -1694.84, -1887.04, -2297.52, -1913.89, 0.000, 0.000, 0.000, 14:16:04.227
169, -1819.20, -2050.18, -2459.42, -2060.46, 0.000, 0.000, 0.000, 14:16:04.241
170, -2247.99, -2514.85, -2833.14, -2410.96, 0.000, 0.000, 0.000, 14:16:04.241
171, -2081.75, -2324.23, -2659.67, -2246.41, 0.000, 0.000, 0.000, 14:16:04.256
172, -1687.56, -1881.47, -2300.24, -1917.97, 0.000, 0.000, 0.000, 14:16:04.257
173, -1819.57, -2043.76, -2453.94, -2068.19, 0.000, 0.000, 0.000, 14:16:04.257
174, -2250.93, -2525.21, -2846.81, -2409.77, 0.000, 0.000, 0.000, 14:16:04.257
175, -2084.47, -2337.10, -2663.11, -2247.68, 0.000, 0.000, 0.000, 14:16:04.271
176, -1685.49, -1877.68, -2288.47, -1910.52, 0.000, 0.000, 0.000, 14:16:04.271
177, -1811.75, -2055.00, -2456.83, -2062.46, 0.000, 0.000, 0.000, 14:16:04.286
178, -2244.64, -2519.84, -2833.33, -2399.88, 0.000, 0.000, 0.000, 14:16:04.286
179, -2092.93, -2331.22, -2660.31, -2238.97, 0.000, 0.000, 0.000, 14:16:04.286
180, -1685.34, -1893.13, -2304.52, -1906.69, 0.000, 0.000, 0.000, 14:16:04.287
181, -1826.18, -2061.23, -2461.49, -2065.44, 0.000, 0.000, 0.000, 14:16:04.301
182, -2256.68, -2522.99, -2839.66, -2403.12, 0.000, 0.000, 0.000, 14:16:04.301
183, -2093.96, -2318.79, -2646.57, -2242.76, 0.000, 0.000, 0.000, 14:16:04.315
184, -1685.65, -1881.76, -2279.64, -1908.77, 0.000, 0.000, 0.000, 14:16:04.315
185, -1815.58, -2053.33, -2456.80, -2064.15, 0.000, 0.000, 0.000, 14:16:04.316
186, -2254.33, -2528.65, -2830.63, -2400.87, 0.000, 0.000, 0.000, 14:16:04.316
187, -2088.77, -2319.94, -2649.84, -2233.08, 0.000, 0.000, 0.000, 14:16:04.330
188, -1679.78, -1878.32, -2290.39, -1910.38, 0.000, 0.000, 0.000, 14:16:04.330
189, -1821.45, -2055.40, -2469.33, -2070.04, 0.000, 0.000, 0.000, 14:16:04.346
190, -2256.01, -2516.10, -2833.40, -2410.63, 0.000, 0.000, 0.000, 14:16:04.346
191, -2086.51, -2322.47, -2643.83, -2237.49, 0.000, 0.000, 0.000, 14:16:04.346
192, -1691.85, -1873.51, -2288.99, -1905.87, 0.000, 0.000, 0.000, 14:16:04.346
193, -1823.12, -2059.68, -2463.18, -2066.31, 0.000, 0.000, 0.000, 14:16:04.367
194, -2256.61, -2527.68, -2835.26, -2404.09, 0.000, 0.000, 0.000, 14:16:04.367
195, -2096.26, -2322.38, -2652.02, -2236.03, 0.000, 0.000, 0.000, 14:16:04.375
196, -1685.96, -1873.32, -2286.60, -1911.63, 0.000, 0.000, 0.000, 14:16:04.375
197, -1821.75, -2062.69, -2464.26, -2067.77, 0.000, 0.000, 0.000, 14:16:04.376
198, -2258.03, -2529.95, -2836.98, -2408.38, 0.000, 0.000, 0.000, 14:16:04.376
199, -2098.47, -2310.78, -2650.41, -2230.07, 0.000, 0.000, 0.000, 14:16:04.392
200, -1675.51, -1869.97, -2288.33, -1904.31, 0.000, 0.000, 0.000, 14:16:04.392
0, -1800.39, -2057.51, -2455.70, -2070.74, 0.000, 0.000, 0.000, 14:16:04.392
1, -2255.42, -2526.50, -2843.65, -2403.94, 0.000, 0.000, 0.000, 14:16:04.407
2, -2090.30, -2321.60, -2648.77, -2234.63, 0.000, 0.000, 0.000, 14:16:04.407
3, -1675.84, -1876.14, -2287.94, -1908.76, 0.000, 0.000, 0.000, 14:16:04.435
4, -1837.30, -2075.80, -2476.78, -2083.06, 0.000, 0.000, 0.000, 14:16:04.435
5, -2271.92, -2542.10, -2850.99, -2418.38, 0.000, 0.000, 0.000, 14:16:04.436
6, -2090.06, -2327.69, -2660.37, -2242.78, 0.000, 0.000, 0.000, 14:16:04.436
7, -1685.43, -1877.77, -2277.66, -1903.18, 0.000, 0.000, 0.000, 14:16:04.437
8, -1826.38, -2059.82, -2469.43, -2071.57, 0.000, 0.000, 0.000, 14:16:04.437
9, -2252.60, -2520.88, -2832.67, -2408.50, 0.000, 0.000, 0.000, 14:16:04.438
10, -2092.31, -2307.04, -2641.99, -2225.15, 0.000, 0.000, 0.000, 14:16:04.438
11, -1675.88, -1870.76, -2285.14, -1907.92, 0.000, 0.000, 0.000, 14:16:04.465
12, -1839.17, -2069.70, -2476.00, -2074.32, 0.000, 0.000, 0.000, 14:16:04.465
13, -2263.40, -2520.97, -2841.94, -2402.58, 0.000, 0.000, 0.000, 14:16:04.466
14, -2081.60, -2312.50, -2646.35, -2232.88, 0.000, 0.000, 0.000, 14:16:04.466
15, -1660.98, -1851.86, -2268.72, -1897.73, 0.000, 0.000, 0.000, 14:16:04.480
16, -1829.53, -2067.49, -2466.62, -2083.06, 0.000, 0.000, 0.000, 14:16:04.480
17, -2261.13, -2523.84, -2838.54, -2402.98, 0.000, 0.000, 0.000, 14:16:04.481
18, -2067.72, -2314.71, -2647.57, -2227.31, 0.000, 0.000, 0.000, 14:16:04.481
19, -1659.73, -1862.58, -2283.81, -1898.20, 0.000, 0.000, 0.000, 14:16:04.496
20, -1828.86, -2074.99, -2475.85, -2082.29, 0.000, 0.000, 0.000, 14:16:04.496
21, -2259.92, -2525.37, -2843.48, -2414.71, 0.000, 0.000, 0.000, 14:16:04.511
22, -2070.42, -2306.94, -2650.56, -2227.15, 0.000, 0.000, 0.000, 14:16:04.511
23, -1659.97, -1866.30, -2279.52, -1891.47, 0.000, 0.000, 0.000, 14:16:04.512
24, -1842.00, -2080.93, -2484.82, -2084.54, 0.000, 0.000, 0.000, 14:16:04.512
25, -2259.67, -2523.30, -2840.93, -2411.03, 0.000, 0.000, 0.000, 14:16:04.526
26, -2084.45, -2305.97, -2643.05, -2232.06, 0.000, 0.000, 0.000, 14:16:04.526
27, -1673.43, -1868.34, -2275.32, -1902.80, 0.000, 0.000, 0.000, 14:16:04.541
28, -1836.19, -2086.02, -2477.91, -2088.60, 0.000, 0.000, 0.000, 14:16:04.542
29, -2270.51, -2539.66, -2846.36, -2420.02, 0.000, 0.000, 0.000, 14:16:04.542
30, -2085.80, -2315.26, -2647.25, -2242.76, 0.000, 0.000, 0.000, 14:16:04.542
31, -1668.21, -1869.88, -2278.63, -1900.46, 0.000, 0.000, 0.000, 14:16:04.570
32, -1854.00, -2095.64, -2492.00, -2091.75, 0.000, 0.000, 0.000, 14:16:04.571
33, -2270.74, -2544.88, -2847.60, -2412.97, 0.000, 0.000, 0.000, 14:16:04.571
34, -2075.10, -2309.97, -2641.27, -2226.61, 0.000, 0.000, 0.000, 14:16:04.571
35, -1669.68, -1865.85, -2278.24, -1901.80, 0.000, 0.000, 0.000, 14:16:04.572
36, -1847.58, -2088.24, -2482.13, -2097.64, 0.000, 0.000, 0.000, 14:16:04.572
37, -2260.38, -2539.53, -2844.39, -2418.52, 0.000, 0.000, 0.000, 14:16:04.586
38, -2073.21, -2310.67, -2641.01, -2235.44, 0.000, 0.000, 0.000, 14:16:04.586
39, -1659.15, -1862.37, -2275.19, -1895.51, 0.000, 0.000, 0.000, 14:16:04.600
40, -1857.27, -2096.17, -2493.61, -2098.82, 0.000, 0.000, 0.000, 14:16:04.601
41, -2269.55, -2537.80, -2841.36, -2422.57, 0.000, 0.000, 0.000, 14:16:04.601
42, -2079.38, -2308.45, -2640.31, -2220.21, 0.000, 0.000, 0.000, 14:16:04.601
43, -1656.76, -1859.79, -2273.39, -1896.22, 0.000, 0.000, 0.000, 14:16:04.616
44, -1857.63, -2099.23, -2498.76, -2101.94, 0.000, 0.000, 0.000, 14:16:04.616
45, -2274.07, -2531.75, -2842.59, -2411.70, 0.000, 0.000, 0.000, 14:16:04.630
46, -2076.97, -2301.31, -2635.56, -2226.36, 0.000, 0.000, 0.000, 14:16:04.630
47, -1651.30, -1850.87, -2261.11, -1893.04, 0.000, 0.000, 0.000, 14:16:04.630
48, -1845.87, -2096.57, -2496.35, -2099.55, 0.000, 0.000, 0.000, 14:16:04.632
49, -2275.88, -2540.05, -2846.69, -2416.75, 0.000, 0.000, 0.000, 14:16:04.646
50, -2073.03, -2306.77, -2639.60, -2225.68, 0.000, 0.000, 0.000, 14:16:04.646
51, -1652.94, -1848.08, -2266.06, -1887.54, 0.000, 0.000, 0.000, 14:16:04.661
52, -1854.96, -2097.57, -2492.11, -2101.36, 0.000, 0.000, 0.000, 14:16:04.661
53, -2283.67, -2536.09, -2850.58, -2423.28, 0.000, 0.000, 0.000, 14:16:04.661
54, -2063.29, -2305.21, -2633.44, -2221.38, 0.000, 0.000, 0.000, 14:16:04.661
55, -1639.84, -1845.54, -2258.63, -1884.88, 0.000, 0.000, 0.000, 14:16:04.676
56, -1855.63, -2093.93, -2493.09, -2097.30, 0.000, 0.000, 0.000, 14:16:04.676
57, -2254.14, -2535.90, -2847.30, -2413.88, 0.000, 0.000, 0.000, 14:16:04.692
58, -2068.03, -2302.16, -2630.43, -2221.59, 0.000, 0.000, 0.000, 14:16:04.692
59, -1655.98, -1852.35, -2259.34, -1889.10, 0.000, 0.000, 0.000, 14:16:04.692
60, -1863.72, -2096.95, -2495.74, -2102.91, 0.000, 0.000, 0.000, 14:16:04.692
61, -2251.89, -2517.75, -2843.17, -2417.89, 0.000, 0.000, 0.000, 14:16:04.706
62, -2071.11, -2294.56, -2629.88, -2217.39, 0.000, 0.000, 0.000, 14:16:04.706
63, -1636.98, -1843.25, -2256.42, -1876.73, 0.000, 0.000, 0.000, 14:16:04.721
64, -1859.71, -2108.20, -2501.16, -2103.70, 0.000, 0.000, 0.000, 14:16:04.721
65, -2259.93, -2536.33, -2845.80, -2419.76, 0.000, 0.000, 0.000, 14:16:04.722
66, -2069.10, -2297.71, -2630.60, -2221.04, 0.000, 0.000, 0.000, 14:16:04.722
67, -1643.31, -1846.92, -2261.33, -1885.19, 0.000, 0.000, 0.000, 14:16:04.735
68, -1866.22, -2112.53, -2501.30, -2105.49, 0.000, 0.000, 0.000, 14:16:04.735
69, -2267.20, -2537.37, -2844.34, -2415.60, 0.000, 0.000, 0.000, 14:16:04.750
70, -2065.12, -2302.78, -2631.18, -2220.25, 0.000, 0.000, 0.000, 14:16:04.750
71, -1643.17, -1846.40, -2260.17, -1883.02, 0.000, 0.000, 0.000, 14:16:04.751
72, -1854.56, -2124.73, -2508.40, -2107.72, 0.000, 0.000, 0.000, 14:16:04.751
73, -2248.31, -2548.05, -2843.31, -2414.54, 0.000, 0.000, 0.000, 14:16:04.766
74, -2036.23, -2331.56, -2628.04, -2215.94, 0.000, 0.000, 0.000, 14:16:04.766
75, -1615.65, -1874.11, -2248.58, -1876.73, 0.000, 0.000, 0.000, 14:16:04.780
76, -1813.92, -2134.27, -2504.24, -2097.49, 0.000, 0.000, 0.000, 14:16:04.780
77, -2215.71, -2551.32, -2839.73, -2409.98, 0.000, 0.000, 0.000, 14:16:04.781
78, -1979.30, -2329.00, -2621.29, -2212.19, 0.000, 0.000, 0.000, 14:16:04.781
79, -1561.32, -1879.65, -2244.64, -1881.11, 0.000, 0.000, 0.000, 14:16:04.802
80, -1754.77, -2160.88, -2501.67, -2104.85, 0.000, 0.000, 0.000, 14:16:04.802
81, -2113.13, -2592.91, -2839.77, -2401.65, 0.000, 0.000, 0.000, 14:16:04.811
82, -1876.64, -2360.82, -2621.98, -2206.92, 0.000, 0.000, 0.000, 14:16:04.811
83, -1410.51, -1944.27, -2238.38, -1865.06, 0.000, 0.000, 0.000, 14:16:04.811
84, -1598.01, -2212.78, -2485.87, -2098.64, 0.000, 0.000, 0.000, 14:16:04.811
85, -1982.92, -2620.03, -2834.71, -2401.91, 0.000, 0.000, 0.000, 14:16:04.826
86, -1777.31, -2409.84, -2620.05, -2203.79, 0.000, 0.000, 0.000, 14:16:04.827
87, -1372.51, -1972.76, -2242.36, -1865.17, 0.000, 0.000, 0.000, 14:16:04.841
88, -1618.26, -2257.22, -2506.06, -2109.88, 0.000, 0.000, 0.000, 14:16:04.841
89, -2045.11, -2675.35, -2855.22, -2410.96, 0.000, 0.000, 0.000, 14:16:04.841
90, -1842.15, -2426.29, -2639.30, -2200.85, 0.000, 0.000, 0.000, 14:16:04.841
91, -1437.55, -1962.03, -2253.72, -1870.84, 0.000, 0.000, 0.000, 14:16:04.856
92, -1702.55, -2221.73, -2501.71, -2102.76, 0.000, 0.000, 0.000, 14:16:04.856
93, -2144.74, -2632.76, -2845.51, -2409.48, 0.000, 0.000, 0.000, 14:16:04.871
94, -1955.66, -2360.99, -2630.59, -2208.50, 0.000, 0.000, 0.000, 14:16:04.871
95, -1546.64, -1889.43, -2249.54, -1872.30, 0.000, 0.000, 0.000, 14:16:04.871
96, -1831.58, -2158.92, -2515.77, -2119.45, 0.000, 0.000, 0.000, 14:16:04.872
97, -2267.90, -2561.86, -2854.95, -2420.59, 0.000, 0.000, 0.000, 14:16:04.886
98, -2067.48, -2296.91, -2633.44, -2217.70, 0.000, 0.000, 0.000, 14:16:04.886
99, -1680.88, -1827.00, -2258.91, -1882.98, 0.000, 0.000, 0.000, 14:16:04.901
100, -1933.89, -2103.57, -2530.13, -2126.35, 0.000, 0.000, 0.000, 14:16:04.901
101, -2335.32, -2510.43, -2858.49, -2428.37, 0.000, 0.000, 0.000, 14:16:04.901
102, -2149.97, -2246.90, -2633.90, -2223.11, 0.000, 0.000, 0.000, 14:16:04.901
103, -1746.53, -1791.46, -2257.48, -1883.66, 0.000, 0.000, 0.000, 14:16:04.931
104, -1987.97, -2069.81, -2516.68, -2129.60, 0.000, 0.000, 0.000, 14:16:04.931
105, -2378.16, -2480.50, -2853.98, -2422.02, 0.000, 0.000, 0.000, 14:16:04.931
106, -2178.33, -2221.47, -2635.16, -2220.14, 0.000, 0.000, 0.000, 14:16:04.931
107, -1757.37, -1764.83, -2259.48, -1886.22, 0.000, 0.000, 0.000, 14:16:04.932
108, -2013.05, -2058.22, -2521.59, -2132.92, 0.000, 0.000, 0.000, 14:16:04.932
109, -2405.54, -2474.57, -2861.61, -2424.12, 0.000, 0.000, 0.000, 14:16:04.946
110, -2181.36, -2228.34, -2634.12, -2222.92, 0.000, 0.000, 0.000, 14:16:04.946
111, -1760.41, -1772.56, -2259.65, -1883.06, 0.000, 0.000, 0.000, 14:16:04.962
112, -2003.28, -2070.49, -2525.57, -2130.32, 0.000, 0.000, 0.000, 14:16:04.962
113, -2379.77, -2477.37, -2849.16, -2424.89, 0.000, 0.000, 0.000, 14:16:04.962
114, -2160.16, -2219.94, -2615.79, -2213.13, 0.000, 0.000, 0.000, 14:16:04.962
115, -1737.44, -1784.42, -2254.33, -1883.07, 0.000, 0.000, 0.000, 14:16:04.976
116, -1975.41, -2078.31, -2527.65, -2133.43, 0.000, 0.000, 0.000, 14:16:04.976
117, -2369.93, -2481.10, -2847.11, -2416.45, 0.000, 0.000, 0.000, 14:16:04.991
118, -2150.38, -2229.55, -2629.44, -2213.76, 0.000, 0.000, 0.000, 14:16:04.991
119, -1717.82, -1789.71, -2257.06, -1880.35, 0.000, 0.000, 0.000, 14:16:04.991
120, -1971.83, -2091.46, -2529.87, -2131.90, 0.000, 0.000, 0.000, 14:16:04.991
121, -2348.00, -2485.95, -2847.41, -2413.87, 0.000, 0.000, 0.000, 14:16:05.006
122, -2119.29, -2235.63, -2626.38, -2209.08, 0.000, 0.000, 0.000, 14:16:05.007
123, -1711.18, -1802.56, -2259.09, -1884.86, 0.000, 0.000, 0.000, 14:16:05.021
124, -1964.29, -2111.37, -2533.51, -2134.00, 0.000, 0.000, 0.000, 14:16:05.021
125, -2331.78, -2503.25, -2845.89, -2414.39, 0.000, 0.000, 0.000, 14:16:05.022
126, -2100.48, -2235.95, -2613.39, -2203.09, 0.000, 0.000, 0.000, 14:16:05.022
127, -1691.98, -1806.96, -2260.10, -1882.00, 0.000, 0.000, 0.000, 14:16:05.035
128, -1947.09, -2118.23, -2536.66, -2138.21, 0.000, 0.000, 0.000, 14:16:05.036
129, -2315.14, -2512.00, -2845.56, -2417.97, 0.000, 0.000, 0.000, 14:16:05.050
130, -2089.89, -2252.26, -2617.97, -2197.54, 0.000, 0.000, 0.000, 14:16:05.050
131, -1682.28, -1813.04, -2255.46, -1875.87, 0.000, 0.000, 0.000, 14:16:05.051
132, -1934.09, -2134.72, -2540.45, -2139.31, 0.000, 0.000, 0.000, 14:16:05.051
133, -2298.72, -2508.28, -2837.60, -2408.47, 0.000, 0.000, 0.000, 14:16:05.066
134, -2074.08, -2252.59, -2609.07, -2207.32, 0.000, 0.000, 0.000, 14:16:05.066
135, -1664.97, -1820.88, -2251.51, -1879.01, 0.000, 0.000, 0.000, 14:16:05.080
136, -1916.85, -2138.82, -2544.18, -2139.67, 0.000, 0.000, 0.000, 14:16:05.080
137, -2276.91, -2521.06, -2839.13, -2406.83, 0.000, 0.000, 0.000, 14:16:05.081
138, -2063.34, -2260.45, -2607.55, -2195.30, 0.000, 0.000, 0.000, 14:16:05.081
139, -1650.80, -1818.65, -2257.58, -1881.81, 0.000, 0.000, 0.000, 14:16:05.095
140, -1903.44, -2134.39, -2535.27, -2145.98, 0.000, 0.000, 0.000, 14:16:05.095
141, -2276.28, -2517.76, -2837.19, -2413.65, 0.000, 0.000, 0.000, 14:16:05.112
142, -2035.91, -2249.15, -2599.98, -2196.64, 0.000, 0.000, 0.000, 14:16:05.112
143, -1645.06, -1822.85, -2250.08, -1875.56, 0.000, 0.000, 0.000, 14:16:05.118
144, -1923.46, -2150.15, -2541.64, -2149.59, 0.000, 0.000, 0.000, 14:16:05.118
145, -2282.93, -2520.54, -2829.63, -2416.58, 0.000, 0.000, 0.000, 14:16:05.126
146, -2050.55, -2264.23, -2605.32, -2208.67, 0.000, 0.000, 0.000, 14:16:05.126
147, -1636.95, -1816.61, -2245.28, -1873.75, 0.000, 0.000, 0.000, 14:16:05.142
148, -1911.97, -2144.79, -2541.71, -2144.43, 0.000, 0.000, 0.000, 14:16:05.142
149, -2269.38, -2517.55, -2836.13, -2409.65, 0.000, 0.000, 0.000, 14:16:05.142
150, -2042.65, -2255.26, -2607.59, -2193.46, 0.000, 0.000, 0.000, 14:16:05.142
151, -1635.89, -1820.54, -2245.53, -1875.26, 0.000, 0.000, 0.000, 14:16:05.156
152, -1909.53, -2146.07, -2544.62, -2146.21, 0.000, 0.000, 0.000, 14:16:05.156
153, -2273.03, -2532.95, -2843.13, -2413.80, 0.000, 0.000, 0.000, 14:16:05.171
154, -2050.47, -2261.83, -2608.63, -2191.27, 0.000, 0.000, 0.000, 14:16:05.171
155, -1637.66, -1828.81, -2256.42, -1874.02, 0.000, 0.000, 0.000, 14:16:05.172
156, -1914.22, -2169.41, -2560.38, -2151.49, 0.000, 0.000, 0.000, 14:16:05.172
157, -2271.49, -2542.41, -2854.59, -2420.25, 0.000, 0.000, 0.000, 14:16:05.185
158, -2044.25, -2274.18, -2621.41, -2200.18, 0.000, 0.000, 0.000, 14:16:05.185
159, -1633.99, -1832.76, -2256.45, -1877.36, 0.000, 0.000, 0.000, 14:16:05.201
160, -1913.68, -2169.96, -2554.12, -2149.87, 0.000, 0.000, 0.000, 14:16:05.201
161, -2254.38, -2522.18, -2830.15, -2410.20, 0.000, 0.000, 0.000, 14:16:05.201
162, -2019.15, -2252.04, -2597.00, -2184.45, 0.000, 0.000, 0.000, 14:16:05.201
163, -1617.65, -1815.89, -2238.93, -1867.85, 0.000, 0.000, 0.000, 14:16:05.215
164, -1924.85, -2164.06, -2554.79, -2153.25, 0.000, 0.000, 0.000, 14:16:05.215
165, -2271.91, -2532.78, -2839.49, -2413.04, 0.000, 0.000, 0.000, 14:16:05.231
166, -2023.83, -2250.50, -2601.13, -2189.66, 0.000, 0.000, 0.000, 14:16:05.231
167, -1624.98, -1822.76, -2246.80, -1866.48, 0.000, 0.000, 0.000, 14:16:05.231
168, -1924.36, -2160.81, -2550.44, -2150.57, 0.000, 0.000, 0.000, 14:16:05.231
169, -2266.86, -2529.10, -2837.20, -2405.15, 0.000, 0.000, 0.000, 14:16:05.246
170, -2024.78, -2255.42, -2599.02, -2190.48, 0.000, 0.000, 0.000, 14:16:05.246
171, -1629.62, -1820.02, -2245.72, -1865.42, 0.000, 0.000, 0.000, 14:16:05.261
172, -1916.85, -2169.75, -2556.21, -2158.29, 0.000, 0.000, 0.000, 14:16:05.261
173, -2264.95, -2530.95, -2839.04, -2406.30, 0.000, 0.000, 0.000, 14:16:05.262
174, -2018.72, -2256.64, -2599.44, -2188.45, 0.000, 0.000, 0.000, 14:16:05.262
175, -1630.06, -1827.08, -2235.49, -1868.90, 0.000, 0.000, 0.000, 14:16:05.276
176, -1917.66, -2173.23, -2560.74, -2156.48, 0.000, 0.000, 0.000, 14:16:05.276
177, -2257.05, -2534.70, -2840.17, -2406.18, 0.000, 0.000, 0.000, 14:16:05.292
178, -2032.00, -2255.98, -2600.59, -2189.35, 0.000, 0.000, 0.000, 14:16:05.292
179, -1634.97, -1827.40, -2245.03, -1867.52, 0.000, 0.000, 0.000, 14:16:05.292
180, -1926.06, -2183.54, -2565.47, -2160.11, 0.000, 0.000, 0.000, 14:16:05.292
181, -2267.80, -2529.77, -2835.81, -2408.38, 0.000, 0.000, 0.000, 14:16:05.306
182, -2025.16, -2254.87, -2592.71, -2181.78, 0.000, 0.000, 0.000, 14:16:05.307
183, -1615.53, -1819.68, -2245.26, -1868.43, 0.000, 0.000, 0.000, 14:16:05.320
184, -1913.95, -2182.37, -2570.97, -2164.01, 0.000, 0.000, 0.000, 14:16:05.320
185, -2252.20, -2527.07, -2827.23, -2404.50, 0.000, 0.000, 0.000, 14:16:05.321
186, -2018.58, -2248.79, -2585.19, -2184.13, 0.000, 0.000, 0.000, 14:16:05.321
187, -1614.89, -1819.59, -2246.13, -1865.93, 0.000, 0.000, 0.000, 14:16:05.336
188, -1923.85, -2178.54, -2557.69, -2162.43, 0.000, 0.000, 0.000, 14:16:05.336
189, -2255.49, -2522.86, -2831.69, -2408.10, 0.000, 0.000, 0.000, 14:16:05.350
190, -2019.06, -2245.61, -2582.93, -2184.31, 0.000, 0.000, 0.000, 14:16:05.350
191, -1623.17, -1824.68, -2245.25, -1874.77, 0.000, 0.000, 0.000, 14:16:05.351
192, -1932.40, -2197.08, -2569.34, -2173.25, 0.000, 0.000, 0.000, 14:16:05.351
193, -2258.91, -2529.33, -2834.95, -2407.92, 0.000, 0.000, 0.000, 14:16:05.365
194, -2025.75, -2250.91, -2590.66, -2189.89, 0.000, 0.000, 0.000, 14:16:05.365
195, -1618.08, -1821.70, -2235.84, -1868.81, 0.000, 0.000, 0.000, 14:16:05.381
196, -1921.31, -2188.85, -2574.36, -2167.91, 0.000, 0.000, 0.000, 14:16:05.381
197, -2251.29, -2534.83, -2836.00, -2408.21, 0.000, 0.000, 0.000, 14:16:05.388
198, -2035.98, -2247.41, -2589.48, -2178.24, 0.000, 0.000, 0.000, 14:16:05.388
199, -1631.41, -1823.71, -2243.61, -1870.23, 0.000, 0.000, 0.000, 14:16:05.396
200, -1959.61, -2199.84, -2586.13, -2172.68, 0.000, 0.000, 0.000, 14:16:05.396
0, -2275.93, -2532.91, -2837.92, -2407.13, 0.000, 0.000, 0.000, 14:16:05.396
1, -2020.42, -2245.63, -2584.56, -2178.26, 0.000, 0.000, 0.000, 14:16:05.411
2, -1625.06, -1820.50, -2242.52, -1869.21, 0.000, 0.000, 0.000, 14:16:05.411
3, -1950.83, -2204.87, -2582.27, -2172.18, 0.000, 0.000, 0.000, 14:16:05.426
4, -2279.28, -2531.44, -2838.18, -2406.38, 0.000, 0.000, 0.000, 14:16:05.426
5, -2015.42, -2244.84, -2592.83, -2175.07, 0.000, 0.000, 0.000, 14:16:05.426
6, -1621.94, -1824.13, -2244.83, -1869.33, 0.000, 0.000, 0.000, 14:16:05.426
7, -1938.53, -2197.57, -2580.48, -2180.91, 0.000, 0.000, 0.000, 14:16:05.441
8, -2253.26, -2533.27, -2833.09, -2404.08, 0.000, 0.000, 0.000, 14:16:05.441
9, -2008.80, -2231.30, -2577.72, -2164.65, 0.000, 0.000, 0.000, 14:16:05.456
10, -1618.77, -1813.20, -2244.21, -1862.78, 0.000, 0.000, 0.000, 14:16:05.456
11, -1927.40, -2198.92, -2578.04, -2179.74, 0.000, 0.000, 0.000, 14:16:05.456
12, -2271.53, -2526.14, -2837.24, -2408.58, 0.000, 0.000, 0.000, 14:16:05.457
13, -2011.28, -2234.74, -2583.73, -2178.99, 0.000, 0.000, 0.000, 14:16:05.485
14, -1606.11, -1812.56, -2236.23, -1864.92, 0.000, 0.000, 0.000, 14:16:05.485
15, -1951.49, -2210.72, -2589.69, -2179.82, 0.000, 0.000, 0.000, 14:16:05.486
16, -2265.69, -2530.22, -2835.17, -2406.50, 0.000, 0.000, 0.000, 14:16:05.486
17, -2003.78, -2233.43, -2577.10, -2172.68, 0.000, 0.000, 0.000, 14:16:05.487
18, -1622.47, -1815.38, -2239.31, -1870.40, 0.000, 0.000, 0.000, 14:16:05.487
19, -1956.10, -2211.60, -2592.39, -2184.15, 0.000, 0.000, 0.000, 14:16:05.500
20, -2256.75, -2524.99, -2833.15, -2406.58, 0.000, 0.000, 0.000, 14:16:05.500
21, -2003.78, -2234.64, -2579.05, -2169.95, 0.000, 0.000, 0.000, 14:16:05.531
22, -1611.48, -1813.85, -2238.45, -1864.86, 0.000, 0.000, 0.000, 14:16:05.531
23, -1947.25, -2208.84, -2589.54, -2178.59, 0.000, 0.000, 0.000, 14:16:05.531
24, -2261.10, -2527.61, -2835.84, -2401.56, 0.000, 0.000, 0.000, 14:16:05.531
25, -2006.21, -2218.88, -2572.65, -2164.53, 0.000, 0.000, 0.000, 14:16:05.532
26, -1609.70, -1810.05, -2236.07, -1861.99, 0.000, 0.000, 0.000, 14:16:05.532
27, -1944.38, -2214.54, -2589.90, -2185.97, 0.000, 0.000, 0.000, 14:16:05.532
28, -2261.78, -2532.60, -2834.34, -2402.19, 0.000, 0.000, 0.000, 14:16:05.532
29, -2004.43, -2232.42, -2577.72, -2173.41, 0.000, 0.000, 0.000, 14:16:05.545
30, -1607.58, -1813.07, -2238.27, -1867.46, 0.000, 0.000, 0.000, 14:16:05.545
31, -1963.72, -2218.73, -2594.99, -2191.60, 0.000, 0.000, 0.000, 14:16:05.563
32, -2263.69, -2522.37, -2829.22, -2403.70, 0.000, 0.000, 0.000, 14:16:05.563
33, -1996.49, -2230.74, -2568.96, -2161.53, 0.000, 0.000, 0.000, 14:16:05.576
34, -1611.04, -1810.88, -2230.72, -1868.60, 0.000, 0.000, 0.000, 14:16:05.577
35, -1958.16, -2214.70, -2595.25, -2197.43, 0.000, 0.000, 0.000, 14:16:05.577
36, -2258.64, -2526.01, -2836.21, -2403.90, 0.000, 0.000, 0.000, 14:16:05.577
37, -2005.61, -2226.03, -2582.31, -2172.85, 0.000, 0.000, 0.000, 14:16:05.591
38, -1625.67, -1815.84, -2239.98, -1865.89, 0.000, 0.000, 0.000, 14:16:05.591
39, -1970.82, -2229.29, -2606.16, -2198.39, 0.000, 0.000, 0.000, 14:16:05.606
40, -2278.72, -2533.50, -2839.66, -2406.93, 0.000, 0.000, 0.000, 14:16:05.606
41, -2001.57, -2232.13, -2570.57, -2164.39, 0.000, 0.000, 0.000, 14:16:05.620
42, -1607.35, -1809.30, -2239.09, -1861.62, 0.000, 0.000, 0.000, 14:16:05.620
43, -1963.07, -2223.42, -2608.37, -2193.45, 0.000, 0.000, 0.000, 14:16:05.621
44, -2255.81, -2516.98, -2837.21, -2402.57, 0.000, 0.000, 0.000, 14:16:05.621
45, -2001.50, -2225.85, -2570.86, -2163.97, 0.000, 0.000, 0.000, 14:16:05.635
46, -1601.61, -1816.68, -2238.42, -1868.70, 0.000, 0.000, 0.000, 14:16:05.636
47, -1965.89, -2230.36, -2603.81, -2203.34, 0.000, 0.000, 0.000, 14:16:05.636
48, -2262.05, -2515.88, -2830.17, -2398.93, 0.000, 0.000, 0.000, 14:16:05.636
49, -1996.52, -2207.92, -2565.31, -2156.90, 0.000, 0.000, 0.000, 14:16:05.651
50, -1617.11, -1813.87, -2238.51, -1869.00, 0.000, 0.000, 0.000, 14:16:05.651
51, -1970.60, -2211.05, -2595.14, -2205.59, 0.000, 0.000, 0.000, 14:16:05.666
52, -2242.03, -2530.38, -2825.28, -2395.27, 0.000, 0.000, 0.000, 14:16:05.666
53, -1986.80, -2217.11, -2561.41, -2153.12, 0.000, 0.000, 0.000, 14:16:05.667
54, -1621.35, -1803.06, -2237.29, -1861.48, 0.000, 0.000, 0.000, 14:16:05.667
55, -1973.19, -2225.53, -2609.29, -2199.73, 0.000, 0.000, 0.000, 14:16:05.681
56, -2262.85, -2522.25, -2834.15, -2398.93, 0.000, 0.000, 0.000, 14:16:05.681
57, -1985.96, -2218.26, -2560.77, -2157.01, 0.000, 0.000, 0.000, 14:16:05.696
58, -1596.09, -1815.70, -2240.71, -1860.96, 0.000, 0.000, 0.000, 14:16:05.696
59, -1973.43, -2207.82, -2598.97, -2200.61, 0.000, 0.000, 0.000, 14:16:05.696
60, -2253.50, -2535.80, -2827.84, -2396.68, 0.000, 0.000, 0.000, 14:16:05.697
61, -1973.10, -2214.21, -2552.92, -2154.52, 0.000, 0.000, 0.000, 14:16:05.726
62, -1595.34, -1788.70, -2232.46, -1863.42, 0.000, 0.000, 0.000, 14:16:05.726
63, -1992.55, -2240.14, -2620.86, -2206.47, 0.000, 0.000, 0.000, 14:16:05.726
64, -2263.41, -2523.51, -2829.85, -2396.66, 0.000, 0.000, 0.000, 14:16:05.726
65, -1982.54, -2203.13, -2553.84, -2152.85, 0.000, 0.000, 0.000, 14:16:05.727
66, -1605.18, -1801.58, -2229.89, -1870.88, 0.000, 0.000, 0.000, 14:16:05.727
67, -1989.80, -2260.19, -2620.83, -2216.48, 0.000, 0.000, 0.000, 14:16:05.741
68, -2276.96, -2527.53, -2841.36, -2414.56, 0.000, 0.000, 0.000, 14:16:05.741
69, -1988.36, -2207.88, -2556.03, -2149.00, 0.000, 0.000, 0.000, 14:16:05.757
70, -1626.65, -1811.34, -2242.71, -1867.48, 0.000, 0.000, 0.000, 14:16:05.757
71, -2003.99, -2257.82, -2634.79, -2215.41, 0.000, 0.000, 0.000, 14:16:05.758
72, -2260.98, -2521.78, -2829.79, -2404.71, 0.000, 0.000, 0.000, 14:16:05.758
73, -1983.16, -2202.59, -2550.08, -2164.38, 0.000, 0.000, 0.000, 14:16:05.770
74, -1614.92, -1825.25, -2246.16, -1867.90, 0.000, 0.000, 0.000, 14:16:05.770
75, -1996.56, -2251.47, -2620.89, -2213.26, 0.000, 0.000, 0.000, 14:16:05.786
76, -2270.50, -2534.92, -2833.42, -2401.27, 0.000, 0.000, 0.000, 14:16:05.786
77, -1961.10, -2193.18, -2543.86, -2152.32, 0.000, 0.000, 0.000, 14:16:05.786
78, -1626.15, -1823.98, -2240.70, -1853.69, 0.000, 0.000, 0.000, 14:16:05.786
79, -1980.20, -2241.01, -2613.95, -2208.88, 0.000, 0.000, 0.000, 14:16:05.801
80, -2261.15, -2526.83, -2835.48, -2396.69, 0.000, 0.000, 0.000, 14:16:05.801
81, -1986.94, -2212.40, -2557.88, -2133.55, 0.000, 0.000, 0.000, 14:16:05.815
82, -1614.43, -1810.12, -2234.76, -1857.79, 0.000, 0.000, 0.000, 14:16:05.815
83, -1993.33, -2260.12, -2625.70, -2208.86, 0.000, 0.000, 0.000, 14:16:05.816
84, -2261.46, -2511.05, -2821.06, -2401.97, 0.000, 0.000, 0.000, 14:16:05.816
85, -1959.97, -2201.74, -2542.79, -2146.20, 0.000, 0.000, 0.000, 14:16:05.831
86, -1607.54, -1803.85, -2236.09, -1868.00, 0.000, 0.000, 0.000, 14:16:05.831
87, -2003.16, -2260.49, -2629.77, -2218.82, 0.000, 0.000, 0.000, 14:16:05.846
88, -2258.33, -2525.70, -2830.60, -2394.26, 0.000, 0.000, 0.000, 14:16:05.846
89, -1985.85, -2202.72, -2548.10, -2143.95, 0.000, 0.000, 0.000, 14:16:05.846
90, -1605.79, -1824.47, -2239.04, -1864.24, 0.000, 0.000, 0.000, 14:16:05.847
91, -2012.31, -2269.73, -2634.51, -2225.44, 0.000, 0.000, 0.000, 14:16:05.867
92, -2267.58, -2534.70, -2830.04, -2397.56, 0.000, 0.000, 0.000, 14:16:05.867
93, -1968.00, -2179.99, -2542.02, -2148.13, 0.000, 0.000, 0.000, 14:16:05.876
94, -1631.47, -1817.88, -2247.56, -1857.22, 0.000, 0.000, 0.000, 14:16:05.876
95, -2002.08, -2256.28, -2631.73, -2226.27, 0.000, 0.000, 0.000, 14:16:05.877
96, -2260.91, -2541.98, -2846.49, -2402.25, 0.000, 0.000, 0.000, 14:16:05.877
97, -1974.30, -2200.40, -2560.47, -2139.54, 0.000, 0.000, 0.000, 14:16:05.891
98, -1616.46, -1829.84, -2244.69, -1868.43, 0.000, 0.000, 0.000, 14:16:05.891
99, -2005.73, -2277.42, -2641.41, -2221.25, 0.000, 0.000, 0.000, 14:16:05.906
100, -2257.47, -2519.26, -2825.23, -2393.93, 0.000, 0.000, 0.000, 14:16:05.906
101, -1973.62, -2196.50, -2538.92, -2142.72, 0.000, 0.000, 0.000, 14:16:05.907
102, -1589.60, -1798.41, -2219.73, -1857.66, 0.000, 0.000, 0.000, 14:16:05.907
103, -1997.39, -2284.55, -2635.46, -2225.83, 0.000, 0.000, 0.000, 14:16:05.920
104, -2247.81, -2558.58, -2831.19, -2390.39, 0.000, 0.000, 0.000, 14:16:05.920
105, -1960.50, -2219.40, -2542.92, -2129.75, 0.000, 0.000, 0.000, 14:16:05.936
106, -1601.25, -1820.60, -2227.35, -1852.59, 0.000, 0.000, 0.000, 14:16:05.936
107, -1991.61, -2254.02, -2630.03, -2230.71, 0.000, 0.000, 0.000, 14:16:05.936
108, -2246.18, -2510.04, -2826.95, -2395.37, 0.000, 0.000, 0.000, 14:16:05.936
109, -1943.93, -2287.47, -2545.91, -2126.21, 0.000, 0.000, 0.000, 14:16:05.950
110, -1608.45, -1812.28, -2236.58, -1858.81, 0.000, 0.000, 0.000, 14:16:05.950
111, -2016.11, -2192.37, -2630.17, -2231.78, 0.000, 0.000, 0.000, 14:16:05.966
112, -2270.43, -2469.06, -2826.46, -2397.73, 0.000, 0.000, 0.000, 14:16:05.966
113, -1972.40, -2147.84, -2536.33, -2137.93, 0.000, 0.000, 0.000, 14:16:05.966
114, -1609.92, -1799.54, -2236.01, -1854.58, 0.000, 0.000, 0.000, 14:16:05.966
115, -2002.43, -2270.89, -2644.65, -2234.34, 0.000, 0.000, 0.000, 14:16:05.981
116, -2246.99, -2534.28, -2828.52, -2395.62, 0.000, 0.000, 0.000, 14:16:05.981
117, -1947.87, -2187.29, -2534.58, -2129.25, 0.000, 0.000, 0.000, 14:16:05.996
118, -1589.02, -1825.86, -2222.53, -1854.08, 0.000, 0.000, 0.000, 14:16:05.996
119, -1982.50, -2243.85, -2634.42, -2228.62, 0.000, 0.000, 0.000, 14:16:05.997
120, -2216.73, -2521.13, -2819.00, -2393.52, 0.000, 0.000, 0.000, 14:16:05.997
121, -1909.35, -2182.06, -2538.41, -2131.23, 0.000, 0.000, 0.000, 14:16:06.026
122, -1523.19, -1834.69, -2220.98, -1856.85, 0.000, 0.000, 0.000, 14:16:06.026
123, -1914.91, -2298.93, -2623.24, -2235.47, 0.000, 0.000, 0.000, 14:16:06.026
124, -2135.16, -2598.03, -2823.99, -2387.58, 0.000, 0.000, 0.000, 14:16:06.026
125, -1789.85, -2229.72, -2518.82, -2121.23, 0.000, 0.000, 0.000, 14:16:06.027
126, -1419.48, -1854.20, -2218.18, -1850.34, 0.000, 0.000, 0.000, 14:16:06.027
127, -1807.29, -2336.38, -2638.75, -2229.72, 0.000, 0.000, 0.000, 14:16:06.041
128, -2018.59, -2614.24, -2828.62, -2387.54, 0.000, 0.000, 0.000, 14:16:06.041
129, -1709.22, -2284.99, -2528.91, -2117.80, 0.000, 0.000, 0.000, 14:16:06.059
130, -1358.39, -1926.72, -2223.01, -1848.35, 0.000, 0.000, 0.000, 14:16:06.059
131, -1785.03, -2447.33, -2660.40, -2223.08, 0.000, 0.000, 0.000, 14:16:06.059
132, -2042.34, -2667.43, -2828.90, -2388.57, 0.000, 0.000, 0.000, 14:16:06.059
133, -1746.00, -2322.00, -2530.24, -2128.53, 0.000, 0.000, 0.000, 14:16:06.070
134, -1442.08, -1836.02, -2219.22, -1852.09, 0.000, 0.000, 0.000, 14:16:06.071
135, -1905.47, -2331.77, -2650.53, -2239.19, 0.000, 0.000, 0.000, 14:16:06.086
136, -2176.86, -2582.99, -2839.20, -2393.56, 0.000, 0.000, 0.000, 14:16:06.086
137, -1878.92, -2250.69, -2532.76, -2124.48, 0.000, 0.000, 0.000, 14:16:06.088
138, -1541.77, -1947.11, -2249.32, -1855.70, 0.000, 0.000, 0.000, 14:16:06.088
139, -2020.70, -2405.70, -2672.31, -2239.39, 0.000, 0.000, 0.000, 14:16:06.101
140, -2268.51, -2399.12, -2827.07, -2393.72, 0.000, 0.000, 0.000, 14:16:06.101
141, -1982.54, -2092.26, -2540.61, -2131.63, 0.000, 0.000, 0.000, 14:16:06.116
142, -1658.15, -1730.10, -2236.96, -1866.59, 0.000, 0.000, 0.000, 14:16:06.116
143, -2081.94, -2232.33, -2659.24, -2262.52, 0.000, 0.000, 0.000, 14:16:06.116
144, -2320.91, -2453.38, -2837.77, -2406.46, 0.000, 0.000, 0.000, 14:16:06.116
145, -2028.20, -2096.34, -2545.80, -2129.36, 0.000, 0.000, 0.000, 14:16:06.130
146, -1684.70, -1725.73, -2241.21, -1868.14, 0.000, 0.000, 0.000, 14:16:06.130
147, -2120.81, -2239.83, -2674.55, -2259.70, 0.000, 0.000, 0.000, 14:16:06.146
148, -2345.65, -2452.21, -2842.27, -2401.41, 0.000, 0.000, 0.000, 14:16:06.146
149, -2038.77, -2104.16, -2540.46, -2139.37, 0.000, 0.000, 0.000, 14:16:06.146
150, -1692.47, -1723.88, -2241.66, -1872.19, 0.000, 0.000, 0.000, 14:16:06.146
151, -2126.32, -2235.52, -2667.79, -2260.81, 0.000, 0.000, 0.000, 14:16:06.161
152, -2347.27, -2494.61, -2843.44, -2398.68, 0.000, 0.000, 0.000, 14:16:06.162
153, -2039.59, -2080.20, -2534.11, -2133.55, 0.000, 0.000, 0.000, 14:16:06.176
154, -1696.44, -1763.93, -2260.15, -1886.63, 0.000, 0.000, 0.000, 14:16:06.176
155, -2146.83, -2274.53, -2695.31, -2274.06, 0.000, 0.000, 0.000, 14:16:06.176
156, -2380.12, -2511.81, -2860.53, -2423.52, 0.000, 0.000, 0.000, 14:16:06.177
157, -2054.10, -2144.17, -2563.43, -2155.08, 0.000, 0.000, 0.000, 14:16:06.191
158, -1707.30, -1770.95, -2257.66, -1893.80, 0.000, 0.000, 0.000, 14:16:06.191
159, -2154.58, -2292.78, -2696.51, -2287.19, 0.000, 0.000, 0.000, 14:16:06.206
160, -2358.98, -2502.22, -2861.29, -2415.99, 0.000, 0.000, 0.000, 14:16:06.206
161, -2044.18, -2176.56, -2559.55, -2140.97, 0.000, 0.000, 0.000, 14:16:06.207
162, -1699.66, -1786.49, -2260.06, -1883.61, 0.000, 0.000, 0.000, 14:16:06.207
163, -2126.40, -2307.54, -2689.19, -2287.50, 0.000, 0.000, 0.000, 14:16:06.220
164, -2354.96, -2546.63, -2871.81, -2422.12, 0.000, 0.000, 0.000, 14:16:06.221
165, -2037.19, -2192.01, -2554.55, -2142.48, 0.000, 0.000, 0.000, 14:16:06.235
166, -1682.16, -1803.45, -2251.55, -1885.36, 0.000, 0.000, 0.000, 14:16:06.236
167, -2135.90, -2335.92, -2697.48, -2283.96, 0.000, 0.000, 0.000, 14:16:06.236
168, -2324.66, -2529.03, -2849.41, -2424.90, 0.000, 0.000, 0.000, 14:16:06.236
169, -2016.74, -2164.12, -2544.38, -2148.42, 0.000, 0.000, 0.000, 14:16:06.251
170, -1664.40, -1809.31, -2255.38, -1886.36, 0.000, 0.000, 0.000, 14:16:06.251
171, -2115.99, -2346.61, -2701.89, -2281.68, 0.000, 0.000, 0.000, 14:16:06.266
172, -2309.57, -2536.40, -2849.52, -2410.95, 0.000, 0.000, 0.000, 14:16:06.266
173, -1988.57, -2177.29, -2539.02, -2131.24, 0.000, 0.000, 0.000, 14:16:06.266
174, -1652.69, -1813.75, -2253.72, -1886.85, 0.000, 0.000, 0.000, 14:16:06.266
175, -2094.33, -2319.99, -2684.15, -2286.02, 0.000, 0.000, 0.000, 14:16:06.281
176, -2298.01, -2519.13, -2832.49, -2412.45, 0.000, 0.000, 0.000, 14:16:06.281
177, -1982.70, -2162.59, -2537.91, -2137.79, 0.000, 0.000, 0.000, 14:16:06.295
178, -1637.13, -1818.36, -2244.02, -1879.42, 0.000, 0.000, 0.000, 14:16:06.295
179, -2091.29, -2327.06, -2693.65, -2279.80, 0.000, 0.000, 0.000, 14:16:06.311
180, -2284.91, -2509.08, -2827.56, -2403.55, 0.000, 0.000, 0.000, 14:16:06.311
181, -1967.48, -2154.52, -2524.97, -2128.70, 0.000, 0.000, 0.000, 14:16:06.311
182, -1625.62, -1816.73, -2241.65, -1873.98, 0.000, 0.000, 0.000, 14:16:06.311
183, -2078.46, -2330.12, -2689.40, -2276.43, 0.000, 0.000, 0.000, 14:16:06.326
184, -2277.81, -2514.75, -2824.13, -2402.81, 0.000, 0.000, 0.000, 14:16:06.326
185, -1958.02, -2158.87, -2515.99, -2116.44, 0.000, 0.000, 0.000, 14:16:06.327
186, -1626.78, -1816.07, -2244.12, -1872.49, 0.000, 0.000, 0.000, 14:16:06.328
187, -2086.13, -2328.93, -2693.11, -2277.40, 0.000, 0.000, 0.000, 14:16:06.341
188, -2284.42, -2530.88, -2835.02, -2408.47, 0.000, 0.000, 0.000, 14:16:06.341
189, -1950.58, -2160.10, -2520.14, -2122.81, 0.000, 0.000, 0.000, 14:16:06.355
190, -1615.23, -1812.60, -2243.17, -1868.53, 0.000, 0.000, 0.000, 14:16:06.356
191, -2085.20, -2342.95, -2698.04, -2280.97, 0.000, 0.000, 0.000, 14:16:06.357
192, -2268.43, -2512.17, -2827.23, -2399.38, 0.000, 0.000, 0.000, 14:16:06.357
193, -1953.47, -2148.70, -2504.03, -2123.52, 0.000, 0.000, 0.000, 14:16:06.371
194, -1612.74, -1812.40, -2234.10, -1877.05, 0.000, 0.000, 0.000, 14:16:06.371
195, -2079.61, -2344.76, -2693.86, -2280.56, 0.000, 0.000, 0.000, 14:16:06.386
196, -2270.60, -2531.25, -2834.31, -2395.82, 0.000, 0.000, 0.000, 14:16:06.386
197, -1945.48, -2160.51, -2506.37, -2108.14, 0.000, 0.000, 0.000, 14:16:06.386
198, -1614.23, -1797.30, -2234.98, -1869.01, 0.000, 0.000, 0.000, 14:16:06.386
199, -2069.66, -2323.34, -2688.03, -2281.26, 0.000, 0.000, 0.000, 14:16:06.401
200, -2271.40, -2513.15, -2830.04, -2394.99, 0.000, 0.000, 0.000, 14:16:06.401
0, -1939.70, -2152.32, -2510.91, -2107.02, 0.000, 0.000, 0.000, 14:16:06.416
1, -1611.64, -1804.00, -2237.62, -1868.29, 0.000, 0.000, 0.000, 14:16:06.416
2, -2082.04, -2336.60, -2696.40, -2280.72, 0.000, 0.000, 0.000, 14:16:06.416
3, -2249.81, -2520.05, -2821.28, -2392.88, 0.000, 0.000, 0.000, 14:16:06.430
4, -1930.72, -2147.11, -2507.08, -2107.54, 0.000, 0.000, 0.000, 14:16:06.430
5, -1610.29, -1805.21, -2234.49, -1870.94, 0.000, 0.000, 0.000, 14:16:06.431
6, -2071.64, -2327.81, -2688.37, -2283.08, 0.000, 0.000, 0.000, 14:16:06.431
7, -2250.04, -2509.50, -2814.60, -2393.06, 0.000, 0.000, 0.000, 14:16:06.445
8, -1927.59, -2122.59, -2498.10, -2104.52, 0.000, 0.000, 0.000, 14:16:06.445
9, -1601.64, -1807.95, -2235.85, -1865.37, 0.000, 0.000, 0.000, 14:16:06.461
10, -2067.73, -2343.01, -2696.64, -2283.11, 0.000, 0.000, 0.000, 14:16:06.461
11, -2261.95, -2514.19, -2825.21, -2394.61, 0.000, 0.000, 0.000, 14:16:06.461
12, -1920.58, -2132.83, -2494.67, -2102.12, 0.000, 0.000, 0.000, 14:16:06.461
13, -1593.49, -1796.26, -2227.74, -1867.44, 0.000, 0.000, 0.000, 14:16:06.476
14, -2071.40, -2333.00, -2690.80, -2291.57, 0.000, 0.000, 0.000, 14:16:06.476
15, -2254.80, -2514.98, -2814.01, -2394.67, 0.000, 0.000, 0.000, 14:16:06.491
16, -1925.03, -2139.96, -2508.26, -2104.35, 0.000, 0.000, 0.000, 14:16:06.491
17, -1618.89, -1812.52, -2246.93, -1865.22, 0.000, 0.000, 0.000, 14:16:06.491
18, -2076.19, -2349.26, -2710.51, -2293.46, 0.000, 0.000, 0.000, 14:16:06.491
19, -2264.83, -2519.43, -2821.11, -2396.91, 0.000, 0.000, 0.000, 14:16:06.506
20, -1934.88, -2139.71, -2502.17, -2102.80, 0.000, 0.000, 0.000, 14:16:06.507
21, -1602.81, -1799.52, -2226.83, -1868.44, 0.000, 0.000, 0.000, 14:16:06.521
22, -2071.82, -2342.49, -2701.79, -2288.65, 0.000, 0.000, 0.000, 14:16:06.521
23, -2263.50, -2520.47, -2823.82, -2392.17, 0.000, 0.000, 0.000, 14:16:06.522
24, -1925.47, -2129.89, -2493.46, -2099.06, 0.000, 0.000, 0.000, 14:16:06.522
25, -1597.77, -1803.33, -2231.27, -1866.84, 0.000, 0.000, 0.000, 14:16:06.536
26, -2083.65, -2347.31, -2701.37, -2290.01, 0.000, 0.000, 0.000, 14:16:06.536
27, -2264.50, -2512.01, -2813.78, -2390.49, 0.000, 0.000, 0.000, 14:16:06.550
28, -1913.83, -2138.12, -2489.29, -2095.21, 0.000, 0.000, 0.000, 14:16:06.550
29, -1600.12, -1806.49, -2234.79, -1863.29, 0.000, 0.000, 0.000, 14:16:06.551
30, -2071.90, -2346.97, -2704.36, -2289.94, 0.000, 0.000, 0.000, 14:16:06.551
31, -2258.85, -2511.24, -2817.38, -2384.04, 0.000, 0.000, 0.000, 14:16:06.566
32, -1923.22, -2133.61, -2498.51, -2093.23, 0.000, 0.000, 0.000, 14:16:06.566
33, -1602.57, -1802.44, -2226.61, -1872.20, 0.000, 0.000, 0.000, 14:16:06.581
34, -2089.26, -2350.71, -2706.46, -2288.46, 0.000, 0.000, 0.000, 14:16:06.581
35, -2252.75, -2511.01, -2812.56, -2379.58, 0.000, 0.000, 0.000, 14:16:06.581
36, -1918.23, -2116.27, -2487.55, -2098.97, 0.000, 0.000, 0.000, 14:16:06.581
37, -1597.66, -1807.83, -2238.49, -1869.30, 0.000, 0.000, 0.000, 14:16:06.595
38, -2089.90, -2353.20, -2709.41, -2294.52, 0.000, 0.000, 0.000, 14:16:06.595
39, -2246.64, -2507.44, -2813.29, -2383.30, 0.000, 0.000, 0.000, 14:16:06.611
40, -1914.68, -2135.63, -2494.08, -2085.66, 0.000, 0.000, 0.000, 14:16:06.611
41, -1606.32, -1809.35, -2243.84, -1868.79, 0.000, 0.000, 0.000, 14:16:06.611
42, -2087.12, -2346.69, -2707.85, -2295.41, 0.000, 0.000, 0.000, 14:16:06.611
43, -2260.47, -2501.63, -2818.46, -2391.03, 0.000, 0.000, 0.000, 14:16:06.625
44, -1903.01, -2120.12, -2490.23, -2092.41, 0.000, 0.000, 0.000, 14:16:06.625
45, -1597.39, -1818.83, -2240.01, -1859.89, 0.000, 0.000, 0.000, 14:16:06.641
46, -2102.12, -2359.85, -2716.55, -2301.57, 0.000, 0.000, 0.000, 14:16:06.641
47, -2255.87, -2510.10, -2822.29, -2390.19, 0.000, 0.000, 0.000, 14:16:06.656
48, -1913.11, -2129.07, -2493.32, -2089.00, 0.000, 0.000, 0.000, 14:16:06.657
49, -1611.68, -1815.50, -2249.05, -1874.22, 0.000, 0.000, 0.000, 14:16:06.657
50, -2097.85, -2380.15, -2725.57, -2309.86, 0.000, 0.000, 0.000, 14:16:06.657
51, -2251.43, -2521.31, -2821.42, -2391.34, 0.000, 0.000, 0.000, 14:16:06.670
52, -1909.12, -2134.54, -2493.93, -2090.57, 0.000, 0.000, 0.000, 14:16:06.670
53, -1610.33, -1811.51, -2240.92, -1868.35, 0.000, 0.000, 0.000, 14:16:06.671
54, -2097.24, -2360.27, -2708.56, -2296.56, 0.000, 0.000, 0.000, 14:16:06.671
55, -2242.70, -2500.02, -2813.43, -2390.32, 0.000, 0.000, 0.000, 14:16:06.686
56, -1896.23, -2114.91, -2479.20, -2085.20, 0.000, 0.000, 0.000, 14:16:06.686
57, -1599.12, -1795.53, -2230.10, -1867.29, 0.000, 0.000, 0.000, 14:16:06.701
58, -2090.21, -2355.15, -2714.54, -2305.14, 0.000, 0.000, 0.000, 14:16:06.701
59, -2244.22, -2510.27, -2811.95, -2381.01, 0.000, 0.000, 0.000, 14:16:06.701
60, -1897.12, -2111.56, -2480.13, -2081.08, 0.000, 0.000, 0.000, 14:16:06.702
61, -1598.37, -1800.26, -2233.03, -1870.44, 0.000, 0.000, 0.000, 14:16:06.715
62, -2099.79, -2377.29, -2719.24, -2307.36, 0.000, 0.000, 0.000, 14:16:06.715
63, -2246.63, -2502.06, -2809.95, -2380.90, 0.000, 0.000, 0.000, 14:16:06.730
64, -1885.91, -2091.85, -2473.21, -2083.44, 0.000, 0.000, 0.000, 14:16:06.730
65, -1597.06, -1802.63, -2239.21, -1868.45, 0.000, 0.000, 0.000, 14:16:06.731
66, -2096.94, -2371.30, -2723.85, -2303.51, 0.000, 0.000, 0.000, 14:16:06.731
67, -2260.15, -2514.05, -2824.80, -2384.31, 0.000, 0.000, 0.000, 14:16:06.746
68, -1911.74, -2127.96, -2491.41, -2081.39, 0.000, 0.000, 0.000, 14:16:06.746
69, -1615.04, -1819.59, -2251.21, -1869.95, 0.000, 0.000, 0.000, 14:16:06.760
70, -2113.95, -2373.48, -2727.98, -2298.03, 0.000, 0.000, 0.000, 14:16:06.760
71, -2255.84, -2502.38, -2820.19, -2376.55, 0.000, 0.000, 0.000, 14:16:06.761
72, -1905.09, -2107.13, -2476.11, -2076.33, 0.000, 0.000, 0.000, 14:16:06.761
73, -1624.64, -1820.12, -2244.94, -1873.24, 0.000, 0.000, 0.000, 14:16:06.776
74, -2122.28, -2381.16, -2730.20, -2309.09, 0.000, 0.000, 0.000, 14:16:06.776
75, -2246.64, -2497.69, -2812.53, -2379.71, 0.000, 0.000, 0.000, 14:16:06.791
76, -1896.62, -2098.40, -2471.28, -2070.09, 0.000, 0.000, 0.000, 14:16:06.791
77, -1609.78, -1810.37, -2244.30, -1868.71, 0.000, 0.000, 0.000, 14:16:06.792
78, -2116.16, -2370.31, -2724.00, -2310.99, 0.000, 0.000, 0.000, 14:16:06.792
79, -2242.59, -2504.10, -2813.91, -2375.67, 0.000, 0.000, 0.000, 14:16:06.806
80, -1896.72, -2108.89, -2473.68, -2070.07, 0.000, 0.000, 0.000, 14:16:06.806
81, -1607.27, -1814.49, -2239.19, -1872.84, 0.000, 0.000, 0.000, 14:16:06.821
82, -2112.59, -2379.57, -2728.69, -2316.63, 0.000, 0.000, 0.000, 14:16:06.821
83, -2233.01, -2506.37, -2809.57, -2378.77, 0.000, 0.000, 0.000, 14:16:06.822
84, -1889.02, -2102.18, -2476.86, -2070.07, 0.000, 0.000, 0.000, 14:16:06.822
85, -1611.41, -1816.48, -2245.17, -1869.99, 0.000, 0.000, 0.000, 14:16:06.836
86, -2134.05, -2399.92, -2754.01, -2317.85, 0.000, 0.000, 0.000, 14:16:06.836
87, -2235.16, -2502.21, -2815.78, -2381.61, 0.000, 0.000, 0.000, 14:16:06.850
88, -1883.67, -2097.25, -2471.56, -2074.50, 0.000, 0.000, 0.000, 14:16:06.850
89, -1616.33, -1814.95, -2253.18, -1882.91, 0.000, 0.000, 0.000, 14:16:06.851
90, -2110.23, -2388.48, -2736.87, -2319.16, 0.000, 0.000, 0.000, 14:16:06.851
91, -2249.33, -2500.03, -2814.57, -2381.65, 0.000, 0.000, 0.000, 14:16:06.865
92, -1893.00, -2103.44, -2467.17, -2067.36, 0.000, 0.000, 0.000, 14:16:06.866
93, -1607.45, -1809.10, -2245.89, -1872.45, 0.000, 0.000, 0.000, 14:16:06.881
94, -2114.56, -2382.81, -2727.28, -2324.00, 0.000, 0.000, 0.000, 14:16:06.881
95, -2236.65, -2505.48, -2803.53, -2368.88, 0.000, 0.000, 0.000, 14:16:06.882
96, -1877.02, -2094.68, -2463.96, -2063.80, 0.000, 0.000, 0.000, 14:16:06.882
97, -1604.68, -1818.94, -2243.53, -1875.91, 0.000, 0.000, 0.000, 14:16:06.896
98, -2112.95, -2384.69, -2731.49, -2322.34, 0.000, 0.000, 0.000, 14:16:06.896
99, -2233.05, -2504.40, -2810.58, -2377.66, 0.000, 0.000, 0.000, 14:16:06.911
100, -1878.65, -2085.54, -2456.78, -2061.35, 0.000, 0.000, 0.000, 14:16:06.911
