%OpenBCI Raw EEG Data
%
%Sample Rate = 200.0 Hz
%First Column = SampleIndex
%Last Column = Timestamp 
%Other Columns = EEG data in microvolts followed by Accel Data (in G) interleaved with Aux Data
0, -1443.92, -1555.44, -1715.60, -1499.94, 0.000, 0.000, 0.000, 14:07:24.034
1, -1533.46, -1657.98, -1828.97, -1568.10, 0.000, 0.000, 0.000, 14:07:24.049
2, -1995.40, -2141.21, -2198.42, -1879.11, 0.000, 0.000, 0.000, 14:07:24.049
3, -1849.83, -1970.58, -2049.44, -1776.56, 0.000, 0.000, 0.000, 14:07:24.064
4, -1439.95, -1543.11, -1712.63, -1497.60, 0.000, 0.000, 0.000, 14:07:24.064
5, -1537.06, -1660.67, -1837.27, -1570.03, 0.000, 0.000, 0.000, 14:07:24.064
6, -1988.30, -2140.28, -2220.56, -1873.22, 0.000, 0.000, 0.000, 14:07:24.064
7, -1837.72, -1966.42, -2053.59, -1769.74, 0.000, 0.000, 0.000, 14:07:24.079
8, -1439.28, -1536.34, -1720.70, -1493.65, 0.000, 0.000, 0.000, 14:07:24.079
9, -1536.45, -1664.20, -1839.84, -1558.27, 0.000, 0.000, 0.000, 14:07:24.109
10, -1979.69, -2149.73, -2206.58, -1874.17, 0.000, 0.000, 0.000, 14:07:24.109
11, -1831.06, -1968.68, -2048.32, -1766.55, 0.000, 0.000, 0.000, 14:07:24.109
12, -1422.97, -1535.29, -1711.65, -1494.83, 0.000, 0.000, 0.000, 14:07:24.109
13, -1510.45, -1668.89, -1839.99, -1553.05, 0.000, 0.000, 0.000, 14:07:24.110
14, -1962.01, -2145.17, -2211.60, -1866.64, 0.000, 0.000, 0.000, 14:07:24.110
15, -1794.36, -1989.00, -2045.59, -1751.98, 0.000, 0.000, 0.000, 14:07:24.110
16, -1389.54, -1547.85, -1700.55, -1486.77, 0.000, 0.000, 0.000, 14:07:24.110
17, -1480.27, -1687.94, -1828.45, -1549.58, 0.000, 0.000, 0.000, 14:07:24.123
18, -1912.86, -2141.06, -2209.29, -1858.13, 0.000, 0.000, 0.000, 14:07:24.123
19, -1744.57, -1994.71, -2037.30, -1751.02, 0.000, 0.000, 0.000, 14:07:24.146
20, -1318.26, -1575.29, -1699.30, -1470.27, 0.000, 0.000, 0.000, 14:07:24.146
21, -1388.92, -1727.68, -1817.41, -1542.58, 0.000, 0.000, 0.000, 14:07:24.154
22, -1807.84, -2196.58, -2190.62, -1855.87, 0.000, 0.000, 0.000, 14:07:24.154
23, -1624.65, -2034.85, -2028.94, -1737.42, 0.000, 0.000, 0.000, 14:07:24.154
24, -1185.36, -1629.08, -1697.62, -1467.36, 0.000, 0.000, 0.000, 14:07:24.154
25, -1262.92, -1772.53, -1822.44, -1540.80, 0.000, 0.000, 0.000, 14:07:24.184
26, -1704.94, -2264.52, -2178.03, -1853.36, 0.000, 0.000, 0.000, 14:07:24.184
27, -1561.75, -2096.75, -2036.67, -1741.65, 0.000, 0.000, 0.000, 14:07:24.185
28, -1183.81, -1669.93, -1701.81, -1461.91, 0.000, 0.000, 0.000, 14:07:24.185
29, -1316.08, -1779.01, -1836.09, -1545.45, 0.000, 0.000, 0.000, 14:07:24.185
30, -1792.17, -2245.43, -2183.16, -1854.55, 0.000, 0.000, 0.000, 14:07:24.185
31, -1687.99, -2051.27, -2052.18, -1753.82, 0.000, 0.000, 0.000, 14:07:24.198
32, -1340.35, -1602.85, -1700.41, -1479.69, 0.000, 0.000, 0.000, 14:07:24.198
33, -1476.02, -1708.45, -1843.71, -1559.56, 0.000, 0.000, 0.000, 14:07:24.214
34, -1950.85, -2173.97, -2211.42, -1863.31, 0.000, 0.000, 0.000, 14:07:24.214
35, -1838.41, -1958.76, -2049.16, -1755.59, 0.000, 0.000, 0.000, 14:07:24.214
36, -1459.51, -1512.34, -1717.55, -1487.81, 0.000, 0.000, 0.000, 14:07:24.214
37, -1580.97, -1638.09, -1845.37, -1572.41, 0.000, 0.000, 0.000, 14:07:24.229
38, -2043.14, -2102.03, -2214.24, -1879.02, 0.000, 0.000, 0.000, 14:07:24.229
39, -1888.84, -1919.28, -2045.83, -1758.04, 0.000, 0.000, 0.000, 14:07:24.245
40, -1506.50, -1482.29, -1705.56, -1482.12, 0.000, 0.000, 0.000, 14:07:24.245
41, -1627.18, -1625.99, -1844.60, -1571.74, 0.000, 0.000, 0.000, 14:07:24.245
42, -2065.68, -2076.33, -2205.88, -1883.32, 0.000, 0.000, 0.000, 14:07:24.245
43, -1908.68, -1900.33, -2044.69, -1759.35, 0.000, 0.000, 0.000, 14:07:24.259
44, -1505.24, -1471.30, -1696.10, -1487.05, 0.000, 0.000, 0.000, 14:07:24.259
45, -1623.84, -1616.78, -1848.96, -1568.60, 0.000, 0.000, 0.000, 14:07:24.274
46, -2064.04, -2076.62, -2204.48, -1877.75, 0.000, 0.000, 0.000, 14:07:24.274
47, -1903.75, -1897.58, -2031.43, -1765.70, 0.000, 0.000, 0.000, 14:07:24.275
48, -1497.12, -1472.76, -1698.80, -1488.12, 0.000, 0.000, 0.000, 14:07:24.275
49, -1619.36, -1624.83, -1858.40, -1574.91, 0.000, 0.000, 0.000, 14:07:24.289
50, -2063.07, -2081.63, -2204.37, -1870.86, 0.000, 0.000, 0.000, 14:07:24.289
51, -1897.71, -1914.53, -2039.51, -1761.74, 0.000, 0.000, 0.000, 14:07:24.304
52, -1487.14, -1479.93, -1703.16, -1481.27, 0.000, 0.000, 0.000, 14:07:24.304
53, -1608.44, -1632.83, -1848.74, -1573.36, 0.000, 0.000, 0.000, 14:07:24.304
54, -2043.63, -2082.80, -2206.43, -1870.39, 0.000, 0.000, 0.000, 14:07:24.305
55, -1894.16, -1917.20, -2047.33, -1756.56, 0.000, 0.000, 0.000, 14:07:24.319
56, -1490.53, -1493.48, -1706.32, -1484.15, 0.000, 0.000, 0.000, 14:07:24.319
57, -1600.39, -1642.56, -1852.64, -1569.36, 0.000, 0.000, 0.000, 14:07:24.333
58, -2034.53, -2091.25, -2205.07, -1873.50, 0.000, 0.000, 0.000, 14:07:24.334
59, -1863.33, -1927.96, -2039.82, -1755.11, 0.000, 0.000, 0.000, 14:07:24.334
60, -1463.01, -1489.37, -1691.70, -1479.75, 0.000, 0.000, 0.000, 14:07:24.334
61, -1578.18, -1653.64, -1850.20, -1571.41, 0.000, 0.000, 0.000, 14:07:24.349
62, -2011.60, -2111.98, -2204.76, -1868.62, 0.000, 0.000, 0.000, 14:07:24.349
63, -1850.78, -1924.37, -2024.17, -1753.00, 0.000, 0.000, 0.000, 14:07:24.364
64, -1447.90, -1499.09, -1692.54, -1480.01, 0.000, 0.000, 0.000, 14:07:24.364
65, -1576.31, -1646.13, -1837.84, -1575.59, 0.000, 0.000, 0.000, 14:07:24.364
66, -2009.08, -2117.99, -2201.45, -1871.54, 0.000, 0.000, 0.000, 14:07:24.364
67, -1847.30, -1924.98, -2034.35, -1747.27, 0.000, 0.000, 0.000, 14:07:24.379
68, -1445.81, -1500.62, -1697.76, -1476.33, 0.000, 0.000, 0.000, 14:07:24.379
69, -1555.70, -1661.87, -1848.61, -1573.49, 0.000, 0.000, 0.000, 14:07:24.395
70, -1998.28, -2117.16, -2191.63, -1874.17, 0.000, 0.000, 0.000, 14:07:24.395
71, -1832.93, -1939.46, -2029.45, -1752.70, 0.000, 0.000, 0.000, 14:07:24.395
72, -1424.08, -1500.66, -1692.31, -1476.91, 0.000, 0.000, 0.000, 14:07:24.395
73, -1558.36, -1664.80, -1845.99, -1573.19, 0.000, 0.000, 0.000, 14:07:24.424
74, -1984.79, -2126.62, -2203.48, -1866.60, 0.000, 0.000, 0.000, 14:07:24.424
75, -1821.84, -1936.19, -2029.86, -1748.80, 0.000, 0.000, 0.000, 14:07:24.424
76, -1418.88, -1510.39, -1695.64, -1476.92, 0.000, 0.000, 0.000, 14:07:24.424
77, -1560.15, -1665.70, -1854.65, -1569.94, 0.000, 0.000, 0.000, 14:07:24.425
78, -1991.36, -2125.14, -2204.90, -1870.21, 0.000, 0.000, 0.000, 14:07:24.425
79, -1828.43, -1950.71, -2029.87, -1757.15, 0.000, 0.000, 0.000, 14:07:24.439
80, -1424.93, -1527.45, -1707.57, -1475.58, 0.000, 0.000, 0.000, 14:07:24.439
81, -1559.53, -1686.93, -1867.61, -1581.35, 0.000, 0.000, 0.000, 14:07:24.454
82, -1985.21, -2147.35, -2211.63, -1874.63, 0.000, 0.000, 0.000, 14:07:24.455
83, -1811.20, -1945.53, -2031.08, -1752.13, 0.000, 0.000, 0.000, 14:07:24.455
84, -1401.16, -1517.24, -1687.74, -1471.85, 0.000, 0.000, 0.000, 14:07:24.455
85, -1550.80, -1667.64, -1852.13, -1570.26, 0.000, 0.000, 0.000, 14:07:24.469
86, -1976.55, -2135.01, -2201.04, -1870.10, 0.000, 0.000, 0.000, 14:07:24.469
87, -1810.86, -1933.72, -2030.34, -1744.85, 0.000, 0.000, 0.000, 14:07:24.483
88, -1406.79, -1511.42, -1687.76, -1469.52, 0.000, 0.000, 0.000, 14:07:24.484
89, -1539.72, -1665.38, -1845.81, -1563.41, 0.000, 0.000, 0.000, 14:07:24.484
90, -1981.59, -2126.40, -2202.95, -1876.29, 0.000, 0.000, 0.000, 14:07:24.484
91, -1810.65, -1928.41, -2036.95, -1750.51, 0.000, 0.000, 0.000, 14:07:24.499
92, -1393.91, -1504.49, -1695.71, -1454.65, 0.000, 0.000, 0.000, 14:07:24.499
93, -1544.50, -1675.18, -1868.80, -1565.62, 0.000, 0.000, 0.000, 14:07:24.515
94, -1976.34, -2138.88, -2210.31, -1863.20, 0.000, 0.000, 0.000, 14:07:24.515
95, -1803.59, -1936.88, -2035.41, -1735.59, 0.000, 0.000, 0.000, 14:07:24.515
96, -1399.36, -1508.24, -1697.53, -1469.45, 0.000, 0.000, 0.000, 14:07:24.515
97, -1553.53, -1682.17, -1854.39, -1568.05, 0.000, 0.000, 0.000, 14:07:24.544
98, -1982.61, -2135.87, -2202.43, -1863.53, 0.000, 0.000, 0.000, 14:07:24.544
99, -1814.18, -1948.98, -2045.41, -1750.00, 0.000, 0.000, 0.000, 14:07:24.544
100, -1415.35, -1511.63, -1706.36, -1480.79, 0.000, 0.000, 0.000, 14:07:24.544
101, -1560.32, -1689.12, -1866.23, -1580.58, 0.000, 0.000, 0.000, 14:07:24.545
102, -1982.63, -2138.68, -2209.00, -1878.23, 0.000, 0.000, 0.000, 14:07:24.545
103, -1817.91, -1943.08, -2036.64, -1754.99, 0.000, 0.000, 0.000, 14:07:24.558
104, -1411.16, -1506.14, -1702.19, -1468.93, 0.000, 0.000, 0.000, 14:07:24.560
105, -1557.30, -1688.23, -1862.07, -1577.42, 0.000, 0.000, 0.000, 14:07:24.573
106, -1983.16, -2146.03, -2208.09, -1868.23, 0.000, 0.000, 0.000, 14:07:24.573
107, -1816.07, -1945.67, -2037.00, -1749.58, 0.000, 0.000, 0.000, 14:07:24.574
108, -1408.04, -1513.22, -1693.29, -1464.98, 0.000, 0.000, 0.000, 14:07:24.574
109, -1559.77, -1689.83, -1860.85, -1582.47, 0.000, 0.000, 0.000, 14:07:24.589
110, -1985.13, -2146.14, -2209.36, -1873.47, 0.000, 0.000, 0.000, 14:07:24.589
111, -1808.18, -1938.74, -2025.35, -1749.28, 0.000, 0.000, 0.000, 14:07:24.604
112, -1415.66, -1514.14, -1708.61, -1471.06, 0.000, 0.000, 0.000, 14:07:24.604
113, -1562.26, -1692.99, -1870.60, -1578.04, 0.000, 0.000, 0.000, 14:07:24.604
114, -1979.37, -2133.98, -2205.88, -1872.89, 0.000, 0.000, 0.000, 14:07:24.604
115, -1804.99, -1931.45, -2030.72, -1747.67, 0.000, 0.000, 0.000, 14:07:24.626
116, -1403.63, -1518.71, -1698.21, -1475.01, 0.000, 0.000, 0.000, 14:07:24.626
117, -1567.36, -1695.83, -1866.41, -1579.70, 0.000, 0.000, 0.000, 14:07:24.634
118, -1985.02, -2139.13, -2205.99, -1874.47, 0.000, 0.000, 0.000, 14:07:24.634
119, -1802.92, -1929.05, -2030.10, -1745.52, 0.000, 0.000, 0.000, 14:07:24.635
120, -1409.69, -1516.41, -1688.92, -1469.24, 0.000, 0.000, 0.000, 14:07:24.635
121, -1553.10, -1690.95, -1850.30, -1583.64, 0.000, 0.000, 0.000, 14:07:24.649
122, -1978.72, -2138.92, -2196.00, -1873.90, 0.000, 0.000, 0.000, 14:07:24.649
123, -1806.67, -1943.75, -2010.94, -1744.21, 0.000, 0.000, 0.000, 14:07:24.664
124, -1403.06, -1495.25, -1696.27, -1470.24, 0.000, 0.000, 0.000, 14:07:24.664
125, -1552.85, -1699.08, -1859.54, -1588.03, 0.000, 0.000, 0.000, 14:07:24.665
126, -1978.54, -2123.51, -2188.57, -1867.13, 0.000, 0.000, 0.000, 14:07:24.665
127, -1799.33, -1935.04, -2015.99, -1740.37, 0.000, 0.000, 0.000, 14:07:24.679
128, -1399.73, -1504.99, -1692.90, -1465.92, 0.000, 0.000, 0.000, 14:07:24.679
129, -1563.23, -1704.01, -1874.62, -1585.24, 0.000, 0.000, 0.000, 14:07:24.694
130, -1984.37, -2135.65, -2210.76, -1877.66, 0.000, 0.000, 0.000, 14:07:24.694
131, -1794.80, -1937.02, -2015.38, -1742.95, 0.000, 0.000, 0.000, 14:07:24.696
132, -1398.21, -1505.28, -1698.04, -1468.93, 0.000, 0.000, 0.000, 14:07:24.696
133, -1568.95, -1714.54, -1879.44, -1588.02, 0.000, 0.000, 0.000, 14:07:24.709
134, -1982.10, -2127.37, -2203.86, -1874.13, 0.000, 0.000, 0.000, 14:07:24.710
135, -1812.45, -1940.51, -2031.35, -1745.70, 0.000, 0.000, 0.000, 14:07:24.724
136, -1401.37, -1509.73, -1691.91, -1473.26, 0.000, 0.000, 0.000, 14:07:24.724
137, -1565.39, -1694.63, -1857.68, -1592.57, 0.000, 0.000, 0.000, 14:07:24.725
138, -1978.07, -2138.21, -2202.43, -1874.77, 0.000, 0.000, 0.000, 14:07:24.725
139, -1795.86, -1929.09, -2022.27, -1754.13, 0.000, 0.000, 0.000, 14:07:24.739
140, -1385.75, -1511.19, -1684.15, -1469.42, 0.000, 0.000, 0.000, 14:07:24.739
141, -1557.90, -1705.32, -1875.90, -1584.10, 0.000, 0.000, 0.000, 14:07:24.753
142, -1950.87, -2164.66, -2192.88, -1866.83, 0.000, 0.000, 0.000, 14:07:24.753
143, -1772.45, -1941.15, -2014.48, -1738.67, 0.000, 0.000, 0.000, 14:07:24.754
144, -1360.92, -1529.73, -1672.79, -1454.71, 0.000, 0.000, 0.000, 14:07:24.754
145, -1516.25, -1707.75, -1880.17, -1588.00, 0.000, 0.000, 0.000, 14:07:24.784
146, -1918.31, -2165.13, -2175.58, -1860.63, 0.000, 0.000, 0.000, 14:07:24.784
147, -1697.86, -1970.40, -2022.16, -1729.29, 0.000, 0.000, 0.000, 14:07:24.784
148, -1270.60, -1540.38, -1674.11, -1455.42, 0.000, 0.000, 0.000, 14:07:24.784
149, -1416.42, -1773.80, -1865.12, -1578.95, 0.000, 0.000, 0.000, 14:07:24.785
150, -1788.63, -2226.31, -2188.09, -1856.10, 0.000, 0.000, 0.000, 14:07:24.785
151, -1576.81, -2040.02, -2017.60, -1733.34, 0.000, 0.000, 0.000, 14:07:24.799
152, -1150.99, -1621.87, -1684.20, -1454.11, 0.000, 0.000, 0.000, 14:07:24.799
153, -1296.77, -1835.40, -1872.23, -1571.48, 0.000, 0.000, 0.000, 14:07:24.829
154, -1699.48, -2270.55, -2209.58, -1853.02, 0.000, 0.000, 0.000, 14:07:24.829
155, -1519.02, -2066.17, -2007.37, -1725.76, 0.000, 0.000, 0.000, 14:07:24.829
156, -1149.11, -1639.64, -1673.85, -1457.14, 0.000, 0.000, 0.000, 14:07:24.829
157, -1355.23, -1837.12, -1876.59, -1576.65, 0.000, 0.000, 0.000, 14:07:24.831
158, -1801.18, -2259.90, -2199.22, -1858.95, 0.000, 0.000, 0.000, 14:07:24.831
159, -1644.90, -2021.49, -2014.19, -1732.18, 0.000, 0.000, 0.000, 14:07:24.831
160, -1291.70, -1583.27, -1691.60, -1455.05, 0.000, 0.000, 0.000, 14:07:24.831
161, -1513.79, -1775.34, -1882.71, -1597.40, 0.000, 0.000, 0.000, 14:07:24.859
162, -1954.02, -2182.77, -2202.29, -1876.58, 0.000, 0.000, 0.000, 14:07:24.859
163, -1794.36, -1941.14, -2022.67, -1744.10, 0.000, 0.000, 0.000, 14:07:24.860
164, -1423.83, -1492.48, -1680.84, -1472.66, 0.000, 0.000, 0.000, 14:07:24.860
165, -1632.22, -1693.68, -1895.38, -1596.77, 0.000, 0.000, 0.000, 14:07:24.873
166, -2053.63, -2103.12, -2207.52, -1880.78, 0.000, 0.000, 0.000, 14:07:24.874
167, -1875.40, -1889.25, -2018.02, -1752.39, 0.000, 0.000, 0.000, 14:07:24.874
168, -1482.20, -1451.93, -1685.56, -1474.36, 0.000, 0.000, 0.000, 14:07:24.874
169, -1667.12, -1654.52, -1861.92, -1605.13, 0.000, 0.000, 0.000, 14:07:24.889
170, -2077.87, -2069.51, -2189.54, -1885.39, 0.000, 0.000, 0.000, 14:07:24.889
171, -1904.25, -1865.34, -2014.34, -1755.07, 0.000, 0.000, 0.000, 14:07:24.905
172, -1504.92, -1446.39, -1691.72, -1479.41, 0.000, 0.000, 0.000, 14:07:24.905
173, -1681.05, -1662.39, -1884.61, -1611.17, 0.000, 0.000, 0.000, 14:07:24.905
174, -2091.57, -2068.30, -2219.32, -1879.19, 0.000, 0.000, 0.000, 14:07:24.905
175, -1900.62, -1871.30, -2031.43, -1754.45, 0.000, 0.000, 0.000, 14:07:24.934
176, -1497.40, -1443.81, -1695.50, -1478.75, 0.000, 0.000, 0.000, 14:07:24.934
177, -1678.16, -1657.32, -1899.89, -1602.42, 0.000, 0.000, 0.000, 14:07:24.934
178, -2075.10, -2082.03, -2190.63, -1882.61, 0.000, 0.000, 0.000, 14:07:24.934
179, -1890.36, -1873.80, -2032.96, -1746.20, 0.000, 0.000, 0.000, 14:07:24.935
180, -1488.06, -1452.05, -1685.44, -1474.35, 0.000, 0.000, 0.000, 14:07:24.935
181, -1657.72, -1668.93, -1875.20, -1598.96, 0.000, 0.000, 0.000, 14:07:24.948
182, -2058.33, -2082.71, -2211.77, -1871.51, 0.000, 0.000, 0.000, 14:07:24.948
183, -1865.09, -1880.42, -2028.79, -1742.34, 0.000, 0.000, 0.000, 14:07:24.965
184, -1466.08, -1448.91, -1695.55, -1467.50, 0.000, 0.000, 0.000, 14:07:24.965
185, -1637.89, -1667.21, -1874.90, -1599.74, 0.000, 0.000, 0.000, 14:07:24.965
186, -2035.50, -2096.62, -2213.37, -1877.61, 0.000, 0.000, 0.000, 14:07:24.965
187, -1852.51, -1898.18, -2015.91, -1737.58, 0.000, 0.000, 0.000, 14:07:24.979
188, -1449.19, -1469.99, -1698.90, -1468.36, 0.000, 0.000, 0.000, 14:07:24.979
189, -1638.16, -1691.63, -1882.23, -1601.51, 0.000, 0.000, 0.000, 14:07:24.994
190, -2023.10, -2110.48, -2206.88, -1877.39, 0.000, 0.000, 0.000, 14:07:24.994
191, -1828.28, -1890.42, -2015.65, -1743.89, 0.000, 0.000, 0.000, 14:07:24.994
192, -1438.86, -1473.14, -1676.91, -1473.69, 0.000, 0.000, 0.000, 14:07:24.994
193, -1622.39, -1691.21, -1883.57, -1606.24, 0.000, 0.000, 0.000, 14:07:25.009
194, -2014.06, -2107.55, -2195.46, -1876.52, 0.000, 0.000, 0.000, 14:07:25.009
195, -1823.31, -1900.78, -2004.89, -1747.23, 0.000, 0.000, 0.000, 14:07:25.024
196, -1433.66, -1489.00, -1691.82, -1470.62, 0.000, 0.000, 0.000, 14:07:25.024
197, -1611.36, -1702.25, -1866.32, -1608.48, 0.000, 0.000, 0.000, 14:07:25.039
198, -2015.28, -2122.92, -2197.93, -1879.23, 0.000, 0.000, 0.000, 14:07:25.039
199, -1821.20, -1905.76, -2009.29, -1740.98, 0.000, 0.000, 0.000, 14:07:25.040
200, -1418.26, -1485.93, -1671.29, -1467.33, 0.000, 0.000, 0.000, 14:07:25.040
0, -1599.71, -1707.85, -1889.00, -1606.74, 0.000, 0.000, 0.000, 14:07:25.040
1, -1997.00, -2115.38, -2188.54, -1872.30, 0.000, 0.000, 0.000, 14:07:25.053
2, -1801.50, -1902.48, -2003.12, -1734.35, 0.000, 0.000, 0.000, 14:07:25.053
3, -1403.29, -1486.71, -1689.76, -1460.86, 0.000, 0.000, 0.000, 14:07:25.068
4, -1597.78, -1712.32, -1888.88, -1603.31, 0.000, 0.000, 0.000, 14:07:25.068
5, -1990.64, -2125.59, -2210.53, -1872.82, 0.000, 0.000, 0.000, 14:07:25.069
6, -1803.91, -1907.76, -1998.84, -1737.59, 0.000, 0.000, 0.000, 14:07:25.069
7, -1407.63, -1487.26, -1678.34, -1464.20, 0.000, 0.000, 0.000, 14:07:25.083
8, -1603.15, -1723.72, -1892.84, -1610.59, 0.000, 0.000, 0.000, 14:07:25.083
9, -2000.38, -2147.72, -2234.62, -1882.07, 0.000, 0.000, 0.000, 14:07:25.098
10, -1814.36, -1934.93, -2042.22, -1738.37, 0.000, 0.000, 0.000, 14:07:25.098
11, -1404.11, -1506.31, -1684.99, -1467.56, 0.000, 0.000, 0.000, 14:07:25.099
12, -1604.92, -1729.25, -1895.49, -1606.19, 0.000, 0.000, 0.000, 14:07:25.099
13, -1986.79, -2121.93, -2199.81, -1869.93, 0.000, 0.000, 0.000, 14:07:25.114
14, -1783.53, -1912.68, -2004.95, -1728.62, 0.000, 0.000, 0.000, 14:07:25.114
15, -1397.77, -1486.65, -1686.45, -1458.37, 0.000, 0.000, 0.000, 14:07:25.129
16, -1595.28, -1709.80, -1900.37, -1603.01, 0.000, 0.000, 0.000, 14:07:25.129
17, -1984.04, -2117.33, -2197.96, -1867.67, 0.000, 0.000, 0.000, 14:07:25.130
18, -1785.79, -1899.61, -2006.69, -1723.66, 0.000, 0.000, 0.000, 14:07:25.130
19, -1389.26, -1486.69, -1681.52, -1456.92, 0.000, 0.000, 0.000, 14:07:25.146
20, -1587.43, -1716.37, -1894.25, -1607.29, 0.000, 0.000, 0.000, 14:07:25.146
21, -1977.64, -2116.32, -2198.62, -1863.34, 0.000, 0.000, 0.000, 14:07:25.159
22, -1797.08, -1899.62, -2014.46, -1728.69, 0.000, 0.000, 0.000, 14:07:25.159
23, -1393.62, -1479.32, -1686.68, -1459.28, 0.000, 0.000, 0.000, 14:07:25.159
24, -1587.49, -1715.60, -1903.92, -1605.15, 0.000, 0.000, 0.000, 14:07:25.160
25, -1976.26, -2125.25, -2191.56, -1874.74, 0.000, 0.000, 0.000, 14:07:25.173
26, -1781.25, -1907.62, -2014.33, -1736.88, 0.000, 0.000, 0.000, 14:07:25.173
27, -1387.52, -1503.79, -1684.33, -1466.07, 0.000, 0.000, 0.000, 14:07:25.189
28, -1586.60, -1740.58, -1894.09, -1608.30, 0.000, 0.000, 0.000, 14:07:25.189
29, -1954.18, -2140.64, -2197.90, -1864.86, 0.000, 0.000, 0.000, 14:07:25.190
30, -1776.60, -1933.16, -2021.93, -1732.03, 0.000, 0.000, 0.000, 14:07:25.190
31, -1351.00, -1502.13, -1673.82, -1456.44, 0.000, 0.000, 0.000, 14:07:25.220
32, -1586.75, -1754.85, -1898.77, -1610.26, 0.000, 0.000, 0.000, 14:07:25.220
33, -1948.50, -2149.28, -2171.36, -1868.79, 0.000, 0.000, 0.000, 14:07:25.220
34, -1759.17, -1927.29, -2001.45, -1730.75, 0.000, 0.000, 0.000, 14:07:25.220
35, -1367.11, -1512.65, -1691.93, -1457.01, 0.000, 0.000, 0.000, 14:07:25.221
36, -1582.24, -1756.85, -1908.17, -1610.78, 0.000, 0.000, 0.000, 14:07:25.221
37, -1991.77, -2153.51, -2203.98, -1884.60, 0.000, 0.000, 0.000, 14:07:25.234
38, -1794.10, -1930.15, -2022.02, -1741.41, 0.000, 0.000, 0.000, 14:07:25.234
39, -1396.13, -1509.29, -1691.58, -1468.39, 0.000, 0.000, 0.000, 14:07:25.264
40, -1607.31, -1747.60, -1914.95, -1620.64, 0.000, 0.000, 0.000, 14:07:25.264
41, -1988.49, -2144.40, -2208.48, -1874.86, 0.000, 0.000, 0.000, 14:07:25.264
42, -1789.65, -1925.57, -2002.83, -1734.36, 0.000, 0.000, 0.000, 14:07:25.264
43, -1384.65, -1484.96, -1686.92, -1464.86, 0.000, 0.000, 0.000, 14:07:25.265
44, -1606.63, -1733.71, -1908.50, -1620.35, 0.000, 0.000, 0.000, 14:07:25.265
45, -2000.27, -2130.70, -2199.38, -1875.45, 0.000, 0.000, 0.000, 14:07:25.265
46, -1789.13, -1901.06, -2004.03, -1733.10, 0.000, 0.000, 0.000, 14:07:25.266
47, -1397.90, -1487.86, -1687.35, -1460.40, 0.000, 0.000, 0.000, 14:07:25.294
48, -1616.23, -1725.88, -1905.35, -1618.95, 0.000, 0.000, 0.000, 14:07:25.294
49, -1995.67, -2141.83, -2194.92, -1873.12, 0.000, 0.000, 0.000, 14:07:25.295
50, -1797.37, -1905.25, -2005.52, -1727.98, 0.000, 0.000, 0.000, 14:07:25.295
51, -1401.79, -1483.92, -1697.62, -1460.45, 0.000, 0.000, 0.000, 14:07:25.309
52, -1613.02, -1728.26, -1907.55, -1620.38, 0.000, 0.000, 0.000, 14:07:25.310
53, -1996.32, -2125.16, -2199.33, -1874.98, 0.000, 0.000, 0.000, 14:07:25.310
54, -1790.84, -1907.40, -2016.75, -1735.06, 0.000, 0.000, 0.000, 14:07:25.310
55, -1392.77, -1496.01, -1683.15, -1452.01, 0.000, 0.000, 0.000, 14:07:25.324
56, -1620.20, -1731.84, -1908.17, -1617.28, 0.000, 0.000, 0.000, 14:07:25.324
57, -1996.68, -2118.11, -2206.88, -1872.80, 0.000, 0.000, 0.000, 14:07:25.338
58, -1788.18, -1909.21, -1999.38, -1729.62, 0.000, 0.000, 0.000, 14:07:25.338
59, -1390.38, -1482.62, -1679.77, -1456.37, 0.000, 0.000, 0.000, 14:07:25.339
60, -1622.88, -1749.97, -1924.47, -1617.15, 0.000, 0.000, 0.000, 14:07:25.339
61, -1990.09, -2124.98, -2199.15, -1876.95, 0.000, 0.000, 0.000, 14:07:25.354
62, -1785.94, -1892.20, -1999.83, -1726.99, 0.000, 0.000, 0.000, 14:07:25.354
63, -1380.64, -1472.70, -1680.26, -1452.90, 0.000, 0.000, 0.000, 14:07:25.368
64, -1608.76, -1739.60, -1914.23, -1616.22, 0.000, 0.000, 0.000, 14:07:25.368
65, -1980.83, -2130.41, -2204.00, -1879.79, 0.000, 0.000, 0.000, 14:07:25.383
66, -1773.16, -1891.63, -2003.13, -1721.66, 0.000, 0.000, 0.000, 14:07:25.383
67, -1381.71, -1482.25, -1682.72, -1455.09, 0.000, 0.000, 0.000, 14:07:25.384
68, -1605.49, -1740.46, -1916.50, -1620.14, 0.000, 0.000, 0.000, 14:07:25.384
69, -1982.82, -2127.52, -2188.25, -1871.09, 0.000, 0.000, 0.000, 14:07:25.414
70, -1778.01, -1914.14, -2001.02, -1729.70, 0.000, 0.000, 0.000, 14:07:25.414
71, -1381.70, -1492.70, -1685.99, -1456.52, 0.000, 0.000, 0.000, 14:07:25.414
72, -1612.02, -1746.82, -1904.48, -1624.55, 0.000, 0.000, 0.000, 14:07:25.414
73, -1972.02, -2136.13, -2197.33, -1876.41, 0.000, 0.000, 0.000, 14:07:25.414
74, -1769.49, -1907.41, -2002.86, -1725.03, 0.000, 0.000, 0.000, 14:07:25.415
75, -1377.69, -1488.45, -1686.28, -1468.68, 0.000, 0.000, 0.000, 14:07:25.415
76, -1611.17, -1756.28, -1916.45, -1643.13, 0.000, 0.000, 0.000, 14:07:25.415
77, -1974.44, -2139.29, -2199.24, -1878.48, 0.000, 0.000, 0.000, 14:07:25.429
78, -1766.54, -1886.71, -2007.30, -1720.06, 0.000, 0.000, 0.000, 14:07:25.429
79, -1408.72, -1464.73, -1685.30, -1450.39, 0.000, 0.000, 0.000, 14:07:25.445
80, -1628.11, -1721.90, -1901.70, -1611.15, 0.000, 0.000, 0.000, 14:07:25.445
81, -1998.26, -2103.90, -2204.26, -1869.63, 0.000, 0.000, 0.000, 14:07:25.460
82, -1796.07, -1873.62, -1997.28, -1720.19, 0.000, 0.000, 0.000, 14:07:25.460
83, -1397.13, -1454.73, -1675.50, -1455.30, 0.000, 0.000, 0.000, 14:07:25.473
84, -1631.83, -1726.17, -1917.22, -1627.23, 0.000, 0.000, 0.000, 14:07:25.473
85, -2003.28, -2104.61, -2201.94, -1871.32, 0.000, 0.000, 0.000, 14:07:25.475
86, -1775.23, -1877.43, -1988.93, -1724.39, 0.000, 0.000, 0.000, 14:07:25.475
87, -1393.88, -1459.34, -1674.68, -1453.21, 0.000, 0.000, 0.000, 14:07:25.489
88, -1635.22, -1739.51, -1926.00, -1625.40, 0.000, 0.000, 0.000, 14:07:25.489
89, -2000.32, -2118.99, -2191.46, -1872.86, 0.000, 0.000, 0.000, 14:07:25.504
90, -1781.91, -1907.11, -1987.27, -1720.57, 0.000, 0.000, 0.000, 14:07:25.504
91, -1389.33, -1475.20, -1670.37, -1456.98, 0.000, 0.000, 0.000, 14:07:25.505
92, -1624.35, -1751.26, -1920.74, -1622.29, 0.000, 0.000, 0.000, 14:07:25.505
93, -1993.36, -2139.25, -2212.23, -1875.11, 0.000, 0.000, 0.000, 14:07:25.518
94, -1773.27, -1894.49, -2000.86, -1723.51, 0.000, 0.000, 0.000, 14:07:25.519
95, -1383.69, -1478.80, -1675.67, -1458.09, 0.000, 0.000, 0.000, 14:07:25.519
96, -1618.75, -1754.69, -1919.64, -1632.68, 0.000, 0.000, 0.000, 14:07:25.519
97, -1982.53, -2132.38, -2207.03, -1875.63, 0.000, 0.000, 0.000, 14:07:25.534
98, -1764.80, -1888.88, -2009.86, -1727.75, 0.000, 0.000, 0.000, 14:07:25.535
99, -1367.61, -1483.52, -1678.74, -1454.89, 0.000, 0.000, 0.000, 14:07:25.549
100, -1597.93, -1748.89, -1899.81, -1627.56, 0.000, 0.000, 0.000, 14:07:25.549
101, -1971.10, -2119.93, -2201.66, -1877.61, 0.000, 0.000, 0.000, 14:07:25.549
102, -1754.30, -1894.14, -1980.96, -1723.53, 0.000, 0.000, 0.000, 14:07:25.549
103, -1366.23, -1484.76, -1676.44, -1451.19, 0.000, 0.000, 0.000, 14:07:25.579
104, -1614.78, -1757.88, -1917.65, -1625.99, 0.000, 0.000, 0.000, 14:07:25.579
105, -1971.85, -2134.52, -2187.79, -1872.69, 0.000, 0.000, 0.000, 14:07:25.580
106, -1762.60, -1888.43, -1989.95, -1723.53, 0.000, 0.000, 0.000, 14:07:25.580
107, -1367.01, -1486.12, -1681.48, -1455.14, 0.000, 0.000, 0.000, 14:07:25.594
108, -1609.56, -1755.41, -1929.00, -1634.86, 0.000, 0.000, 0.000, 14:07:25.594
109, -1977.72, -2124.78, -2203.64, -1878.34, 0.000, 0.000, 0.000, 14:07:25.595
110, -1761.98, -1899.34, -2003.70, -1720.96, 0.000, 0.000, 0.000, 14:07:25.595
111, -1372.66, -1483.35, -1676.96, -1455.99, 0.000, 0.000, 0.000, 14:07:25.609
112, -1622.05, -1780.36, -1931.90, -1643.96, 0.000, 0.000, 0.000, 14:07:25.609
113, -2011.32, -2172.98, -2223.30, -1896.06, 0.000, 0.000, 0.000, 14:07:25.609
114, -1756.71, -1884.19, -1957.29, -1723.85, 0.000, 0.000, 0.000, 14:07:25.609
115, -1345.66, -1459.10, -1645.30, -1454.72, 0.000, 0.000, 0.000, 14:07:25.624
116, -1600.10, -1754.76, -1891.27, -1641.00, 0.000, 0.000, 0.000, 14:07:25.624
117, -1953.37, -2109.44, -2166.54, -1892.22, 0.000, 0.000, 0.000, 14:07:25.639
118, -1729.43, -1875.24, -1958.33, -1741.83, 0.000, 0.000, 0.000, 14:07:25.639
119, -1348.65, -1472.58, -1644.50, -1476.76, 0.000, 0.000, 0.000, 14:07:25.654
120, -1613.90, -1770.48, -1912.78, -1654.23, 0.000, 0.000, 0.000, 14:07:25.654
121, -1957.65, -2124.29, -2179.74, -1891.62, 0.000, 0.000, 0.000, 14:07:25.654
122, -1748.54, -1890.92, -1963.42, -1730.11, 0.000, 0.000, 0.000, 14:07:25.655
123, -1359.33, -1483.53, -1668.02, -1467.67, 0.000, 0.000, 0.000, 14:07:25.669
124, -1616.43, -1768.64, -1907.06, -1641.42, 0.000, 0.000, 0.000, 14:07:25.669
125, -1963.43, -2127.67, -2193.17, -1886.32, 0.000, 0.000, 0.000, 14:07:25.670
126, -1758.69, -1889.99, -1979.59, -1727.50, 0.000, 0.000, 0.000, 14:07:25.670
127, -1366.22, -1472.01, -1658.56, -1455.63, 0.000, 0.000, 0.000, 14:07:25.698
128, -1624.85, -1772.86, -1920.84, -1638.67, 0.000, 0.000, 0.000, 14:07:25.698
129, -1980.55, -2118.08, -2200.63, -1876.77, 0.000, 0.000, 0.000, 14:07:25.699
130, -1750.39, -1892.29, -1979.57, -1720.56, 0.000, 0.000, 0.000, 14:07:25.699
131, -1368.87, -1483.20, -1650.66, -1461.04, 0.000, 0.000, 0.000, 14:07:25.700
132, -1621.52, -1770.75, -1917.43, -1644.62, 0.000, 0.000, 0.000, 14:07:25.700
133, -1966.59, -2134.57, -2192.04, -1877.09, 0.000, 0.000, 0.000, 14:07:25.714
134, -1765.51, -1886.28, -1996.19, -1720.63, 0.000, 0.000, 0.000, 14:07:25.714
135, -1366.15, -1475.35, -1661.84, -1457.86, 0.000, 0.000, 0.000, 14:07:25.728
136, -1628.28, -1769.85, -1927.98, -1645.38, 0.000, 0.000, 0.000, 14:07:25.728
137, -1967.61, -2130.43, -2194.25, -1878.24, 0.000, 0.000, 0.000, 14:07:25.729
138, -1760.91, -1884.75, -1981.70, -1724.49, 0.000, 0.000, 0.000, 14:07:25.729
139, -1379.95, -1487.09, -1680.51, -1457.84, 0.000, 0.000, 0.000, 14:07:25.774
140, -1622.73, -1778.24, -1932.65, -1639.39, 0.000, 0.000, 0.000, 14:07:25.774
141, -1972.31, -2141.62, -2195.01, -1874.92, 0.000, 0.000, 0.000, 14:07:25.775
142, -1753.91, -1881.64, -1980.23, -1715.08, 0.000, 0.000, 0.000, 14:07:25.775
143, -1363.50, -1479.71, -1655.76, -1451.26, 0.000, 0.000, 0.000, 14:07:25.775
144, -1635.11, -1781.89, -1921.23, -1648.51, 0.000, 0.000, 0.000, 14:07:25.775
145, -1978.96, -2146.59, -2213.11, -1880.82, 0.000, 0.000, 0.000, 14:07:25.776
146, -1765.42, -1904.30, -1998.91, -1718.80, 0.000, 0.000, 0.000, 14:07:25.776
147, -1368.81, -1493.89, -1685.34, -1452.74, 0.000, 0.000, 0.000, 14:07:25.777
148, -1628.33, -1797.76, -1942.90, -1643.89, 0.000, 0.000, 0.000, 14:07:25.777
149, -1962.64, -2138.12, -2187.05, -1869.47, 0.000, 0.000, 0.000, 14:07:25.789
150, -1743.93, -1877.53, -1962.73, -1707.16, 0.000, 0.000, 0.000, 14:07:25.789
151, -1367.88, -1469.62, -1662.78, -1447.58, 0.000, 0.000, 0.000, 14:07:25.804
152, -1628.37, -1764.41, -1924.90, -1635.49, 0.000, 0.000, 0.000, 14:07:25.804
153, -1971.78, -2132.46, -2197.86, -1870.26, 0.000, 0.000, 0.000, 14:07:25.819
154, -1750.26, -1885.32, -1984.40, -1718.05, 0.000, 0.000, 0.000, 14:07:25.819
155, -1362.19, -1469.35, -1668.90, -1454.33, 0.000, 0.000, 0.000, 14:07:25.827
156, -1639.88, -1782.01, -1937.13, -1644.39, 0.000, 0.000, 0.000, 14:07:25.827
157, -1974.13, -2122.89, -2198.72, -1873.70, 0.000, 0.000, 0.000, 14:07:25.834
158, -1752.02, -1879.46, -1984.02, -1712.53, 0.000, 0.000, 0.000, 14:07:25.834
159, -1370.52, -1478.00, -1664.36, -1448.38, 0.000, 0.000, 0.000, 14:07:25.849
160, -1642.36, -1779.51, -1947.28, -1644.36, 0.000, 0.000, 0.000, 14:07:25.849
161, -1976.04, -2129.10, -2198.68, -1873.25, 0.000, 0.000, 0.000, 14:07:25.850
162, -1754.77, -1886.19, -1997.88, -1714.08, 0.000, 0.000, 0.000, 14:07:25.850
163, -1373.62, -1478.91, -1666.79, -1444.44, 0.000, 0.000, 0.000, 14:07:25.864
164, -1648.79, -1795.61, -1940.97, -1650.78, 0.000, 0.000, 0.000, 14:07:25.866
165, -2003.70, -2150.50, -2217.06, -1896.70, 0.000, 0.000, 0.000, 14:07:25.894
166, -1763.54, -1893.91, -2000.50, -1704.84, 0.000, 0.000, 0.000, 14:07:25.894
167, -1359.64, -1471.22, -1683.56, -1421.05, 0.000, 0.000, 0.000, 14:07:25.894
168, -1629.51, -1804.94, -1962.46, -1622.44, 0.000, 0.000, 0.000, 14:07:25.895
169, -1970.56, -2154.48, -2217.81, -1851.83, 0.000, 0.000, 0.000, 14:07:25.895
170, -1744.66, -1902.10, -2008.97, -1682.26, 0.000, 0.000, 0.000, 14:07:25.895
171, -1354.30, -1490.92, -1693.97, -1422.22, 0.000, 0.000, 0.000, 14:07:25.896
172, -1632.12, -1812.59, -1965.71, -1622.92, 0.000, 0.000, 0.000, 14:07:25.896
173, -1971.68, -2145.24, -2233.35, -1847.10, 0.000, 0.000, 0.000, 14:07:25.910
174, -1746.34, -1900.75, -1996.17, -1696.79, 0.000, 0.000, 0.000, 14:07:25.910
175, -1367.17, -1489.80, -1688.56, -1436.91, 0.000, 0.000, 0.000, 14:07:25.939
176, -1641.66, -1803.00, -1965.64, -1635.38, 0.000, 0.000, 0.000, 14:07:25.939
177, -1970.64, -2140.24, -2203.29, -1864.98, 0.000, 0.000, 0.000, 14:07:25.939
178, -1755.40, -1893.43, -1989.28, -1706.51, 0.000, 0.000, 0.000, 14:07:25.939
179, -1362.15, -1475.85, -1680.54, -1442.63, 0.000, 0.000, 0.000, 14:07:25.940
180, -1647.77, -1799.47, -1959.52, -1641.18, 0.000, 0.000, 0.000, 14:07:25.940
181, -1974.60, -2132.46, -2206.00, -1867.32, 0.000, 0.000, 0.000, 14:07:25.954
182, -1742.26, -1881.00, -1977.01, -1705.94, 0.000, 0.000, 0.000, 14:07:25.954
183, -1365.84, -1472.57, -1686.05, -1445.63, 0.000, 0.000, 0.000, 14:07:25.968
184, -1655.23, -1799.50, -1953.60, -1648.32, 0.000, 0.000, 0.000, 14:07:25.968
185, -1979.89, -2143.10, -2224.31, -1868.38, 0.000, 0.000, 0.000, 14:07:25.969
186, -1750.51, -1883.02, -1990.95, -1702.57, 0.000, 0.000, 0.000, 14:07:25.969
187, -1355.99, -1479.86, -1673.53, -1445.64, 0.000, 0.000, 0.000, 14:07:25.984
188, -1650.87, -1798.62, -1959.34, -1646.15, 0.000, 0.000, 0.000, 14:07:25.984
189, -1975.82, -2142.33, -2205.94, -1869.47, 0.000, 0.000, 0.000, 14:07:26.015
190, -1755.61, -1891.86, -1982.16, -1707.67, 0.000, 0.000, 0.000, 14:07:26.015
191, -1374.38, -1484.13, -1667.36, -1449.27, 0.000, 0.000, 0.000, 14:07:26.015
192, -1660.10, -1808.48, -1971.40, -1651.85, 0.000, 0.000, 0.000, 14:07:26.015
193, -1984.44, -2140.06, -2208.13, -1870.66, 0.000, 0.000, 0.000, 14:07:26.015
194, -1745.98, -1885.63, -1983.67, -1707.03, 0.000, 0.000, 0.000, 14:07:26.015
195, -1369.05, -1476.06, -1672.51, -1453.30, 0.000, 0.000, 0.000, 14:07:26.016
196, -1652.31, -1793.96, -1949.61, -1649.41, 0.000, 0.000, 0.000, 14:07:26.016
197, -1969.49, -2138.94, -2192.62, -1869.73, 0.000, 0.000, 0.000, 14:07:26.029
198, -1740.63, -1870.74, -1970.70, -1704.44, 0.000, 0.000, 0.000, 14:07:26.029
199, -1367.12, -1472.67, -1670.26, -1450.56, 0.000, 0.000, 0.000, 14:07:26.045
200, -1645.89, -1793.61, -1946.90, -1648.11, 0.000, 0.000, 0.000, 14:07:26.045
0, -1963.44, -2123.37, -2186.26, -1866.86, 0.000, 0.000, 0.000, 14:07:26.045
1, -1739.21, -1873.19, -1984.76, -1707.86, 0.000, 0.000, 0.000, 14:07:26.059
2, -1362.95, -1469.00, -1663.55, -1446.48, 0.000, 0.000, 0.000, 14:07:26.059
3, -1644.14, -1792.62, -1947.14, -1648.01, 0.000, 0.000, 0.000, 14:07:26.089
4, -1971.65, -2121.97, -2175.60, -1870.02, 0.000, 0.000, 0.000, 14:07:26.089
5, -1738.25, -1868.19, -1961.37, -1703.63, 0.000, 0.000, 0.000, 14:07:26.089
6, -1361.11, -1472.79, -1659.05, -1449.72, 0.000, 0.000, 0.000, 14:07:26.090
7, -1650.98, -1802.93, -1945.83, -1653.86, 0.000, 0.000, 0.000, 14:07:26.090
8, -1974.23, -2117.24, -2205.45, -1869.89, 0.000, 0.000, 0.000, 14:07:26.090
9, -1736.83, -1869.84, -1954.95, -1704.98, 0.000, 0.000, 0.000, 14:07:26.091
10, -1362.71, -1466.37, -1661.19, -1449.98, 0.000, 0.000, 0.000, 14:07:26.091
11, -1655.28, -1805.73, -1954.11, -1658.04, 0.000, 0.000, 0.000, 14:07:26.104
12, -1970.39, -2128.62, -2197.40, -1871.93, 0.000, 0.000, 0.000, 14:07:26.104
13, -1745.03, -1865.97, -1973.86, -1706.91, 0.000, 0.000, 0.000, 14:07:26.119
14, -1365.03, -1476.23, -1660.90, -1446.16, 0.000, 0.000, 0.000, 14:07:26.119
15, -1652.69, -1806.36, -1972.86, -1656.43, 0.000, 0.000, 0.000, 14:07:26.134
16, -1971.99, -2126.48, -2195.97, -1867.45, 0.000, 0.000, 0.000, 14:07:26.134
17, -1739.19, -1866.01, -1974.64, -1700.83, 0.000, 0.000, 0.000, 14:07:26.135
18, -1375.38, -1476.75, -1671.16, -1445.61, 0.000, 0.000, 0.000, 14:07:26.135
19, -1660.59, -1809.95, -1963.14, -1659.36, 0.000, 0.000, 0.000, 14:07:26.164
20, -1976.60, -2129.57, -2204.89, -1870.04, 0.000, 0.000, 0.000, 14:07:26.164
21, -1748.90, -1874.29, -1965.29, -1703.21, 0.000, 0.000, 0.000, 14:07:26.165
22, -1365.01, -1478.56, -1661.61, -1445.31, 0.000, 0.000, 0.000, 14:07:26.165
23, -1657.92, -1802.44, -1961.11, -1654.00, 0.000, 0.000, 0.000, 14:07:26.165
24, -1977.20, -2122.73, -2189.58, -1865.78, 0.000, 0.000, 0.000, 14:07:26.166
25, -1746.89, -1851.94, -1970.44, -1696.94, 0.000, 0.000, 0.000, 14:07:26.179
26, -1368.25, -1477.04, -1649.22, -1445.01, 0.000, 0.000, 0.000, 14:07:26.179
27, -1663.18, -1808.83, -1962.65, -1658.65, 0.000, 0.000, 0.000, 14:07:26.209
28, -1980.67, -2135.95, -2191.98, -1868.95, 0.000, 0.000, 0.000, 14:07:26.209
29, -1741.75, -1872.00, -1981.74, -1703.03, 0.000, 0.000, 0.000, 14:07:26.209
30, -1355.29, -1490.74, -1651.69, -1444.51, 0.000, 0.000, 0.000, 14:07:26.209
31, -1651.26, -1819.36, -1958.94, -1653.42, 0.000, 0.000, 0.000, 14:07:26.209
32, -1955.60, -2174.88, -2181.51, -1856.03, 0.000, 0.000, 0.000, 14:07:26.210
33, -1731.18, -1881.60, -1955.16, -1697.13, 0.000, 0.000, 0.000, 14:07:26.211
34, -1339.14, -1492.44, -1667.84, -1443.57, 0.000, 0.000, 0.000, 14:07:26.211
35, -1634.17, -1814.00, -1942.57, -1661.81, 0.000, 0.000, 0.000, 14:07:26.224
36, -1903.20, -2156.31, -2154.88, -1859.88, 0.000, 0.000, 0.000, 14:07:26.224
37, -1636.52, -1918.53, -1951.12, -1674.73, 0.000, 0.000, 0.000, 14:07:26.238
38, -1225.44, -1512.42, -1645.73, -1444.60, 0.000, 0.000, 0.000, 14:07:26.238
39, -1476.87, -1888.27, -1937.64, -1643.64, 0.000, 0.000, 0.000, 14:07:26.254
40, -1724.09, -2200.90, -2183.19, -1840.90, 0.000, 0.000, 0.000, 14:07:26.254
41, -1411.37, -1979.76, -1944.44, -1647.44, 0.000, 0.000, 0.000, 14:07:26.254
42, -1024.84, -1590.55, -1650.28, -1410.51, 0.000, 0.000, 0.000, 14:07:26.254
43, -1316.09, -1995.25, -1954.40, -1614.95, 0.000, 0.000, 0.000, 14:07:26.275
44, -1634.70, -2300.44, -2186.61, -1820.36, 0.000, 0.000, 0.000, 14:07:26.275
45, -1404.70, -2029.29, -1963.12, -1651.44, 0.000, 0.000, 0.000, 14:07:26.284
46, -1043.13, -1634.93, -1662.08, -1387.21, 0.000, 0.000, 0.000, 14:07:26.284
47, -1379.89, -1997.25, -1951.15, -1612.16, 0.000, 0.000, 0.000, 14:07:26.285
48, -1704.55, -2305.12, -2195.78, -1818.89, 0.000, 0.000, 0.000, 14:07:26.285
49, -1485.44, -2028.16, -1965.55, -1655.32, 0.000, 0.000, 0.000, 14:07:26.298
50, -1142.75, -1625.54, -1659.13, -1420.33, 0.000, 0.000, 0.000, 14:07:26.298
51, -1478.24, -1947.91, -1962.34, -1643.49, 0.000, 0.000, 0.000, 14:07:26.329
52, -1794.42, -2249.54, -2209.41, -1844.26, 0.000, 0.000, 0.000, 14:07:26.329
53, -1594.87, -1956.06, -1977.82, -1679.65, 0.000, 0.000, 0.000, 14:07:26.330
54, -1259.80, -1563.75, -1674.82, -1437.32, 0.000, 0.000, 0.000, 14:07:26.330
55, -1592.19, -1887.64, -1985.80, -1662.63, 0.000, 0.000, 0.000, 14:07:26.331
56, -1931.16, -2174.53, -2198.69, -1875.75, 0.000, 0.000, 0.000, 14:07:26.331
57, -1731.28, -1881.47, -1978.08, -1709.80, 0.000, 0.000, 0.000, 14:07:26.344
58, -1403.68, -1473.17, -1660.66, -1460.46, 0.000, 0.000, 0.000, 14:07:26.344
59, -1742.19, -1804.34, -1983.50, -1678.14, 0.000, 0.000, 0.000, 14:07:26.345
60, -2074.94, -2072.52, -2201.41, -1881.77, 0.000, 0.000, 0.000, 14:07:26.345
61, -1851.20, -1783.90, -1982.56, -1715.59, 0.000, 0.000, 0.000, 14:07:26.359
62, -1505.41, -1400.04, -1683.83, -1464.22, 0.000, 0.000, 0.000, 14:07:26.360
63, -1840.86, -1738.37, -1974.92, -1685.66, 0.000, 0.000, 0.000, 14:07:26.374
64, -2148.68, -2034.14, -2194.95, -1889.84, 0.000, 0.000, 0.000, 14:07:26.374
65, -1914.47, -1740.38, -1973.17, -1720.67, 0.000, 0.000, 0.000, 14:07:26.374
66, -1554.12, -1345.60, -1661.40, -1471.76, 0.000, 0.000, 0.000, 14:07:26.374
67, -1875.48, -1705.35, -1979.33, -1689.93, 0.000, 0.000, 0.000, 14:07:26.404
68, -2169.76, -2021.76, -2188.44, -1893.24, 0.000, 0.000, 0.000, 14:07:26.404
69, -1929.24, -1765.75, -1979.68, -1717.60, 0.000, 0.000, 0.000, 14:07:26.405
70, -1561.05, -1374.10, -1679.36, -1473.75, 0.000, 0.000, 0.000, 14:07:26.405
71, -1866.11, -1742.30, -1983.63, -1692.94, 0.000, 0.000, 0.000, 14:07:26.405
72, -2161.13, -2042.34, -2209.08, -1889.26, 0.000, 0.000, 0.000, 14:07:26.405
73, -1908.29, -1773.53, -1968.78, -1720.62, 0.000, 0.000, 0.000, 14:07:26.418
74, -1532.43, -1384.93, -1659.90, -1459.49, 0.000, 0.000, 0.000, 14:07:26.418
75, -1836.13, -1725.86, -1960.80, -1679.27, 0.000, 0.000, 0.000, 14:07:26.433
76, -2129.41, -2038.32, -2195.58, -1881.31, 0.000, 0.000, 0.000, 14:07:26.433
77, -1873.29, -1772.10, -1967.42, -1706.35, 0.000, 0.000, 0.000, 14:07:26.434
78, -1495.67, -1397.73, -1668.92, -1458.98, 0.000, 0.000, 0.000, 14:07:26.434
79, -1805.31, -1758.17, -1981.39, -1677.85, 0.000, 0.000, 0.000, 14:07:26.449
80, -2092.40, -2039.97, -2204.70, -1873.12, 0.000, 0.000, 0.000, 14:07:26.449
81, -1835.31, -1791.27, -1953.71, -1696.53, 0.000, 0.000, 0.000, 14:07:26.464
82, -1460.92, -1404.99, -1670.86, -1449.66, 0.000, 0.000, 0.000, 14:07:26.464
83, -1774.49, -1765.33, -1979.74, -1675.07, 0.000, 0.000, 0.000, 14:07:26.464
84, -2060.51, -2070.38, -2184.71, -1869.77, 0.000, 0.000, 0.000, 14:07:26.465
85, -1804.67, -1801.56, -1968.44, -1696.95, 0.000, 0.000, 0.000, 14:07:26.479
86, -1429.06, -1430.59, -1661.46, -1442.56, 0.000, 0.000, 0.000, 14:07:26.479
87, -1738.28, -1790.99, -1979.84, -1680.00, 0.000, 0.000, 0.000, 14:07:26.494
88, -2030.08, -2090.02, -2190.83, -1871.44, 0.000, 0.000, 0.000, 14:07:26.494
89, -1783.59, -1820.55, -1957.27, -1696.34, 0.000, 0.000, 0.000, 14:07:26.495
90, -1402.60, -1439.41, -1663.41, -1450.06, 0.000, 0.000, 0.000, 14:07:26.495
91, -1721.68, -1796.50, -1978.75, -1675.74, 0.000, 0.000, 0.000, 14:07:26.524
92, -2006.53, -2093.18, -2192.15, -1873.82, 0.000, 0.000, 0.000, 14:07:26.524
93, -1755.71, -1837.50, -1957.42, -1702.17, 0.000, 0.000, 0.000, 14:07:26.524
94, -1385.00, -1433.70, -1667.59, -1450.67, 0.000, 0.000, 0.000, 14:07:26.524
95, -1714.12, -1819.52, -1972.10, -1682.28, 0.000, 0.000, 0.000, 14:07:26.525
96, -1981.64, -2105.37, -2190.45, -1873.98, 0.000, 0.000, 0.000, 14:07:26.525
97, -1737.19, -1832.81, -1955.12, -1691.36, 0.000, 0.000, 0.000, 14:07:26.538
98, -1372.52, -1456.71, -1661.18, -1453.26, 0.000, 0.000, 0.000, 14:07:26.539
99, -1695.93, -1815.55, -1979.07, -1684.03, 0.000, 0.000, 0.000, 14:07:26.554
100, -1980.41, -2108.73, -2196.46, -1869.32, 0.000, 0.000, 0.000, 14:07:26.554
101, -1730.30, -1842.51, -1955.81, -1700.24, 0.000, 0.000, 0.000, 14:07:26.555
102, -1360.09, -1452.11, -1673.13, -1449.43, 0.000, 0.000, 0.000, 14:07:26.555
103, -1690.16, -1830.25, -1993.64, -1681.71, 0.000, 0.000, 0.000, 14:07:26.568
104, -1982.14, -2110.41, -2195.49, -1871.73, 0.000, 0.000, 0.000, 14:07:26.568
105, -1723.52, -1832.52, -1969.85, -1693.44, 0.000, 0.000, 0.000, 14:07:26.583
106, -1368.91, -1455.31, -1679.06, -1454.15, 0.000, 0.000, 0.000, 14:07:26.583
107, -1708.10, -1822.83, -1991.79, -1680.46, 0.000, 0.000, 0.000, 14:07:26.584
108, -1978.06, -2113.05, -2181.89, -1869.64, 0.000, 0.000, 0.000, 14:07:26.584
109, -1725.21, -1846.03, -1961.30, -1693.50, 0.000, 0.000, 0.000, 14:07:26.599
110, -1362.26, -1461.74, -1664.46, -1447.48, 0.000, 0.000, 0.000, 14:07:26.599
111, -1703.76, -1826.97, -1997.86, -1682.41, 0.000, 0.000, 0.000, 14:07:26.614
112, -1984.13, -2126.01, -2163.22, -1872.38, 0.000, 0.000, 0.000, 14:07:26.614
113, -1733.16, -1845.01, -1958.88, -1698.21, 0.000, 0.000, 0.000, 14:07:26.614
114, -1360.95, -1451.19, -1673.05, -1447.14, 0.000, 0.000, 0.000, 14:07:26.614
115, -1707.77, -1838.99, -2001.37, -1685.84, 0.000, 0.000, 0.000, 14:07:26.635
116, -1981.97, -2125.92, -2199.47, -1867.57, 0.000, 0.000, 0.000, 14:07:26.635
117, -1731.59, -1845.74, -1966.36, -1688.75, 0.000, 0.000, 0.000, 14:07:26.644
118, -1355.30, -1453.91, -1657.71, -1442.48, 0.000, 0.000, 0.000, 14:07:26.644
119, -1697.00, -1838.16, -1968.34, -1682.04, 0.000, 0.000, 0.000, 14:07:26.659
120, -1973.10, -2127.36, -2176.71, -1869.80, 0.000, 0.000, 0.000, 14:07:26.660
121, -1721.92, -1843.59, -1963.54, -1690.96, 0.000, 0.000, 0.000, 14:07:26.674
122, -1366.43, -1482.43, -1687.98, -1453.90, 0.000, 0.000, 0.000, 14:07:26.674
123, -1729.24, -1881.02, -2023.81, -1706.19, 0.000, 0.000, 0.000, 14:07:26.675
124, -1952.79, -2100.18, -2169.01, -1869.86, 0.000, 0.000, 0.000, 14:07:26.675
125, -1691.99, -1816.67, -1917.78, -1683.26, 0.000, 0.000, 0.000, 14:07:26.675
126, -1337.27, -1442.18, -1630.50, -1460.38, 0.000, 0.000, 0.000, 14:07:26.675
127, -1670.71, -1820.12, -1950.05, -1700.57, 0.000, 0.000, 0.000, 14:07:26.689
128, -1933.81, -2095.88, -2135.14, -1884.13, 0.000, 0.000, 0.000, 14:07:26.689
129, -1687.02, -1835.99, -1904.67, -1713.00, 0.000, 0.000, 0.000, 14:07:26.703
130, -1336.83, -1455.84, -1641.65, -1471.74, 0.000, 0.000, 0.000, 14:07:26.703
131, -1672.02, -1843.59, -1959.22, -1706.90, 0.000, 0.000, 0.000, 14:07:26.704
132, -1952.51, -2115.21, -2172.52, -1887.04, 0.000, 0.000, 0.000, 14:07:26.704
133, -1693.31, -1846.56, -1930.41, -1703.60, 0.000, 0.000, 0.000, 14:07:26.719
134, -1336.63, -1445.60, -1644.86, -1454.94, 0.000, 0.000, 0.000, 14:07:26.719
135, -1679.86, -1843.80, -1980.92, -1699.57, 0.000, 0.000, 0.000, 14:07:26.734
136, -1950.69, -2126.79, -2187.13, -1879.89, 0.000, 0.000, 0.000, 14:07:26.734
137, -1697.97, -1847.86, -1934.26, -1701.51, 0.000, 0.000, 0.000, 14:07:26.735
138, -1342.08, -1475.94, -1657.65, -1453.93, 0.000, 0.000, 0.000, 14:07:26.735
139, -1686.51, -1850.55, -1977.91, -1696.73, 0.000, 0.000, 0.000, 14:07:26.764
140, -1962.48, -2124.32, -2173.61, -1872.82, 0.000, 0.000, 0.000, 14:07:26.764
141, -1695.05, -1842.94, -1945.83, -1692.27, 0.000, 0.000, 0.000, 14:07:26.764
142, -1331.15, -1465.48, -1651.54, -1446.13, 0.000, 0.000, 0.000, 14:07:26.764
143, -1683.04, -1867.74, -1987.75, -1691.67, 0.000, 0.000, 0.000, 14:07:26.765
144, -1956.13, -2137.68, -2183.90, -1872.44, 0.000, 0.000, 0.000, 14:07:26.765
145, -1699.84, -1858.96, -1945.90, -1686.51, 0.000, 0.000, 0.000, 14:07:26.779
146, -1345.72, -1464.98, -1658.29, -1447.80, 0.000, 0.000, 0.000, 14:07:26.779
147, -1694.09, -1863.67, -1991.88, -1695.11, 0.000, 0.000, 0.000, 14:07:26.794
148, -1956.53, -2143.21, -2189.84, -1874.17, 0.000, 0.000, 0.000, 14:07:26.794
149, -1688.54, -1848.25, -1946.47, -1686.74, 0.000, 0.000, 0.000, 14:07:26.795
150, -1342.71, -1470.41, -1662.89, -1441.03, 0.000, 0.000, 0.000, 14:07:26.795
151, -1681.10, -1863.61, -1989.01, -1689.16, 0.000, 0.000, 0.000, 14:07:26.809
152, -1961.55, -2143.74, -2186.00, -1866.97, 0.000, 0.000, 0.000, 14:07:26.810
153, -1697.19, -1852.76, -1942.85, -1681.04, 0.000, 0.000, 0.000, 14:07:26.825
154, -1337.96, -1463.88, -1662.57, -1439.07, 0.000, 0.000, 0.000, 14:07:26.825
155, -1705.92, -1886.64, -2013.25, -1710.22, 0.000, 0.000, 0.000, 14:07:26.825
156, -1989.86, -2153.86, -2199.71, -1877.58, 0.000, 0.000, 0.000, 14:07:26.825
157, -1675.84, -1826.54, -1945.64, -1646.26, 0.000, 0.000, 0.000, 14:07:26.839
158, -1335.91, -1476.24, -1684.62, -1411.95, 0.000, 0.000, 0.000, 14:07:26.839
159, -1683.85, -1883.17, -2028.46, -1659.11, 0.000, 0.000, 0.000, 14:07:26.854
160, -1949.54, -2144.89, -2223.37, -1837.16, 0.000, 0.000, 0.000, 14:07:26.854
161, -1695.94, -1857.59, -1970.39, -1649.77, 0.000, 0.000, 0.000, 14:07:26.855
162, -1337.49, -1490.19, -1684.10, -1404.95, 0.000, 0.000, 0.000, 14:07:26.855
163, -1696.03, -1894.88, -2032.15, -1667.01, 0.000, 0.000, 0.000, 14:07:26.869
164, -1961.18, -2152.76, -2212.81, -1843.60, 0.000, 0.000, 0.000, 14:07:26.869
165, -1698.91, -1868.12, -1972.51, -1661.64, 0.000, 0.000, 0.000, 14:07:26.884
166, -1346.99, -1489.87, -1689.09, -1423.37, 0.000, 0.000, 0.000, 14:07:26.884
167, -1697.99, -1881.44, -2019.05, -1672.52, 0.000, 0.000, 0.000, 14:07:26.885
168, -1957.58, -2134.93, -2207.59, -1855.24, 0.000, 0.000, 0.000, 14:07:26.885
169, -1700.08, -1837.81, -1943.94, -1667.48, 0.000, 0.000, 0.000, 14:07:26.899
170, -1347.40, -1477.83, -1679.24, -1432.74, 0.000, 0.000, 0.000, 14:07:26.899
171, -1702.92, -1885.72, -2018.20, -1683.49, 0.000, 0.000, 0.000, 14:07:26.914
172, -1959.98, -2136.24, -2184.48, -1856.58, 0.000, 0.000, 0.000, 14:07:26.914
173, -1697.07, -1845.54, -1954.14, -1678.17, 0.000, 0.000, 0.000, 14:07:26.914
174, -1341.73, -1460.62, -1665.79, -1436.91, 0.000, 0.000, 0.000, 14:07:26.915
175, -1708.81, -1862.17, -2005.43, -1688.63, 0.000, 0.000, 0.000, 14:07:26.929
176, -1965.37, -2138.24, -2208.58, -1864.59, 0.000, 0.000, 0.000, 14:07:26.929
177, -1702.97, -1845.56, -1948.47, -1682.86, 0.000, 0.000, 0.000, 14:07:26.944
178, -1347.55, -1469.82, -1666.79, -1444.99, 0.000, 0.000, 0.000, 14:07:26.945
179, -1706.53, -1868.11, -2005.64, -1697.24, 0.000, 0.000, 0.000, 14:07:26.945
180, -1971.03, -2132.91, -2185.64, -1866.11, 0.000, 0.000, 0.000, 14:07:26.945
181, -1704.00, -1840.76, -1954.48, -1679.82, 0.000, 0.000, 0.000, 14:07:26.959
182, -1357.26, -1465.01, -1675.01, -1445.20, 0.000, 0.000, 0.000, 14:07:26.960
183, -1705.24, -1862.01, -2005.02, -1691.63, 0.000, 0.000, 0.000, 14:07:26.974
184, -1959.00, -2123.23, -2191.22, -1857.76, 0.000, 0.000, 0.000, 14:07:26.974
185, -1702.44, -1837.34, -1946.28, -1673.52, 0.000, 0.000, 0.000, 14:07:26.981
186, -1343.32, -1457.04, -1664.02, -1434.48, 0.000, 0.000, 0.000, 14:07:26.981
187, -1708.89, -1851.73, -2006.46, -1690.63, 0.000, 0.000, 0.000, 14:07:26.989
188, -1967.20, -2128.69, -2188.46, -1864.40, 0.000, 0.000, 0.000, 14:07:26.989
189, -1701.58, -1828.94, -1935.54, -1679.97, 0.000, 0.000, 0.000, 14:07:27.004
190, -1352.74, -1466.98, -1675.19, -1444.16, 0.000, 0.000, 0.000, 14:07:27.004
191, -1721.95, -1872.35, -2012.28, -1700.95, 0.000, 0.000, 0.000, 14:07:27.004
192, -1961.97, -2116.93, -2172.41, -1869.65, 0.000, 0.000, 0.000, 14:07:27.005
193, -1694.25, -1835.78, -1934.12, -1675.84, 0.000, 0.000, 0.000, 14:07:27.019
194, -1349.26, -1476.13, -1670.66, -1441.94, 0.000, 0.000, 0.000, 14:07:27.019
195, -1711.47, -1865.55, -2012.35, -1697.86, 0.000, 0.000, 0.000, 14:07:27.034
196, -1979.93, -2108.13, -2189.60, -1866.62, 0.000, 0.000, 0.000, 14:07:27.034
197, -1721.46, -1836.71, -1962.82, -1687.96, 0.000, 0.000, 0.000, 14:07:27.035
198, -1358.40, -1478.17, -1667.67, -1448.82, 0.000, 0.000, 0.000, 14:07:27.035
199, -1715.10, -1863.93, -2011.82, -1704.41, 0.000, 0.000, 0.000, 14:07:27.049
200, -1951.82, -2128.66, -2188.07, -1864.19, 0.000, 0.000, 0.000, 14:07:27.049
0, -1698.31, -1843.84, -1931.81, -1681.90, 0.000, 0.000, 0.000, 14:07:27.049
1, -1353.42, -1462.79, -1658.97, -1444.27, 0.000, 0.000, 0.000, 14:07:27.064
2, -1714.24, -1873.66, -2002.46, -1698.13, 0.000, 0.000, 0.000, 14:07:27.064
3, -1961.62, -2120.27, -2176.97, -1863.47, 0.000, 0.000, 0.000, 14:07:27.079
4, -1701.05, -1837.68, -1935.11, -1677.10, 0.000, 0.000, 0.000, 14:07:27.079
5, -1357.14, -1461.71, -1672.40, -1443.10, 0.000, 0.000, 0.000, 14:07:27.080
6, -1734.71, -1872.01, -2016.49, -1705.21, 0.000, 0.000, 0.000, 14:07:27.080
7, -1974.26, -2114.21, -2190.77, -1866.27, 0.000, 0.000, 0.000, 14:07:27.094
8, -1699.55, -1827.48, -1946.41, -1676.62, 0.000, 0.000, 0.000, 14:07:27.094
9, -1358.62, -1474.84, -1655.24, -1448.45, 0.000, 0.000, 0.000, 14:07:27.110
10, -1719.32, -1868.71, -2003.03, -1706.30, 0.000, 0.000, 0.000, 14:07:27.110
11, -1971.23, -2119.82, -2180.73, -1869.80, 0.000, 0.000, 0.000, 14:07:27.110
12, -1703.73, -1838.27, -1938.00, -1680.41, 0.000, 0.000, 0.000, 14:07:27.110
13, -1356.51, -1470.69, -1662.19, -1441.54, 0.000, 0.000, 0.000, 14:07:27.124
14, -1713.54, -1882.49, -2011.17, -1701.61, 0.000, 0.000, 0.000, 14:07:27.124
15, -1963.30, -2143.11, -2186.38, -1863.72, 0.000, 0.000, 0.000, 14:07:27.138
16, -1684.68, -1865.90, -1929.75, -1679.01, 0.000, 0.000, 0.000, 14:07:27.138
17, -1331.38, -1511.22, -1651.96, -1426.17, 0.000, 0.000, 0.000, 14:07:27.139
18, -1706.10, -1898.01, -2006.16, -1719.34, 0.000, 0.000, 0.000, 14:07:27.139
19, -1925.44, -2120.32, -2195.71, -1852.53, 0.000, 0.000, 0.000, 14:07:27.154
20, -1648.54, -1834.57, -1933.88, -1673.81, 0.000, 0.000, 0.000, 14:07:27.154
21, -1255.87, -1522.06, -1631.57, -1429.55, 0.000, 0.000, 0.000, 14:07:27.169
22, -1586.07, -1915.46, -2005.58, -1687.22, 0.000, 0.000, 0.000, 14:07:27.169
23, -1777.30, -2171.09, -2178.67, -1833.02, 0.000, 0.000, 0.000, 14:07:27.170
24, -1446.43, -1921.91, -1917.67, -1637.98, 0.000, 0.000, 0.000, 14:07:27.170
25, -1051.71, -1571.68, -1632.98, -1407.85, 0.000, 0.000, 0.000, 14:07:27.184
26, -1419.86, -2015.90, -2007.27, -1674.54, 0.000, 0.000, 0.000, 14:07:27.184
27, -1669.96, -2276.60, -2183.97, -1837.30, 0.000, 0.000, 0.000, 14:07:27.199
28, -1413.24, -1974.96, -1924.38, -1648.06, 0.000, 0.000, 0.000, 14:07:27.199
29, -1096.79, -1608.61, -1655.88, -1420.60, 0.000, 0.000, 0.000, 14:07:27.200
30, -1512.28, -2013.66, -2018.07, -1690.46, 0.000, 0.000, 0.000, 14:07:27.200
31, -1787.09, -2234.34, -2188.36, -1848.83, 0.000, 0.000, 0.000, 14:07:27.214
32, -1556.69, -1913.43, -1922.18, -1660.81, 0.000, 0.000, 0.000, 14:07:27.214
33, -1262.24, -1540.14, -1667.89, -1438.63, 0.000, 0.000, 0.000, 14:07:27.229
34, -1689.15, -1928.88, -2025.08, -1710.08, 0.000, 0.000, 0.000, 14:07:27.229
35, -1962.35, -2141.99, -2198.46, -1870.56, 0.000, 0.000, 0.000, 14:07:27.230
36, -1725.56, -1821.17, -1937.06, -1681.89, 0.000, 0.000, 0.000, 14:07:27.230
37, -1412.28, -1447.46, -1674.27, -1455.34, 0.000, 0.000, 0.000, 14:07:27.244
38, -1811.90, -1865.77, -2038.63, -1721.90, 0.000, 0.000, 0.000, 14:07:27.244
39, -2057.83, -2069.14, -2198.77, -1878.61, 0.000, 0.000, 0.000, 14:07:27.260
40, -1802.53, -1771.14, -1945.28, -1687.95, 0.000, 0.000, 0.000, 14:07:27.260
41, -1466.75, -1405.26, -1669.68, -1457.93, 0.000, 0.000, 0.000, 14:07:27.260
42, -1861.10, -1830.28, -2027.78, -1723.05, 0.000, 0.000, 0.000, 14:07:27.260
43, -2090.06, -2060.90, -2188.15, -1878.59, 0.000, 0.000, 0.000, 14:07:27.274
44, -1808.22, -1758.81, -1931.09, -1683.82, 0.000, 0.000, 0.000, 14:07:27.274
45, -1477.67, -1408.07, -1669.40, -1458.68, 0.000, 0.000, 0.000, 14:07:27.288
46, -1862.22, -1823.09, -2034.92, -1723.53, 0.000, 0.000, 0.000, 14:07:27.288
47, -2085.44, -2058.00, -2192.23, -1878.06, 0.000, 0.000, 0.000, 14:07:27.289
48, -1797.91, -1763.08, -1938.31, -1688.83, 0.000, 0.000, 0.000, 14:07:27.289
49, -1463.55, -1409.93, -1665.73, -1451.60, 0.000, 0.000, 0.000, 14:07:27.319
50, -1841.95, -1837.77, -2025.69, -1720.89, 0.000, 0.000, 0.000, 14:07:27.319
51, -2064.92, -2073.67, -2186.04, -1875.35, 0.000, 0.000, 0.000, 14:07:27.319
52, -1791.74, -1766.30, -1931.41, -1680.47, 0.000, 0.000, 0.000, 14:07:27.319
53, -1439.52, -1414.36, -1665.81, -1449.20, 0.000, 0.000, 0.000, 14:07:27.320
54, -1823.27, -1847.97, -2029.52, -1717.64, 0.000, 0.000, 0.000, 14:07:27.320
55, -2045.06, -2074.57, -2189.22, -1871.78, 0.000, 0.000, 0.000, 14:07:27.333
56, -1758.34, -1768.75, -1925.59, -1676.28, 0.000, 0.000, 0.000, 14:07:27.334
57, -1415.15, -1420.19, -1658.10, -1452.27, 0.000, 0.000, 0.000, 14:07:27.348
58, -1806.38, -1857.59, -2028.59, -1723.59, 0.000, 0.000, 0.000, 14:07:27.349
59, -2025.96, -2079.21, -2184.00, -1874.74, 0.000, 0.000, 0.000, 14:07:27.349
60, -1758.38, -1777.65, -1936.13, -1673.69, 0.000, 0.000, 0.000, 14:07:27.349
61, -1410.98, -1429.69, -1667.81, -1446.67, 0.000, 0.000, 0.000, 14:07:27.364
62, -1788.75, -1860.69, -2028.57, -1717.53, 0.000, 0.000, 0.000, 14:07:27.364
63, -2016.26, -2091.93, -2190.30, -1869.35, 0.000, 0.000, 0.000, 14:07:27.379
64, -1729.04, -1781.85, -1929.12, -1671.89, 0.000, 0.000, 0.000, 14:07:27.379
65, -1391.14, -1446.16, -1665.14, -1449.81, 0.000, 0.000, 0.000, 14:07:27.380
66, -1776.51, -1867.68, -2024.60, -1713.45, 0.000, 0.000, 0.000, 14:07:27.380
67, -2003.42, -2089.72, -2182.72, -1864.97, 0.000, 0.000, 0.000, 14:07:27.393
68, -1719.51, -1785.14, -1929.29, -1673.26, 0.000, 0.000, 0.000, 14:07:27.393
69, -1383.79, -1436.23, -1660.95, -1448.02, 0.000, 0.000, 0.000, 14:07:27.409
70, -1777.94, -1880.23, -2017.23, -1718.33, 0.000, 0.000, 0.000, 14:07:27.409
71, -1987.20, -2093.63, -2186.57, -1862.22, 0.000, 0.000, 0.000, 14:07:27.410
72, -1712.22, -1794.08, -1922.53, -1673.08, 0.000, 0.000, 0.000, 14:07:27.410
73, -1376.65, -1449.43, -1658.82, -1443.78, 0.000, 0.000, 0.000, 14:07:27.438
74, -1762.58, -1872.87, -2021.31, -1718.90, 0.000, 0.000, 0.000, 14:07:27.438
75, -1977.16, -2093.73, -2182.97, -1862.07, 0.000, 0.000, 0.000, 14:07:27.439
76, -1705.75, -1798.36, -1916.25, -1668.18, 0.000, 0.000, 0.000, 14:07:27.439
77, -1372.37, -1457.42, -1669.38, -1441.89, 0.000, 0.000, 0.000, 14:07:27.447
78, -1759.07, -1882.86, -2019.51, -1719.28, 0.000, 0.000, 0.000, 14:07:27.447
79, -1985.03, -2106.29, -2193.29, -1864.47, 0.000, 0.000, 0.000, 14:07:27.454
80, -1702.05, -1804.02, -1925.46, -1666.58, 0.000, 0.000, 0.000, 14:07:27.454
81, -1357.22, -1448.98, -1665.32, -1444.32, 0.000, 0.000, 0.000, 14:07:27.469
82, -1761.64, -1882.74, -2036.14, -1717.38, 0.000, 0.000, 0.000, 14:07:27.469
83, -1989.43, -2128.47, -2186.03, -1864.71, 0.000, 0.000, 0.000, 14:07:27.469
84, -1696.19, -1799.32, -1920.23, -1668.21, 0.000, 0.000, 0.000, 14:07:27.469
85, -1366.43, -1449.77, -1662.77, -1443.45, 0.000, 0.000, 0.000, 14:07:27.483
86, -1773.57, -1894.05, -2047.43, -1720.69, 0.000, 0.000, 0.000, 14:07:27.483
87, -1989.33, -2109.31, -2195.48, -1868.81, 0.000, 0.000, 0.000, 14:07:27.499
88, -1695.34, -1806.15, -1922.91, -1668.00, 0.000, 0.000, 0.000, 14:07:27.499
89, -1371.52, -1445.66, -1672.68, -1444.21, 0.000, 0.000, 0.000, 14:07:27.514
90, -1768.64, -1901.10, -2044.65, -1724.14, 0.000, 0.000, 0.000, 14:07:27.514
91, -1967.44, -2095.52, -2184.94, -1866.11, 0.000, 0.000, 0.000, 14:07:27.515
92, -1696.99, -1806.41, -1921.07, -1665.75, 0.000, 0.000, 0.000, 14:07:27.515
93, -1361.53, -1451.60, -1668.31, -1445.13, 0.000, 0.000, 0.000, 14:07:27.529
94, -1757.11, -1900.02, -2020.62, -1723.71, 0.000, 0.000, 0.000, 14:07:27.529
95, -1971.40, -2116.02, -2182.18, -1862.23, 0.000, 0.000, 0.000, 14:07:27.544
96, -1675.50, -1803.48, -1905.29, -1660.41, 0.000, 0.000, 0.000, 14:07:27.544
97, -1347.52, -1457.40, -1669.34, -1442.08, 0.000, 0.000, 0.000, 14:07:27.560
98, -1750.02, -1892.81, -2029.50, -1718.43, 0.000, 0.000, 0.000, 14:07:27.560
99, -1962.32, -2109.14, -2166.88, -1857.16, 0.000, 0.000, 0.000, 14:07:27.560
100, -1674.47, -1796.61, -1931.07, -1664.15, 0.000, 0.000, 0.000, 14:07:27.560
101, -1362.00, -1469.46, -1677.56, -1446.02, 0.000, 0.000, 0.000, 14:07:27.560
102, -1747.08, -1906.80, -2040.82, -1728.47, 0.000, 0.000, 0.000, 14:07:27.560
103, -1960.20, -2101.23, -2176.23, -1862.45, 0.000, 0.000, 0.000, 14:07:27.574
104, -1669.94, -1804.04, -1919.94, -1667.02, 0.000, 0.000, 0.000, 14:07:27.574
105, -1343.63, -1458.68, -1664.80, -1440.39, 0.000, 0.000, 0.000, 14:07:27.589
106, -1744.38, -1902.96, -2035.86, -1726.66, 0.000, 0.000, 0.000, 14:07:27.589
107, -1967.65, -2106.48, -2171.90, -1865.45, 0.000, 0.000, 0.000, 14:07:27.589
108, -1677.05, -1806.93, -1922.35, -1663.71, 0.000, 0.000, 0.000, 14:07:27.589
109, -1352.59, -1464.23, -1657.94, -1442.91, 0.000, 0.000, 0.000, 14:07:27.604
110, -1753.27, -1910.27, -2054.27, -1721.76, 0.000, 0.000, 0.000, 14:07:27.604
111, -1966.89, -2119.47, -2191.86, -1862.04, 0.000, 0.000, 0.000, 14:07:27.619
112, -1678.73, -1799.48, -1906.31, -1663.80, 0.000, 0.000, 0.000, 14:07:27.619
113, -1346.53, -1465.76, -1665.85, -1441.03, 0.000, 0.000, 0.000, 14:07:27.619
114, -1749.45, -1902.03, -2023.40, -1723.29, 0.000, 0.000, 0.000, 14:07:27.619
115, -1952.97, -2114.12, -2174.14, -1858.43, 0.000, 0.000, 0.000, 14:07:27.633
116, -1669.01, -1811.70, -1909.23, -1659.90, 0.000, 0.000, 0.000, 14:07:27.633
117, -1341.21, -1470.21, -1656.31, -1436.93, 0.000, 0.000, 0.000, 14:07:27.649
118, -1747.98, -1918.40, -2038.59, -1727.02, 0.000, 0.000, 0.000, 14:07:27.649
119, -1945.71, -2126.44, -2179.60, -1862.43, 0.000, 0.000, 0.000, 14:07:27.650
120, -1656.61, -1803.22, -1918.94, -1665.35, 0.000, 0.000, 0.000, 14:07:27.650
121, -1331.63, -1476.27, -1655.55, -1445.42, 0.000, 0.000, 0.000, 14:07:27.664
122, -1743.27, -1942.00, -2034.87, -1729.03, 0.000, 0.000, 0.000, 14:07:27.664
123, -1926.08, -2171.18, -2197.07, -1851.04, 0.000, 0.000, 0.000, 14:07:27.679
124, -1647.13, -1817.65, -1919.70, -1661.73, 0.000, 0.000, 0.000, 14:07:27.679
125, -1310.76, -1504.80, -1661.25, -1430.40, 0.000, 0.000, 0.000, 14:07:27.679
126, -1689.97, -1945.21, -2032.73, -1724.49, 0.000, 0.000, 0.000, 14:07:27.680
127, -1878.79, -2153.55, -2169.28, -1852.94, 0.000, 0.000, 0.000, 14:07:27.695
128, -1551.40, -1837.19, -1911.62, -1649.57, 0.000, 0.000, 0.000, 14:07:27.695
129, -1191.91, -1517.28, -1638.85, -1423.38, 0.000, 0.000, 0.000, 14:07:27.709
130, -1547.63, -1989.15, -2008.68, -1704.84, 0.000, 0.000, 0.000, 14:07:27.709
131, -1696.52, -2212.75, -2167.35, -1835.96, 0.000, 0.000, 0.000, 14:07:27.710
132, -1375.50, -1917.94, -1902.32, -1634.91, 0.000, 0.000, 0.000, 14:07:27.710
133, -1036.37, -1621.30, -1656.49, -1417.92, 0.000, 0.000, 0.000, 14:07:27.724
134, -1441.66, -2081.73, -2051.28, -1713.60, 0.000, 0.000, 0.000, 14:07:27.724
135, -1663.98, -2285.05, -2163.26, -1847.77, 0.000, 0.000, 0.000, 14:07:27.739
136, -1387.74, -1951.80, -1901.72, -1641.96, 0.000, 0.000, 0.000, 14:07:27.739
137, -1122.08, -1625.26, -1658.75, -1431.11, 0.000, 0.000, 0.000, 14:07:27.739
138, -1571.98, -2032.35, -2038.49, -1718.79, 0.000, 0.000, 0.000, 14:07:27.739
139, -1815.65, -2189.70, -2162.98, -1850.43, 0.000, 0.000, 0.000, 14:07:27.754
140, -1567.62, -1858.52, -1909.17, -1655.94, 0.000, 0.000, 0.000, 14:07:27.754
141, -1292.04, -1501.15, -1660.83, -1440.52, 0.000, 0.000, 0.000, 14:07:27.768
142, -1757.18, -1930.73, -2049.71, -1739.54, 0.000, 0.000, 0.000, 14:07:27.769
143, -1985.73, -2101.89, -2178.46, -1867.57, 0.000, 0.000, 0.000, 14:07:27.769
144, -1738.43, -1792.11, -1923.78, -1664.83, 0.000, 0.000, 0.000, 14:07:27.769
145, -1430.30, -1428.62, -1673.24, -1451.13, 0.000, 0.000, 0.000, 14:07:27.784
146, -1864.84, -1879.58, -2059.27, -1744.31, 0.000, 0.000, 0.000, 14:07:27.784
147, -2063.67, -2076.90, -2193.24, -1879.05, 0.000, 0.000, 0.000, 14:07:27.798
148, -1782.46, -1733.40, -1907.34, -1668.97, 0.000, 0.000, 0.000, 14:07:27.798
149, -1467.85, -1406.95, -1674.67, -1460.46, 0.000, 0.000, 0.000, 14:07:27.799
150, -1885.84, -1864.87, -2056.23, -1748.28, 0.000, 0.000, 0.000, 14:07:27.799
151, -2080.58, -2057.17, -2175.02, -1876.51, 0.000, 0.000, 0.000, 14:07:27.820
152, -1780.26, -1727.31, -1904.79, -1664.01, 0.000, 0.000, 0.000, 14:07:27.820
153, -1467.07, -1401.83, -1671.47, -1451.26, 0.000, 0.000, 0.000, 14:07:27.829
154, -1874.53, -1859.65, -2057.66, -1740.27, 0.000, 0.000, 0.000, 14:07:27.830
155, -2058.52, -2053.20, -2182.33, -1868.27, 0.000, 0.000, 0.000, 14:07:27.830
156, -1758.99, -1744.10, -1900.38, -1663.24, 0.000, 0.000, 0.000, 14:07:27.830
157, -1443.93, -1417.65, -1665.21, -1452.49, 0.000, 0.000, 0.000, 14:07:27.844
158, -1857.76, -1871.19, -2050.35, -1740.43, 0.000, 0.000, 0.000, 14:07:27.844
159, -2042.07, -2061.00, -2188.65, -1862.34, 0.000, 0.000, 0.000, 14:07:27.859
160, -1739.65, -1749.33, -1917.12, -1657.30, 0.000, 0.000, 0.000, 14:07:27.859
161, -1412.28, -1413.41, -1654.50, -1445.51, 0.000, 0.000, 0.000, 14:07:27.860
162, -1839.23, -1879.24, -2047.51, -1740.75, 0.000, 0.000, 0.000, 14:07:27.860
163, -2023.16, -2069.38, -2174.78, -1862.97, 0.000, 0.000, 0.000, 14:07:27.874
164, -1725.88, -1758.67, -1920.67, -1658.28, 0.000, 0.000, 0.000, 14:07:27.875
165, -1412.21, -1433.47, -1678.15, -1447.20, 0.000, 0.000, 0.000, 14:07:27.889
166, -1825.26, -1900.18, -2058.48, -1743.12, 0.000, 0.000, 0.000, 14:07:27.889
167, -2012.62, -2083.06, -2178.99, -1864.74, 0.000, 0.000, 0.000, 14:07:27.890
168, -1707.11, -1764.36, -1910.32, -1656.24, 0.000, 0.000, 0.000, 14:07:27.890
169, -1394.84, -1437.66, -1662.13, -1453.44, 0.000, 0.000, 0.000, 14:07:27.903
170, -1812.03, -1896.35, -2057.88, -1744.31, 0.000, 0.000, 0.000, 14:07:27.903
171, -2007.26, -2095.40, -2184.20, -1867.36, 0.000, 0.000, 0.000, 14:07:27.919
172, -1696.71, -1764.11, -1912.07, -1658.87, 0.000, 0.000, 0.000, 14:07:27.919
173, -1374.04, -1448.90, -1663.28, -1452.38, 0.000, 0.000, 0.000, 14:07:27.920
174, -1809.75, -1920.47, -2071.36, -1748.16, 0.000, 0.000, 0.000, 14:07:27.920
175, -1989.46, -2087.74, -2179.93, -1860.05, 0.000, 0.000, 0.000, 14:07:27.934
176, -1680.28, -1767.86, -1901.21, -1655.48, 0.000, 0.000, 0.000, 14:07:27.934
177, -1373.39, -1452.42, -1659.22, -1445.55, 0.000, 0.000, 0.000, 14:07:27.949
178, -1797.08, -1916.83, -2043.88, -1745.30, 0.000, 0.000, 0.000, 14:07:27.949
179, -1964.36, -2091.08, -2165.34, -1859.99, 0.000, 0.000, 0.000, 14:07:27.949
180, -1665.69, -1772.83, -1893.27, -1650.88, 0.000, 0.000, 0.000, 14:07:27.949
181, -1365.19, -1437.99, -1650.19, -1444.88, 0.000, 0.000, 0.000, 14:07:27.965
182, -1790.09, -1914.83, -2046.33, -1744.96, 0.000, 0.000, 0.000, 14:07:27.965
183, -1979.09, -2099.37, -2166.90, -1858.33, 0.000, 0.000, 0.000, 14:07:27.994
184, -1680.98, -1765.00, -1898.25, -1647.61, 0.000, 0.000, 0.000, 14:07:27.994
185, -1362.60, -1450.28, -1670.45, -1443.46, 0.000, 0.000, 0.000, 14:07:27.994
186, -1793.98, -1907.39, -2051.88, -1742.58, 0.000, 0.000, 0.000, 14:07:27.994
187, -1980.40, -2094.44, -2179.40, -1863.26, 0.000, 0.000, 0.000, 14:07:27.997
188, -1689.37, -1777.14, -1910.04, -1653.99, 0.000, 0.000, 0.000, 14:07:27.997
189, -1397.59, -1450.78, -1678.73, -1448.07, 0.000, 0.000, 0.000, 14:07:27.997
190, -1801.29, -1906.05, -2054.80, -1734.22, 0.000, 0.000, 0.000, 14:07:27.997
191, -1983.17, -2097.35, -2181.87, -1854.47, 0.000, 0.000, 0.000, 14:07:28.009
192, -1678.46, -1755.15, -1900.03, -1643.77, 0.000, 0.000, 0.000, 14:07:28.009
193, -1381.52, -1445.87, -1655.28, -1440.73, 0.000, 0.000, 0.000, 14:07:28.024
194, -1805.49, -1913.18, -2065.79, -1739.20, 0.000, 0.000, 0.000, 14:07:28.024
195, -1984.57, -2094.02, -2172.60, -1861.07, 0.000, 0.000, 0.000, 14:07:28.038
196, -1681.23, -1767.37, -1900.85, -1648.24, 0.000, 0.000, 0.000, 14:07:28.038
197, -1372.13, -1440.96, -1663.30, -1448.22, 0.000, 0.000, 0.000, 14:07:28.039
198, -1803.61, -1913.01, -2056.43, -1741.29, 0.000, 0.000, 0.000, 14:07:28.039
199, -1967.36, -2096.70, -2171.37, -1859.32, 0.000, 0.000, 0.000, 14:07:28.054
200, -1677.22, -1764.69, -1902.77, -1648.88, 0.000, 0.000, 0.000, 14:07:28.054
0, -1376.96, -1449.14, -1673.27, -1447.33, 0.000, 0.000, 0.000, 14:07:28.054
1, -1795.97, -1918.85, -2060.91, -1750.56, 0.000, 0.000, 0.000, 14:07:28.069
2, -1977.00, -2094.39, -2180.41, -1860.39, 0.000, 0.000, 0.000, 14:07:28.069
3, -1667.78, -1759.52, -1905.51, -1657.74, 0.000, 0.000, 0.000, 14:07:28.084
4, -1367.52, -1453.23, -1665.66, -1449.98, 0.000, 0.000, 0.000, 14:07:28.084
5, -1794.02, -1930.90, -2072.00, -1747.83, 0.000, 0.000, 0.000, 14:07:28.084
6, -1971.99, -2097.53, -2175.09, -1859.53, 0.000, 0.000, 0.000, 14:07:28.085
7, -1665.87, -1768.66, -1888.61, -1650.66, 0.000, 0.000, 0.000, 14:07:28.099
8, -1361.44, -1463.89, -1677.49, -1446.37, 0.000, 0.000, 0.000, 14:07:28.099
9, -1797.73, -1935.37, -2062.96, -1749.05, 0.000, 0.000, 0.000, 14:07:28.114
10, -1958.49, -2101.08, -2159.26, -1857.60, 0.000, 0.000, 0.000, 14:07:28.114
11, -1659.07, -1769.76, -1902.59, -1649.58, 0.000, 0.000, 0.000, 14:07:28.114
12, -1353.14, -1461.03, -1670.73, -1447.54, 0.000, 0.000, 0.000, 14:07:28.114
13, -1786.52, -1947.10, -2076.58, -1748.02, 0.000, 0.000, 0.000, 14:07:28.129
14, -1948.75, -2111.22, -2169.66, -1854.67, 0.000, 0.000, 0.000, 14:07:28.129
15, -1647.63, -1786.74, -1889.48, -1650.21, 0.000, 0.000, 0.000, 14:07:28.144
16, -1345.96, -1467.46, -1661.90, -1450.36, 0.000, 0.000, 0.000, 14:07:28.144
17, -1790.99, -1946.01, -2057.05, -1752.81, 0.000, 0.000, 0.000, 14:07:28.145
18, -1943.48, -2104.66, -2167.79, -1856.30, 0.000, 0.000, 0.000, 14:07:28.145
19, -1646.64, -1788.04, -1902.27, -1644.30, 0.000, 0.000, 0.000, 14:07:28.159
20, -1336.36, -1464.75, -1667.14, -1445.64, 0.000, 0.000, 0.000, 14:07:28.160
21, -1777.07, -1957.39, -2063.10, -1749.24, 0.000, 0.000, 0.000, 14:07:28.174
22, -1945.37, -2107.43, -2166.94, -1857.24, 0.000, 0.000, 0.000, 14:07:28.174
23, -1644.79, -1779.87, -1885.81, -1644.88, 0.000, 0.000, 0.000, 14:07:28.174
24, -1349.19, -1470.38, -1669.44, -1444.00, 0.000, 0.000, 0.000, 14:07:28.174
25, -1778.40, -1945.83, -2065.23, -1749.77, 0.000, 0.000, 0.000, 14:07:28.189
26, -1948.27, -2112.16, -2156.75, -1853.12, 0.000, 0.000, 0.000, 14:07:28.189
27, -1634.48, -1776.26, -1897.83, -1642.85, 0.000, 0.000, 0.000, 14:07:28.204
28, -1340.58, -1471.70, -1662.98, -1449.26, 0.000, 0.000, 0.000, 14:07:28.204
29, -1783.46, -1957.77, -2076.35, -1750.15, 0.000, 0.000, 0.000, 14:07:28.204
30, -1951.91, -2120.18, -2171.53, -1855.35, 0.000, 0.000, 0.000, 14:07:28.204
31, -1639.00, -1767.49, -1897.75, -1640.71, 0.000, 0.000, 0.000, 14:07:28.219
32, -1336.00, -1471.87, -1673.33, -1446.25, 0.000, 0.000, 0.000, 14:07:28.219
33, -1779.11, -1950.88, -2085.85, -1748.63, 0.000, 0.000, 0.000, 14:07:28.233
34, -1934.94, -2100.51, -2150.84, -1853.89, 0.000, 0.000, 0.000, 14:07:28.234
35, -1638.96, -1773.29, -1894.94, -1640.82, 0.000, 0.000, 0.000, 14:07:28.234
36, -1338.53, -1467.64, -1667.80, -1443.14, 0.000, 0.000, 0.000, 14:07:28.234
37, -1778.81, -1954.42, -2073.80, -1755.77, 0.000, 0.000, 0.000, 14:07:28.249
38, -1939.50, -2107.73, -2172.17, -1855.38, 0.000, 0.000, 0.000, 14:07:28.249
39, -1636.85, -1777.85, -1878.50, -1642.45, 0.000, 0.000, 0.000, 14:07:28.264
40, -1338.08, -1473.51, -1655.59, -1442.51, 0.000, 0.000, 0.000, 14:07:28.264
41, -1778.89, -1961.38, -2071.27, -1756.22, 0.000, 0.000, 0.000, 14:07:28.265
42, -1939.80, -2108.53, -2165.54, -1854.30, 0.000, 0.000, 0.000, 14:07:28.265
43, -1636.99, -1779.54, -1890.59, -1641.63, 0.000, 0.000, 0.000, 14:07:28.279
44, -1338.71, -1471.44, -1664.09, -1448.88, 0.000, 0.000, 0.000, 14:07:28.280
45, -1790.96, -1948.19, -2071.76, -1752.29, 0.000, 0.000, 0.000, 14:07:28.294
46, -1940.65, -2108.87, -2168.78, -1855.87, 0.000, 0.000, 0.000, 14:07:28.294
47, -1635.24, -1772.88, -1889.95, -1645.07, 0.000, 0.000, 0.000, 14:07:28.294
48, -1352.22, -1473.62, -1663.27, -1450.56, 0.000, 0.000, 0.000, 14:07:28.294
49, -1797.82, -1960.03, -2072.82, -1763.69, 0.000, 0.000, 0.000, 14:07:28.309
50, -1948.27, -2116.34, -2184.30, -1860.34, 0.000, 0.000, 0.000, 14:07:28.310
51, -1632.50, -1772.12, -1895.42, -1648.04, 0.000, 0.000, 0.000, 14:07:28.326
52, -1357.40, -1473.10, -1672.42, -1450.41, 0.000, 0.000, 0.000, 14:07:28.326
53, -1795.85, -1966.63, -2071.82, -1754.95, 0.000, 0.000, 0.000, 14:07:28.326
54, -1945.35, -2107.73, -2173.59, -1855.28, 0.000, 0.000, 0.000, 14:07:28.327
55, -1643.13, -1772.52, -1893.15, -1643.85, 0.000, 0.000, 0.000, 14:07:28.339
56, -1354.89, -1466.96, -1667.26, -1448.00, 0.000, 0.000, 0.000, 14:07:28.339
57, -1798.63, -1967.98, -2076.42, -1757.61, 0.000, 0.000, 0.000, 14:07:28.354
58, -1942.73, -2108.06, -2169.88, -1853.05, 0.000, 0.000, 0.000, 14:07:28.354
59, -1631.44, -1771.27, -1888.49, -1640.76, 0.000, 0.000, 0.000, 14:07:28.355
60, -1350.76, -1462.75, -1674.97, -1450.15, 0.000, 0.000, 0.000, 14:07:28.355
61, -1793.48, -1952.43, -2070.59, -1754.96, 0.000, 0.000, 0.000, 14:07:28.368
62, -1946.91, -2101.69, -2168.11, -1850.21, 0.000, 0.000, 0.000, 14:07:28.368
63, -1635.56, -1758.36, -1885.50, -1632.41, 0.000, 0.000, 0.000, 14:07:28.384
64, -1353.04, -1465.91, -1672.72, -1445.54, 0.000, 0.000, 0.000, 14:07:28.384
65, -1804.05, -1955.48, -2085.53, -1756.60, 0.000, 0.000, 0.000, 14:07:28.384
66, -1947.21, -2097.56, -2170.87, -1849.58, 0.000, 0.000, 0.000, 14:07:28.384
67, -1640.55, -1761.24, -1890.31, -1637.99, 0.000, 0.000, 0.000, 14:07:28.399
68, -1362.36, -1469.85, -1670.38, -1450.66, 0.000, 0.000, 0.000, 14:07:28.399
69, -1797.37, -1956.57, -2074.10, -1759.63, 0.000, 0.000, 0.000, 14:07:28.414
70, -1939.86, -2101.09, -2159.00, -1844.30, 0.000, 0.000, 0.000, 14:07:28.414
71, -1641.84, -1782.92, -1891.96, -1638.47, 0.000, 0.000, 0.000, 14:07:28.414
72, -1345.94, -1473.94, -1671.06, -1451.69, 0.000, 0.000, 0.000, 14:07:28.414
73, -1801.57, -1962.49, -2081.81, -1757.38, 0.000, 0.000, 0.000, 14:07:28.430
74, -1945.99, -2095.25, -2163.87, -1853.58, 0.000, 0.000, 0.000, 14:07:28.430
75, -1640.23, -1751.73, -1882.01, -1640.05, 0.000, 0.000, 0.000, 14:07:28.444
76, -1353.53, -1471.10, -1673.25, -1450.63, 0.000, 0.000, 0.000, 14:07:28.444
77, -1808.97, -1964.36, -2091.01, -1760.66, 0.000, 0.000, 0.000, 14:07:28.445
78, -1954.77, -2105.58, -2178.84, -1857.93, 0.000, 0.000, 0.000, 14:07:28.445
79, -1641.00, -1777.81, -1895.33, -1643.63, 0.000, 0.000, 0.000, 14:07:28.489
80, -1348.84, -1492.29, -1684.17, -1457.42, 0.000, 0.000, 0.000, 14:07:28.489
81, -1799.75, -1972.11, -2083.04, -1766.94, 0.000, 0.000, 0.000, 14:07:28.490
82, -1938.28, -2099.06, -2154.61, -1851.13, 0.000, 0.000, 0.000, 14:07:28.490
83, -1626.66, -1750.22, -1879.04, -1630.46, 0.000, 0.000, 0.000, 14:07:28.504
84, -1357.68, -1469.54, -1673.25, -1451.19, 0.000, 0.000, 0.000, 14:07:28.504
85, -1800.91, -1963.04, -2081.71, -1758.42, 0.000, 0.000, 0.000, 14:07:28.505
86, -1949.95, -2091.64, -2167.32, -1850.84, 0.000, 0.000, 0.000, 14:07:28.505
87, -1626.10, -1755.64, -1880.64, -1633.24, 0.000, 0.000, 0.000, 14:07:28.505
88, -1349.97, -1472.41, -1668.89, -1449.50, 0.000, 0.000, 0.000, 14:07:28.505
89, -1802.41, -1962.88, -2080.03, -1763.85, 0.000, 0.000, 0.000, 14:07:28.506
90, -1940.28, -2092.99, -2161.72, -1857.78, 0.000, 0.000, 0.000, 14:07:28.506
91, -1643.59, -1755.60, -1893.74, -1635.05, 0.000, 0.000, 0.000, 14:07:28.518
92, -1358.83, -1471.25, -1669.97, -1454.73, 0.000, 0.000, 0.000, 14:07:28.519
93, -1798.11, -1963.94, -2081.85, -1762.73, 0.000, 0.000, 0.000, 14:07:28.549
94, -1954.24, -2103.77, -2166.62, -1855.34, 0.000, 0.000, 0.000, 14:07:28.549
95, -1638.62, -1762.22, -1884.92, -1634.53, 0.000, 0.000, 0.000, 14:07:28.550
96, -1354.94, -1473.63, -1671.38, -1448.95, 0.000, 0.000, 0.000, 14:07:28.550
97, -1805.27, -1964.98, -2084.92, -1759.85, 0.000, 0.000, 0.000, 14:07:28.550
98, -1944.44, -2092.45, -2165.62, -1847.51, 0.000, 0.000, 0.000, 14:07:28.550
99, -1625.01, -1759.65, -1886.99, -1628.05, 0.000, 0.000, 0.000, 14:07:28.551
100, -1358.15, -1477.86, -1671.70, -1445.98, 0.000, 0.000, 0.000, 14:07:28.551
101, -1813.43, -1964.35, -2090.44, -1760.07, 0.000, 0.000, 0.000, 14:07:28.579
102, -1946.19, -2097.47, -2167.33, -1848.53, 0.000, 0.000, 0.000, 14:07:28.579
103, -1635.93, -1758.18, -1885.77, -1629.61, 0.000, 0.000, 0.000, 14:07:28.579
104, -1353.17, -1472.76, -1670.68, -1456.67, 0.000, 0.000, 0.000, 14:07:28.579
105, -1804.92, -1963.15, -2081.43, -1765.40, 0.000, 0.000, 0.000, 14:07:28.595
106, -1941.14, -2086.63, -2171.18, -1848.84, 0.000, 0.000, 0.000, 14:07:28.595
107, -1635.85, -1754.88, -1888.27, -1634.77, 0.000, 0.000, 0.000, 14:07:28.609
108, -1357.68, -1477.10, -1678.45, -1456.95, 0.000, 0.000, 0.000, 14:07:28.609
109, -1812.70, -1969.61, -2089.18, -1765.84, 0.000, 0.000, 0.000, 14:07:28.610
110, -1939.41, -2102.92, -2164.29, -1854.12, 0.000, 0.000, 0.000, 14:07:28.610
111, -1633.24, -1756.40, -1885.77, -1637.24, 0.000, 0.000, 0.000, 14:07:28.623
112, -1350.39, -1470.23, -1668.75, -1451.85, 0.000, 0.000, 0.000, 14:07:28.624
113, -1806.63, -1965.25, -2092.23, -1767.08, 0.000, 0.000, 0.000, 14:07:28.624
114, -1933.39, -2084.76, -2157.83, -1846.11, 0.000, 0.000, 0.000, 14:07:28.624
115, -1619.99, -1743.24, -1876.64, -1635.48, 0.000, 0.000, 0.000, 14:07:28.639
116, -1349.09, -1477.60, -1677.19, -1455.58, 0.000, 0.000, 0.000, 14:07:28.639
117, -1805.52, -1963.98, -2088.99, -1770.37, 0.000, 0.000, 0.000, 14:07:28.653
118, -1940.60, -2096.13, -2166.79, -1852.29, 0.000, 0.000, 0.000, 14:07:28.653
119, -1630.39, -1753.03, -1881.07, -1633.50, 0.000, 0.000, 0.000, 14:07:28.661
120, -1355.71, -1472.03, -1674.24, -1450.43, 0.000, 0.000, 0.000, 14:07:28.661
121, -1803.71, -1960.53, -2082.00, -1766.38, 0.000, 0.000, 0.000, 14:07:28.669
122, -1940.48, -2091.58, -2157.88, -1852.99, 0.000, 0.000, 0.000, 14:07:28.669
123, -1625.40, -1748.97, -1878.41, -1632.38, 0.000, 0.000, 0.000, 14:07:28.684
124, -1349.93, -1471.60, -1673.81, -1453.74, 0.000, 0.000, 0.000, 14:07:28.684
125, -1815.77, -1978.58, -2098.31, -1765.82, 0.000, 0.000, 0.000, 14:07:28.684
126, -1944.67, -2094.24, -2159.27, -1847.31, 0.000, 0.000, 0.000, 14:07:28.684
127, -1619.45, -1746.65, -1874.27, -1628.24, 0.000, 0.000, 0.000, 14:07:28.699
128, -1361.03, -1474.55, -1675.49, -1452.29, 0.000, 0.000, 0.000, 14:07:28.699
129, -1815.23, -1973.95, -2084.76, -1768.42, 0.000, 0.000, 0.000, 14:07:28.714
130, -1939.21, -2091.81, -2159.44, -1854.57, 0.000, 0.000, 0.000, 14:07:28.714
131, -1620.26, -1745.80, -1872.81, -1625.62, 0.000, 0.000, 0.000, 14:07:28.715
132, -1355.47, -1471.30, -1683.35, -1448.69, 0.000, 0.000, 0.000, 14:07:28.715
133, -1803.14, -1971.13, -2078.72, -1763.54, 0.000, 0.000, 0.000, 14:07:28.744
134, -1943.27, -2102.93, -2138.14, -1852.35, 0.000, 0.000, 0.000, 14:07:28.744
135, -1632.81, -1747.06, -1863.15, -1626.11, 0.000, 0.000, 0.000, 14:07:28.745
136, -1358.30, -1473.43, -1679.93, -1451.36, 0.000, 0.000, 0.000, 14:07:28.745
137, -1815.53, -1974.21, -2086.51, -1769.59, 0.000, 0.000, 0.000, 14:07:28.746
138, -1943.71, -2089.32, -2170.60, -1846.35, 0.000, 0.000, 0.000, 14:07:28.746
139, -1617.45, -1733.29, -1874.79, -1628.11, 0.000, 0.000, 0.000, 14:07:28.759
140, -1353.55, -1481.16, -1673.95, -1452.58, 0.000, 0.000, 0.000, 14:07:28.759
141, -1820.62, -1980.12, -2092.07, -1769.58, 0.000, 0.000, 0.000, 14:07:28.773
142, -1935.06, -2079.00, -2147.78, -1842.95, 0.000, 0.000, 0.000, 14:07:28.773
143, -1619.64, -1739.51, -1869.10, -1622.78, 0.000, 0.000, 0.000, 14:07:28.774
144, -1353.52, -1464.36, -1668.14, -1449.32, 0.000, 0.000, 0.000, 14:07:28.774
145, -1817.03, -1974.82, -2092.12, -1773.42, 0.000, 0.000, 0.000, 14:07:28.789
146, -1936.92, -2086.98, -2159.97, -1842.84, 0.000, 0.000, 0.000, 14:07:28.789
147, -1616.18, -1742.83, -1864.65, -1625.71, 0.000, 0.000, 0.000, 14:07:28.804
148, -1355.53, -1480.42, -1676.46, -1459.51, 0.000, 0.000, 0.000, 14:07:28.804
149, -1820.76, -1980.39, -2093.08, -1774.77, 0.000, 0.000, 0.000, 14:07:28.805
150, -1932.19, -2086.63, -2155.67, -1845.15, 0.000, 0.000, 0.000, 14:07:28.805
151, -1623.76, -1744.93, -1870.18, -1625.42, 0.000, 0.000, 0.000, 14:07:28.819
152, -1367.09, -1477.37, -1677.20, -1455.12, 0.000, 0.000, 0.000, 14:07:28.819
153, -1820.57, -1975.47, -2105.85, -1771.66, 0.000, 0.000, 0.000, 14:07:28.834
154, -1940.71, -2098.54, -2173.03, -1846.10, 0.000, 0.000, 0.000, 14:07:28.834
155, -1618.81, -1748.37, -1884.04, -1625.63, 0.000, 0.000, 0.000, 14:07:28.835
156, -1358.16, -1477.77, -1689.30, -1461.69, 0.000, 0.000, 0.000, 14:07:28.835
157, -1813.46, -1981.31, -2088.40, -1778.71, 0.000, 0.000, 0.000, 14:07:28.864
158, -1939.17, -2095.93, -2163.46, -1850.15, 0.000, 0.000, 0.000, 14:07:28.864
159, -1615.47, -1736.88, -1879.41, -1628.08, 0.000, 0.000, 0.000, 14:07:28.865
160, -1361.66, -1477.63, -1683.46, -1458.05, 0.000, 0.000, 0.000, 14:07:28.865
161, -1822.75, -1990.08, -2107.83, -1778.49, 0.000, 0.000, 0.000, 14:07:28.865
162, -1933.48, -2105.57, -2156.09, -1853.21, 0.000, 0.000, 0.000, 14:07:28.865
163, -1619.86, -1740.82, -1871.33, -1628.18, 0.000, 0.000, 0.000, 14:07:28.880
164, -1358.60, -1473.58, -1682.34, -1453.88, 0.000, 0.000, 0.000, 14:07:28.880
165, -1819.17, -1980.53, -2102.46, -1772.77, 0.000, 0.000, 0.000, 14:07:28.894
166, -1943.28, -2099.64, -2163.20, -1850.08, 0.000, 0.000, 0.000, 14:07:28.894
167, -1612.06, -1735.12, -1865.97, -1624.26, 0.000, 0.000, 0.000, 14:07:28.894
168, -1360.90, -1475.65, -1683.14, -1458.53, 0.000, 0.000, 0.000, 14:07:28.894
169, -1826.66, -1993.41, -2104.36, -1781.88, 0.000, 0.000, 0.000, 14:07:28.910
170, -1944.66, -2089.65, -2168.05, -1849.98, 0.000, 0.000, 0.000, 14:07:28.910
171, -1611.65, -1727.59, -1870.89, -1620.92, 0.000, 0.000, 0.000, 14:07:28.924
172, -1359.30, -1479.40, -1674.37, -1455.91, 0.000, 0.000, 0.000, 14:07:28.924
173, -1830.07, -1994.45, -2109.91, -1776.98, 0.000, 0.000, 0.000, 14:07:28.925
174, -1945.22, -2090.87, -2165.16, -1846.36, 0.000, 0.000, 0.000, 14:07:28.925
175, -1623.86, -1733.16, -1866.92, -1622.26, 0.000, 0.000, 0.000, 14:07:28.939
176, -1371.32, -1481.22, -1694.70, -1457.05, 0.000, 0.000, 0.000, 14:07:28.939
177, -1830.14, -1987.72, -2106.49, -1775.94, 0.000, 0.000, 0.000, 14:07:28.953
178, -1945.92, -2098.09, -2155.63, -1843.15, 0.000, 0.000, 0.000, 14:07:28.954
179, -1613.13, -1743.92, -1844.33, -1623.77, 0.000, 0.000, 0.000, 14:07:28.954
180, -1368.31, -1487.77, -1681.68, -1459.22, 0.000, 0.000, 0.000, 14:07:28.954
181, -1829.60, -1991.69, -2107.47, -1778.28, 0.000, 0.000, 0.000, 14:07:28.984
182, -1940.25, -2099.85, -2146.23, -1846.03, 0.000, 0.000, 0.000, 14:07:28.984
183, -1612.93, -1740.55, -1874.33, -1622.67, 0.000, 0.000, 0.000, 14:07:28.984
184, -1372.27, -1488.27, -1683.67, -1455.04, 0.000, 0.000, 0.000, 14:07:28.984
185, -1824.00, -1994.97, -2082.89, -1774.33, 0.000, 0.000, 0.000, 14:07:28.985
186, -1929.61, -2097.32, -2161.05, -1845.53, 0.000, 0.000, 0.000, 14:07:28.985
187, -1611.11, -1729.17, -1874.78, -1617.94, 0.000, 0.000, 0.000, 14:07:28.999
188, -1358.92, -1478.07, -1683.93, -1455.82, 0.000, 0.000, 0.000, 14:07:28.999
189, -1831.99, -2000.01, -2100.02, -1778.00, 0.000, 0.000, 0.000, 14:07:29.013
190, -1929.94, -2088.75, -2148.53, -1845.28, 0.000, 0.000, 0.000, 14:07:29.013
191, -1612.75, -1741.09, -1869.23, -1618.07, 0.000, 0.000, 0.000, 14:07:29.014
192, -1360.86, -1480.77, -1683.59, -1449.38, 0.000, 0.000, 0.000, 14:07:29.014
193, -1832.88, -2000.06, -2107.21, -1779.57, 0.000, 0.000, 0.000, 14:07:29.030
194, -1934.06, -2084.56, -2157.30, -1851.97, 0.000, 0.000, 0.000, 14:07:29.030
195, -1608.73, -1745.65, -1863.50, -1619.92, 0.000, 0.000, 0.000, 14:07:29.044
196, -1364.58, -1485.50, -1687.73, -1455.11, 0.000, 0.000, 0.000, 14:07:29.044
197, -1838.98, -2003.58, -2095.61, -1778.36, 0.000, 0.000, 0.000, 14:07:29.044
198, -1935.75, -2100.19, -2176.33, -1845.41, 0.000, 0.000, 0.000, 14:07:29.045
199, -1599.52, -1736.49, -1862.83, -1618.12, 0.000, 0.000, 0.000, 14:07:29.059
200, -1351.78, -1483.38, -1674.89, -1451.27, 0.000, 0.000, 0.000, 14:07:29.060
0, -1836.07, -1994.47, -2105.23, -1781.64, 0.000, 0.000, 0.000, 14:07:29.060
1, -1942.35, -2095.89, -2147.71, -1853.45, 0.000, 0.000, 0.000, 14:07:29.074
2, -1603.44, -1735.22, -1859.29, -1619.25, 0.000, 0.000, 0.000, 14:07:29.074
3, -1347.67, -1463.76, -1676.86, -1445.48, 0.000, 0.000, 0.000, 14:07:29.104
4, -1839.52, -2000.23, -2122.49, -1782.11, 0.000, 0.000, 0.000, 14:07:29.104
5, -1942.01, -2090.30, -2158.89, -1847.15, 0.000, 0.000, 0.000, 14:07:29.105
6, -1602.70, -1724.63, -1864.98, -1623.22, 0.000, 0.000, 0.000, 14:07:29.105
7, -1355.62, -1466.32, -1679.76, -1456.45, 0.000, 0.000, 0.000, 14:07:29.105
8, -1841.55, -2001.37, -2109.45, -1786.13, 0.000, 0.000, 0.000, 14:07:29.105
9, -1946.15, -2093.38, -2164.74, -1853.78, 0.000, 0.000, 0.000, 14:07:29.106
10, -1602.73, -1739.41, -1874.38, -1614.62, 0.000, 0.000, 0.000, 14:07:29.106
11, -1352.67, -1484.28, -1655.23, -1446.12, 0.000, 0.000, 0.000, 14:07:29.119
12, -1836.09, -1993.11, -2104.32, -1780.66, 0.000, 0.000, 0.000, 14:07:29.119
13, -1928.75, -2122.93, -2161.59, -1842.30, 0.000, 0.000, 0.000, 14:07:29.140
14, -1582.19, -1755.83, -1847.32, -1608.08, 0.000, 0.000, 0.000, 14:07:29.140
15, -1330.49, -1482.03, -1682.06, -1447.56, 0.000, 0.000, 0.000, 14:07:29.148
16, -1796.00, -2017.86, -2100.33, -1783.56, 0.000, 0.000, 0.000, 14:07:29.148
17, -1888.52, -2122.32, -2155.33, -1838.36, 0.000, 0.000, 0.000, 14:07:29.149
18, -1511.80, -1790.18, -1852.74, -1599.13, 0.000, 0.000, 0.000, 14:07:29.149
19, -1233.54, -1504.34, -1663.78, -1442.93, 0.000, 0.000, 0.000, 14:07:29.194
20, -1681.32, -2069.40, -2114.41, -1762.95, 0.000, 0.000, 0.000, 14:07:29.194
21, -1738.84, -2182.85, -2145.03, -1833.79, 0.000, 0.000, 0.000, 14:07:29.195
22, -1324.83, -1821.54, -1835.46, -1588.43, 0.000, 0.000, 0.000, 14:07:29.195
23, -1034.00, -1611.16, -1663.38, -1424.18, 0.000, 0.000, 0.000, 14:07:29.197
24, -1495.94, -2130.38, -2100.33, -1760.82, 0.000, 0.000, 0.000, 14:07:29.197
25, -1599.46, -2234.44, -2151.86, -1817.41, 0.000, 0.000, 0.000, 14:07:29.197
26, -1271.61, -1879.10, -1836.14, -1584.31, 0.000, 0.000, 0.000, 14:07:29.197
27, -1042.12, -1632.53, -1658.90, -1427.49, 0.000, 0.000, 0.000, 14:07:29.197
28, -1548.21, -2153.87, -2105.78, -1763.94, 0.000, 0.000, 0.000, 14:07:29.197
29, -1676.09, -2248.34, -2153.65, -1822.16, 0.000, 0.000, 0.000, 14:07:29.210
30, -1368.77, -1866.36, -1856.65, -1588.44, 0.000, 0.000, 0.000, 14:07:29.210
31, -1167.57, -1605.02, -1678.53, -1429.52, 0.000, 0.000, 0.000, 14:07:29.224
32, -1694.35, -2108.87, -2115.96, -1771.99, 0.000, 0.000, 0.000, 14:07:29.224
33, -1832.26, -2173.05, -2149.09, -1839.02, 0.000, 0.000, 0.000, 14:07:29.239
34, -1536.54, -1766.83, -1846.25, -1618.51, 0.000, 0.000, 0.000, 14:07:29.239
35, -1337.70, -1501.96, -1684.85, -1448.75, 0.000, 0.000, 0.000, 14:07:29.239
36, -1867.82, -2014.44, -2117.36, -1800.90, 0.000, 0.000, 0.000, 14:07:29.240
37, -1986.04, -2082.40, -2169.77, -1860.23, 0.000, 0.000, 0.000, 14:07:29.253
38, -1680.78, -1683.33, -1868.61, -1619.24, 0.000, 0.000, 0.000, 14:07:29.253
39, -1457.78, -1431.56, -1689.18, -1464.40, 0.000, 0.000, 0.000, 14:07:29.268
40, -1960.42, -1945.45, -2124.73, -1807.71, 0.000, 0.000, 0.000, 14:07:29.268
41, -2069.33, -2026.56, -2176.90, -1862.07, 0.000, 0.000, 0.000, 14:07:29.269
42, -1732.31, -1655.01, -1862.42, -1625.06, 0.000, 0.000, 0.000, 14:07:29.269
43, -1499.22, -1418.45, -1693.37, -1472.29, 0.000, 0.000, 0.000, 14:07:29.299
44, -1993.32, -1946.52, -2123.34, -1808.61, 0.000, 0.000, 0.000, 14:07:29.299
45, -2076.24, -2016.12, -2158.63, -1868.13, 0.000, 0.000, 0.000, 14:07:29.299
46, -1734.09, -1651.04, -1866.80, -1628.20, 0.000, 0.000, 0.000, 14:07:29.299
47, -1490.09, -1402.81, -1676.77, -1464.08, 0.000, 0.000, 0.000, 14:07:29.299
48, -1992.20, -1938.03, -2129.11, -1809.82, 0.000, 0.000, 0.000, 14:07:29.300
49, -2070.71, -2027.81, -2179.76, -1860.63, 0.000, 0.000, 0.000, 14:07:29.314
50, -1725.99, -1648.95, -1854.02, -1623.18, 0.000, 0.000, 0.000, 14:07:29.314
51, -1476.27, -1399.50, -1681.94, -1458.58, 0.000, 0.000, 0.000, 14:07:29.330
52, -1967.10, -1945.97, -2130.31, -1802.29, 0.000, 0.000, 0.000, 14:07:29.330
53, -2051.35, -2024.55, -2160.47, -1858.92, 0.000, 0.000, 0.000, 14:07:29.330
54, -1698.89, -1651.14, -1862.79, -1617.19, 0.000, 0.000, 0.000, 14:07:29.330
55, -1458.39, -1419.06, -1683.59, -1462.24, 0.000, 0.000, 0.000, 14:07:29.344
56, -1950.92, -1963.71, -2134.02, -1802.31, 0.000, 0.000, 0.000, 14:07:29.344
57, -2019.84, -2035.43, -2158.11, -1846.27, 0.000, 0.000, 0.000, 14:07:29.360
58, -1686.84, -1665.11, -1852.21, -1610.90, 0.000, 0.000, 0.000, 14:07:29.360
59, -1444.67, -1428.48, -1675.49, -1456.66, 0.000, 0.000, 0.000, 14:07:29.360
60, -1929.72, -1971.88, -2130.28, -1798.15, 0.000, 0.000, 0.000, 14:07:29.360
61, -2012.07, -2049.63, -2159.47, -1846.30, 0.000, 0.000, 0.000, 14:07:29.374
62, -1664.30, -1675.32, -1853.16, -1610.99, 0.000, 0.000, 0.000, 14:07:29.374
63, -1423.17, -1438.23, -1673.00, -1455.13, 0.000, 0.000, 0.000, 14:07:29.389
64, -1916.30, -1979.96, -2122.31, -1797.68, 0.000, 0.000, 0.000, 14:07:29.389
65, -1993.88, -2046.77, -2160.45, -1846.96, 0.000, 0.000, 0.000, 14:07:29.389
66, -1641.90, -1676.05, -1842.90, -1609.80, 0.000, 0.000, 0.000, 14:07:29.389
67, -1418.76, -1449.90, -1679.85, -1456.17, 0.000, 0.000, 0.000, 14:07:29.404
68, -1901.24, -1988.46, -2133.01, -1800.94, 0.000, 0.000, 0.000, 14:07:29.404
69, -1982.27, -2055.59, -2168.81, -1849.87, 0.000, 0.000, 0.000, 14:07:29.419
70, -1632.02, -1683.47, -1862.62, -1610.50, 0.000, 0.000, 0.000, 14:07:29.419
71, -1398.90, -1455.32, -1689.74, -1456.99, 0.000, 0.000, 0.000, 14:07:29.419
72, -1884.14, -2000.32, -2130.26, -1800.25, 0.000, 0.000, 0.000, 14:07:29.419
73, -1969.08, -2066.05, -2150.73, -1852.66, 0.000, 0.000, 0.000, 14:07:29.434
74, -1619.21, -1688.56, -1844.32, -1612.73, 0.000, 0.000, 0.000, 14:07:29.434
75, -1383.31, -1463.03, -1689.68, -1462.73, 0.000, 0.000, 0.000, 14:07:29.448
76, -1885.48, -1999.72, -2145.14, -1801.40, 0.000, 0.000, 0.000, 14:07:29.448
77, -1954.15, -2078.12, -2155.83, -1854.37, 0.000, 0.000, 0.000, 14:07:29.449
78, -1607.38, -1698.43, -1843.57, -1609.43, 0.000, 0.000, 0.000, 14:07:29.449
79, -1375.27, -1464.16, -1684.07, -1453.06, 0.000, 0.000, 0.000, 14:07:29.464
80, -1863.15, -2001.17, -2124.40, -1799.53, 0.000, 0.000, 0.000, 14:07:29.464
81, -1946.99, -2074.71, -2148.61, -1848.88, 0.000, 0.000, 0.000, 14:07:29.480
82, -1595.59, -1692.01, -1838.65, -1603.44, 0.000, 0.000, 0.000, 14:07:29.480
83, -1376.25, -1472.88, -1674.07, -1460.80, 0.000, 0.000, 0.000, 14:07:29.480
84, -1870.01, -2013.78, -2119.89, -1798.63, 0.000, 0.000, 0.000, 14:07:29.480
85, -1943.00, -2075.38, -2143.96, -1844.91, 0.000, 0.000, 0.000, 14:07:29.494
86, -1599.72, -1702.12, -1846.70, -1605.18, 0.000, 0.000, 0.000, 14:07:29.494
87, -1374.96, -1472.03, -1684.70, -1452.56, 0.000, 0.000, 0.000, 14:07:29.510
88, -1867.54, -2013.85, -2125.58, -1800.92, 0.000, 0.000, 0.000, 14:07:29.510
89, -1939.92, -2072.11, -2144.03, -1837.71, 0.000, 0.000, 0.000, 14:07:29.510
90, -1595.73, -1697.70, -1851.71, -1599.48, 0.000, 0.000, 0.000, 14:07:29.510
91, -1372.15, -1480.54, -1696.24, -1459.26, 0.000, 0.000, 0.000, 14:07:29.539
92, -1858.68, -2016.19, -2133.35, -1797.78, 0.000, 0.000, 0.000, 14:07:29.539
93, -1932.67, -2077.31, -2159.98, -1846.35, 0.000, 0.000, 0.000, 14:07:29.539
94, -1589.64, -1690.25, -1833.95, -1603.11, 0.000, 0.000, 0.000, 14:07:29.540
95, -1367.34, -1473.23, -1685.57, -1449.34, 0.000, 0.000, 0.000, 14:07:29.540
96, -1866.71, -2019.15, -2122.14, -1795.67, 0.000, 0.000, 0.000, 14:07:29.540
97, -1938.57, -2087.04, -2153.99, -1846.42, 0.000, 0.000, 0.000, 14:07:29.554
98, -1585.68, -1684.40, -1840.04, -1600.87, 0.000, 0.000, 0.000, 14:07:29.554
99, -1362.60, -1466.56, -1676.11, -1456.99, 0.000, 0.000, 0.000, 14:07:29.569
100, -1864.59, -2012.44, -2121.20, -1803.81, 0.000, 0.000, 0.000, 14:07:29.569
101, -1945.11, -2093.72, -2167.16, -1845.18, 0.000, 0.000, 0.000, 14:07:29.569
102, -1585.42, -1698.92, -1849.78, -1600.75, 0.000, 0.000, 0.000, 14:07:29.569
103, -1377.15, -1477.67, -1692.52, -1459.69, 0.000, 0.000, 0.000, 14:07:29.584
104, -1882.79, -2039.92, -2139.69, -1807.30, 0.000, 0.000, 0.000, 14:07:29.584
105, -1935.13, -2089.14, -2153.13, -1848.95, 0.000, 0.000, 0.000, 14:07:29.599
106, -1576.63, -1704.35, -1844.19, -1591.47, 0.000, 0.000, 0.000, 14:07:29.599
107, -1354.89, -1486.49, -1689.42, -1452.32, 0.000, 0.000, 0.000, 14:07:29.606
108, -1856.07, -2020.20, -2136.16, -1800.14, 0.000, 0.000, 0.000, 14:07:29.606
109, -1910.20, -2083.42, -2150.53, -1832.17, 0.000, 0.000, 0.000, 14:07:29.614
110, -1567.28, -1704.82, -1836.51, -1598.42, 0.000, 0.000, 0.000, 14:07:29.614
111, -1350.21, -1496.55, -1690.85, -1457.77, 0.000, 0.000, 0.000, 14:07:29.630
112, -1854.62, -2039.41, -2132.05, -1799.69, 0.000, 0.000, 0.000, 14:07:29.630
113, -1929.67, -2094.34, -2157.05, -1845.38, 0.000, 0.000, 0.000, 14:07:29.630
114, -1571.91, -1689.91, -1826.14, -1602.47, 0.000, 0.000, 0.000, 14:07:29.630
115, -1361.12, -1486.37, -1692.12, -1459.50, 0.000, 0.000, 0.000, 14:07:29.660
116, -1865.35, -2029.17, -2135.10, -1804.36, 0.000, 0.000, 0.000, 14:07:29.660
117, -1925.28, -2079.25, -2152.98, -1845.17, 0.000, 0.000, 0.000, 14:07:29.660
118, -1581.31, -1693.39, -1846.82, -1603.03, 0.000, 0.000, 0.000, 14:07:29.660
119, -1369.37, -1478.44, -1703.41, -1460.69, 0.000, 0.000, 0.000, 14:07:29.660
120, -1872.11, -2029.77, -2135.68, -1805.77, 0.000, 0.000, 0.000, 14:07:29.660
121, -1939.97, -2084.99, -2161.68, -1847.05, 0.000, 0.000, 0.000, 14:07:29.674
122, -1575.54, -1693.51, -1831.91, -1602.57, 0.000, 0.000, 0.000, 14:07:29.674
123, -1373.57, -1492.80, -1706.46, -1467.16, 0.000, 0.000, 0.000, 14:07:29.689
124, -1875.39, -2020.54, -2142.74, -1809.85, 0.000, 0.000, 0.000, 14:07:29.689
125, -1924.66, -2076.63, -2150.10, -1843.23, 0.000, 0.000, 0.000, 14:07:29.689
126, -1579.46, -1702.97, -1837.79, -1604.34, 0.000, 0.000, 0.000, 14:07:29.689
127, -1368.85, -1493.78, -1694.72, -1461.97, 0.000, 0.000, 0.000, 14:07:29.703
128, -1862.91, -2036.88, -2138.32, -1807.80, 0.000, 0.000, 0.000, 14:07:29.703
129, -1928.05, -2079.61, -2147.42, -1842.22, 0.000, 0.000, 0.000, 14:07:29.719
130, -1569.32, -1697.08, -1829.18, -1596.97, 0.000, 0.000, 0.000, 14:07:29.719
131, -1364.60, -1488.67, -1690.65, -1460.06, 0.000, 0.000, 0.000, 14:07:29.719
132, -1866.69, -2036.66, -2138.14, -1806.94, 0.000, 0.000, 0.000, 14:07:29.719
133, -1931.05, -2076.77, -2156.29, -1844.05, 0.000, 0.000, 0.000, 14:07:29.733
134, -1574.56, -1694.63, -1838.27, -1595.56, 0.000, 0.000, 0.000, 14:07:29.734
135, -1366.72, -1489.76, -1683.44, -1458.89, 0.000, 0.000, 0.000, 14:07:29.748
136, -1866.09, -2033.11, -2142.33, -1803.37, 0.000, 0.000, 0.000, 14:07:29.748
137, -1940.39, -2083.64, -2161.87, -1840.84, 0.000, 0.000, 0.000, 14:07:29.749
138, -1570.15, -1698.21, -1828.15, -1597.46, 0.000, 0.000, 0.000, 14:07:29.749
139, -1374.39, -1498.17, -1686.75, -1458.88, 0.000, 0.000, 0.000, 14:07:29.764
140, -1870.96, -2034.78, -2147.73, -1807.52, 0.000, 0.000, 0.000, 14:07:29.764
141, -1929.68, -2081.03, -2157.41, -1841.52, 0.000, 0.000, 0.000, 14:07:29.780
142, -1577.10, -1689.25, -1837.14, -1598.17, 0.000, 0.000, 0.000, 14:07:29.780
143, -1366.42, -1482.83, -1694.71, -1464.67, 0.000, 0.000, 0.000, 14:07:29.780
144, -1864.90, -2030.93, -2139.90, -1804.85, 0.000, 0.000, 0.000, 14:07:29.780
145, -1925.18, -2069.37, -2128.60, -1837.78, 0.000, 0.000, 0.000, 14:07:29.794
146, -1566.46, -1686.26, -1827.92, -1593.57, 0.000, 0.000, 0.000, 14:07:29.794
147, -1366.95, -1487.05, -1696.34, -1463.27, 0.000, 0.000, 0.000, 14:07:29.810
148, -1871.56, -2022.55, -2137.47, -1812.07, 0.000, 0.000, 0.000, 14:07:29.810
149, -1922.67, -2074.71, -2128.81, -1839.80, 0.000, 0.000, 0.000, 14:07:29.810
150, -1567.43, -1684.37, -1822.83, -1597.16, 0.000, 0.000, 0.000, 14:07:29.810
151, -1366.15, -1486.33, -1690.01, -1456.39, 0.000, 0.000, 0.000, 14:07:29.824
152, -1869.41, -2036.94, -2141.55, -1805.58, 0.000, 0.000, 0.000, 14:07:29.824
153, -1920.99, -2074.19, -2153.52, -1837.06, 0.000, 0.000, 0.000, 14:07:29.853
154, -1563.29, -1683.11, -1829.29, -1594.99, 0.000, 0.000, 0.000, 14:07:29.853
155, -1363.54, -1483.46, -1678.96, -1464.51, 0.000, 0.000, 0.000, 14:07:29.854
156, -1877.55, -2047.04, -2134.10, -1807.59, 0.000, 0.000, 0.000, 14:07:29.854
157, -1931.84, -2084.45, -2147.18, -1834.42, 0.000, 0.000, 0.000, 14:07:29.855
158, -1572.80, -1692.24, -1828.55, -1591.55, 0.000, 0.000, 0.000, 14:07:29.855
159, -1372.06, -1497.25, -1695.15, -1460.03, 0.000, 0.000, 0.000, 14:07:29.855
160, -1874.82, -2042.48, -2148.25, -1811.87, 0.000, 0.000, 0.000, 14:07:29.855
161, -1932.73, -2095.73, -2158.00, -1842.92, 0.000, 0.000, 0.000, 14:07:29.868
162, -1571.82, -1700.79, -1832.29, -1603.40, 0.000, 0.000, 0.000, 14:07:29.868
163, -1369.12, -1495.60, -1689.44, -1468.07, 0.000, 0.000, 0.000, 14:07:29.884
164, -1873.36, -2039.51, -2139.25, -1807.20, 0.000, 0.000, 0.000, 14:07:29.884
165, -1912.80, -2064.48, -2140.13, -1832.50, 0.000, 0.000, 0.000, 14:07:29.898
166, -1555.27, -1669.76, -1823.12, -1590.60, 0.000, 0.000, 0.000, 14:07:29.898
167, -1372.46, -1491.87, -1691.11, -1464.35, 0.000, 0.000, 0.000, 14:07:29.899
168, -1882.97, -2050.88, -2147.18, -1813.86, 0.000, 0.000, 0.000, 14:07:29.899
169, -1921.55, -2065.24, -2141.75, -1830.45, 0.000, 0.000, 0.000, 14:07:29.913
170, -1563.73, -1668.79, -1814.56, -1589.32, 0.000, 0.000, 0.000, 14:07:29.913
171, -1371.00, -1497.65, -1700.00, -1467.35, 0.000, 0.000, 0.000, 14:07:29.930
172, -1869.14, -2042.27, -2147.99, -1807.25, 0.000, 0.000, 0.000, 14:07:29.930
173, -1926.21, -2065.21, -2133.13, -1832.09, 0.000, 0.000, 0.000, 14:07:29.930
174, -1570.41, -1697.76, -1830.92, -1590.31, 0.000, 0.000, 0.000, 14:07:29.930
175, -1376.87, -1504.67, -1696.16, -1463.08, 0.000, 0.000, 0.000, 14:07:29.950
176, -1880.30, -2035.97, -2144.53, -1809.09, 0.000, 0.000, 0.000, 14:07:29.951
177, -1923.11, -2076.58, -2144.63, -1841.24, 0.000, 0.000, 0.000, 14:07:29.974
178, -1559.87, -1677.62, -1826.02, -1596.28, 0.000, 0.000, 0.000, 14:07:29.974
179, -1370.06, -1493.21, -1696.58, -1463.08, 0.000, 0.000, 0.000, 14:07:29.975
180, -1883.24, -2041.81, -2147.20, -1806.47, 0.000, 0.000, 0.000, 14:07:29.975
181, -1923.23, -2077.44, -2149.80, -1836.71, 0.000, 0.000, 0.000, 14:07:29.975
182, -1564.81, -1681.41, -1821.57, -1589.82, 0.000, 0.000, 0.000, 14:07:29.975
183, -1375.33, -1501.66, -1698.00, -1468.27, 0.000, 0.000, 0.000, 14:07:29.976
184, -1884.26, -2054.50, -2148.29, -1816.07, 0.000, 0.000, 0.000, 14:07:29.976
185, -1920.17, -2066.32, -2150.81, -1837.96, 0.000, 0.000, 0.000, 14:07:29.989
186, -1567.81, -1698.20, -1832.33, -1592.39, 0.000, 0.000, 0.000, 14:07:29.989
187, -1382.59, -1498.62, -1698.82, -1470.52, 0.000, 0.000, 0.000, 14:07:30.019
188, -1879.15, -2044.18, -2150.02, -1812.25, 0.000, 0.000, 0.000, 14:07:30.019
189, -1928.31, -2073.60, -2155.76, -1837.24, 0.000, 0.000, 0.000, 14:07:30.019
190, -1559.31, -1671.95, -1825.67, -1591.30, 0.000, 0.000, 0.000, 14:07:30.019
191, -1374.61, -1499.45, -1698.30, -1466.38, 0.000, 0.000, 0.000, 14:07:30.020
192, -1878.89, -2050.73, -2150.44, -1811.41, 0.000, 0.000, 0.000, 14:07:30.020
193, -1920.56, -2089.68, -2135.25, -1837.54, 0.000, 0.000, 0.000, 14:07:30.034
194, -1551.27, -1678.61, -1827.78, -1584.68, 0.000, 0.000, 0.000, 14:07:30.034
195, -1367.94, -1494.01, -1695.53, -1471.18, 0.000, 0.000, 0.000, 14:07:30.048
196, -1880.55, -2033.45, -2156.90, -1822.48, 0.000, 0.000, 0.000, 14:07:30.049
197, -1919.69, -2068.36, -2139.66, -1835.69, 0.000, 0.000, 0.000, 14:07:30.049
198, -1563.10, -1690.14, -1828.47, -1584.41, 0.000, 0.000, 0.000, 14:07:30.049
199, -1382.10, -1500.06, -1704.78, -1465.62, 0.000, 0.000, 0.000, 14:07:30.064
200, -1880.07, -2046.52, -2141.17, -1817.79, 0.000, 0.000, 0.000, 14:07:30.064
0, -1928.14, -2070.29, -2144.34, -1840.60, 0.000, 0.000, 0.000, 14:07:30.065
1, -1569.33, -1679.36, -1818.46, -1595.15, 0.000, 0.000, 0.000, 14:07:30.080
2, -1378.59, -1491.71, -1701.16, -1468.24, 0.000, 0.000, 0.000, 14:07:30.080
3, -1888.51, -2043.94, -2146.83, -1824.41, 0.000, 0.000, 0.000, 14:07:30.094
4, -1928.30, -2081.20, -2150.68, -1839.34, 0.000, 0.000, 0.000, 14:07:30.094
5, -1548.47, -1685.49, -1810.76, -1584.39, 0.000, 0.000, 0.000, 14:07:30.095
6, -1382.47, -1498.31, -1697.22, -1465.18, 0.000, 0.000, 0.000, 14:07:30.095
7, -1878.50, -2045.33, -2151.44, -1814.69, 0.000, 0.000, 0.000, 14:07:30.110
8, -1916.92, -2064.00, -2139.73, -1835.99, 0.000, 0.000, 0.000, 14:07:30.110
9, -1552.77, -1661.74, -1822.65, -1582.62, 0.000, 0.000, 0.000, 14:07:30.125
10, -1374.32, -1501.15, -1695.02, -1467.98, 0.000, 0.000, 0.000, 14:07:30.125
11, -1889.18, -2049.16, -2151.01, -1816.50, 0.000, 0.000, 0.000, 14:07:30.125
12, -1918.85, -2072.22, -2141.00, -1828.68, 0.000, 0.000, 0.000, 14:07:30.125
13, -1546.47, -1675.16, -1824.10, -1583.31, 0.000, 0.000, 0.000, 14:07:30.139
14, -1375.90, -1500.08, -1700.18, -1464.12, 0.000, 0.000, 0.000, 14:07:30.139
15, -1886.62, -2035.54, -2152.40, -1817.13, 0.000, 0.000, 0.000, 14:07:30.153
16, -1918.95, -2063.40, -2149.12, -1833.04, 0.000, 0.000, 0.000, 14:07:30.154
17, -1552.45, -1682.18, -1825.05, -1587.19, 0.000, 0.000, 0.000, 14:07:30.154
18, -1377.66, -1497.23, -1697.12, -1467.52, 0.000, 0.000, 0.000, 14:07:30.154
19, -1889.24, -2046.64, -2145.11, -1820.92, 0.000, 0.000, 0.000, 14:07:30.169
20, -1921.95, -2063.10, -2136.71, -1837.83, 0.000, 0.000, 0.000, 14:07:30.169
21, -1552.30, -1672.49, -1814.45, -1586.61, 0.000, 0.000, 0.000, 14:07:30.184
22, -1375.45, -1502.30, -1693.85, -1465.87, 0.000, 0.000, 0.000, 14:07:30.184
23, -1889.89, -2060.76, -2160.22, -1824.09, 0.000, 0.000, 0.000, 14:07:30.185
24, -1917.99, -2072.67, -2145.22, -1837.75, 0.000, 0.000, 0.000, 14:07:30.185
25, -1555.15, -1679.05, -1824.37, -1581.10, 0.000, 0.000, 0.000, 14:07:30.214
26, -1382.52, -1505.18, -1696.86, -1470.97, 0.000, 0.000, 0.000, 14:07:30.214
27, -1882.43, -2045.95, -2165.04, -1821.03, 0.000, 0.000, 0.000, 14:07:30.214
28, -1920.24, -2072.41, -2145.22, -1831.14, 0.000, 0.000, 0.000, 14:07:30.214
29, -1542.54, -1669.02, -1816.13, -1580.49, 0.000, 0.000, 0.000, 14:07:30.215
30, -1373.65, -1507.65, -1685.61, -1466.86, 0.000, 0.000, 0.000, 14:07:30.215
31, -1889.26, -2064.28, -2152.40, -1817.10, 0.000, 0.000, 0.000, 14:07:30.230
32, -1912.10, -2067.96, -2139.99, -1837.31, 0.000, 0.000, 0.000, 14:07:30.230
33, -1544.42, -1671.01, -1809.22, -1583.29, 0.000, 0.000, 0.000, 14:07:30.244
34, -1363.60, -1492.42, -1702.26, -1469.32, 0.000, 0.000, 0.000, 14:07:30.244
35, -1886.58, -2052.82, -2162.98, -1820.88, 0.000, 0.000, 0.000, 14:07:30.245
36, -1909.14, -2050.46, -2130.71, -1838.62, 0.000, 0.000, 0.000, 14:07:30.245
37, -1548.56, -1676.46, -1808.12, -1580.61, 0.000, 0.000, 0.000, 14:07:30.260
38, -1372.11, -1506.99, -1708.17, -1468.46, 0.000, 0.000, 0.000, 14:07:30.260
39, -1886.45, -2049.41, -2172.57, -1821.67, 0.000, 0.000, 0.000, 14:07:30.289
40, -1908.48, -2059.62, -2137.10, -1838.00, 0.000, 0.000, 0.000, 14:07:30.289
41, -1541.15, -1667.59, -1821.12, -1574.95, 0.000, 0.000, 0.000, 14:07:30.290
42, -1372.61, -1511.64, -1694.61, -1476.82, 0.000, 0.000, 0.000, 14:07:30.290
43, -1888.93, -2059.04, -2157.90, -1824.66, 0.000, 0.000, 0.000, 14:07:30.290
44, -1915.06, -2060.97, -2150.89, -1839.06, 0.000, 0.000, 0.000, 14:07:30.290
45, -1544.64, -1669.38, -1812.86, -1579.54, 0.000, 0.000, 0.000, 14:07:30.291
46, -1375.39, -1509.21, -1706.10, -1474.06, 0.000, 0.000, 0.000, 14:07:30.291
47, -1905.72, -2067.17, -2146.24, -1830.88, 0.000, 0.000, 0.000, 14:07:30.304
48, -1918.01, -2068.37, -2136.95, -1837.80, 0.000, 0.000, 0.000, 14:07:30.304
49, -1542.03, -1671.66, -1809.50, -1581.12, 0.000, 0.000, 0.000, 14:07:30.319
50, -1374.97, -1505.67, -1703.00, -1472.10, 0.000, 0.000, 0.000, 14:07:30.319
51, -1889.93, -2062.35, -2154.29, -1825.48, 0.000, 0.000, 0.000, 14:07:30.333
52, -1913.35, -2077.71, -2140.83, -1836.54, 0.000, 0.000, 0.000, 14:07:30.333
53, -1540.90, -1671.21, -1818.04, -1567.00, 0.000, 0.000, 0.000, 14:07:30.334
54, -1379.43, -1502.20, -1701.76, -1467.34, 0.000, 0.000, 0.000, 14:07:30.334
55, -1882.23, -2047.17, -2151.04, -1829.35, 0.000, 0.000, 0.000, 14:07:30.349
56, -1914.04, -2067.40, -2136.75, -1838.29, 0.000, 0.000, 0.000, 14:07:30.349
57, -1546.17, -1677.40, -1817.21, -1578.37, 0.000, 0.000, 0.000, 14:07:30.364
58, -1376.98, -1524.37, -1704.46, -1470.01, 0.000, 0.000, 0.000, 14:07:30.364
59, -1898.34, -2068.78, -2159.68, -1831.90, 0.000, 0.000, 0.000, 14:07:30.364
60, -1914.87, -2071.63, -2140.85, -1837.89, 0.000, 0.000, 0.000, 14:07:30.364
61, -1541.19, -1673.19, -1812.37, -1583.83, 0.000, 0.000, 0.000, 14:07:30.379
62, -1372.14, -1499.74, -1696.67, -1470.09, 0.000, 0.000, 0.000, 14:07:30.379
63, -1895.74, -2069.03, -2169.66, -1827.88, 0.000, 0.000, 0.000, 14:07:30.394
64, -1901.87, -2064.72, -2131.35, -1836.46, 0.000, 0.000, 0.000, 14:07:30.394
65, -1542.71, -1660.29, -1807.19, -1574.21, 0.000, 0.000, 0.000, 14:07:30.394
66, -1372.12, -1508.65, -1701.40, -1469.66, 0.000, 0.000, 0.000, 14:07:30.395
67, -1896.74, -2063.67, -2153.82, -1829.99, 0.000, 0.000, 0.000, 14:07:30.409
68, -1905.92, -2062.48, -2130.15, -1830.78, 0.000, 0.000, 0.000, 14:07:30.409
69, -1528.20, -1650.11, -1802.69, -1576.72, 0.000, 0.000, 0.000, 14:07:30.424
70, -1380.06, -1511.82, -1698.41, -1468.42, 0.000, 0.000, 0.000, 14:07:30.424
71, -1904.95, -2069.93, -2171.33, -1830.04, 0.000, 0.000, 0.000, 14:07:30.425
72, -1913.54, -2071.70, -2140.33, -1829.90, 0.000, 0.000, 0.000, 14:07:30.425
73, -1534.30, -1656.77, -1809.43, -1575.17, 0.000, 0.000, 0.000, 14:07:30.440
74, -1381.63, -1529.21, -1704.47, -1474.67, 0.000, 0.000, 0.000, 14:07:30.440
75, -1903.62, -2079.22, -2170.89, -1826.02, 0.000, 0.000, 0.000, 14:07:30.453
76, -1914.77, -2064.64, -2140.11, -1830.10, 0.000, 0.000, 0.000, 14:07:30.454
77, -1541.19, -1671.69, -1811.93, -1576.42, 0.000, 0.000, 0.000, 14:07:30.454
78, -1391.44, -1520.97, -1720.28, -1476.87, 0.000, 0.000, 0.000, 14:07:30.454
79, -1900.01, -2062.65, -2165.70, -1829.44, 0.000, 0.000, 0.000, 14:07:30.484
80, -1916.87, -2062.23, -2136.04, -1834.33, 0.000, 0.000, 0.000, 14:07:30.484
81, -1539.76, -1656.76, -1806.14, -1574.93, 0.000, 0.000, 0.000, 14:07:30.484
82, -1390.06, -1510.05, -1710.37, -1478.50, 0.000, 0.000, 0.000, 14:07:30.485
83, -1898.31, -2067.24, -2164.30, -1826.44, 0.000, 0.000, 0.000, 14:07:30.485
84, -1906.20, -2077.68, -2140.95, -1837.78, 0.000, 0.000, 0.000, 14:07:30.485
85, -1532.30, -1665.37, -1808.48, -1578.70, 0.000, 0.000, 0.000, 14:07:30.499
86, -1381.91, -1506.81, -1701.84, -1473.97, 0.000, 0.000, 0.000, 14:07:30.499
87, -1896.79, -2064.83, -2159.77, -1828.36, 0.000, 0.000, 0.000, 14:07:30.514
88, -1917.36, -2065.84, -2132.20, -1835.24, 0.000, 0.000, 0.000, 14:07:30.514
89, -1541.72, -1655.25, -1809.53, -1579.43, 0.000, 0.000, 0.000, 14:07:30.514
90, -1381.04, -1508.24, -1709.81, -1471.30, 0.000, 0.000, 0.000, 14:07:30.514
91, -1902.46, -2065.78, -2153.26, -1827.23, 0.000, 0.000, 0.000, 14:07:30.545
92, -1908.56, -2076.91, -2127.60, -1830.85, 0.000, 0.000, 0.000, 14:07:30.545
93, -1537.67, -1662.69, -1797.11, -1573.63, 0.000, 0.000, 0.000, 14:07:30.545
94, -1389.66, -1515.91, -1690.44, -1472.23, 0.000, 0.000, 0.000, 14:07:30.545
95, -1906.28, -2072.68, -2155.46, -1828.24, 0.000, 0.000, 0.000, 14:07:30.546
96, -1909.30, -2062.39, -2150.73, -1832.12, 0.000, 0.000, 0.000, 14:07:30.546
97, -1531.73, -1661.05, -1800.23, -1576.78, 0.000, 0.000, 0.000, 14:07:30.559
98, -1393.65, -1521.63, -1719.58, -1476.59, 0.000, 0.000, 0.000, 14:07:30.559
99, -1909.73, -2085.03, -2182.28, -1833.64, 0.000, 0.000, 0.000, 14:07:30.574
100, -1900.44, -2062.53, -2123.32, -1832.86, 0.000, 0.000, 0.000, 14:07:30.575
101, -1531.65, -1659.68, -1800.38, -1575.96, 0.000, 0.000, 0.000, 14:07:30.575
102, -1385.17, -1510.49, -1715.02, -1476.66, 0.000, 0.000, 0.000, 14:07:30.575
103, -1901.24, -2071.71, -2168.09, -1830.57, 0.000, 0.000, 0.000, 14:07:30.588
104, -1915.94, -2063.17, -2130.58, -1833.14, 0.000, 0.000, 0.000, 14:07:30.589
105, -1538.57, -1671.22, -1811.13, -1572.10, 0.000, 0.000, 0.000, 14:07:30.604
106, -1391.69, -1527.69, -1729.48, -1482.87, 0.000, 0.000, 0.000, 14:07:30.604
107, -1904.33, -2068.95, -2165.27, -1837.92, 0.000, 0.000, 0.000, 14:07:30.604
108, -1913.53, -2073.31, -2151.48, -1832.51, 0.000, 0.000, 0.000, 14:07:30.604
109, -1531.01, -1658.19, -1811.19, -1578.15, 0.000, 0.000, 0.000, 14:07:30.619
110, -1375.75, -1502.37, -1710.65, -1470.35, 0.000, 0.000, 0.000, 14:07:30.619
111, -1899.38, -2059.11, -2162.08, -1825.32, 0.000, 0.000, 0.000, 14:07:30.634
112, -1908.24, -2055.18, -2135.62, -1828.12, 0.000, 0.000, 0.000, 14:07:30.634
113, -1534.41, -1652.24, -1802.02, -1569.54, 0.000, 0.000, 0.000, 14:07:30.635
114, -1381.14, -1508.01, -1707.07, -1479.49, 0.000, 0.000, 0.000, 14:07:30.635
115, -1905.60, -2066.07, -2157.90, -1826.59, 0.000, 0.000, 0.000, 14:07:30.655
116, -1900.58, -2048.82, -2121.38, -1827.71, 0.000, 0.000, 0.000, 14:07:30.656
117, -1522.81, -1639.66, -1806.50, -1565.55, 0.000, 0.000, 0.000, 14:07:30.664
118, -1390.39, -1517.74, -1707.67, -1476.15, 0.000, 0.000, 0.000, 14:07:30.664
119, -1907.09, -2070.69, -2181.97, -1824.24, 0.000, 0.000, 0.000, 14:07:30.665
120, -1914.01, -2055.95, -2122.40, -1823.61, 0.000, 0.000, 0.000, 14:07:30.665
121, -1525.86, -1651.75, -1794.38, -1569.56, 0.000, 0.000, 0.000, 14:07:30.680
122, -1389.53, -1509.77, -1721.48, -1482.46, 0.000, 0.000, 0.000, 14:07:30.680
123, -1899.51, -2067.46, -2156.13, -1824.31, 0.000, 0.000, 0.000, 14:07:30.694
124, -1899.93, -2058.52, -2121.31, -1825.33, 0.000, 0.000, 0.000, 14:07:30.694
125, -1517.95, -1650.36, -1784.70, -1564.80, 0.000, 0.000, 0.000, 14:07:30.694
126, -1377.84, -1510.89, -1714.67, -1476.50, 0.000, 0.000, 0.000, 14:07:30.694
127, -1902.88, -2063.08, -2177.42, -1826.20, 0.000, 0.000, 0.000, 14:07:30.710
128, -1901.13, -2046.77, -2121.16, -1823.98, 0.000, 0.000, 0.000, 14:07:30.710
129, -1526.32, -1649.29, -1794.80, -1565.22, 0.000, 0.000, 0.000, 14:07:30.724
130, -1387.13, -1509.11, -1704.28, -1477.20, 0.000, 0.000, 0.000, 14:07:30.725
131, -1909.24, -2071.13, -2158.53, -1838.53, 0.000, 0.000, 0.000, 14:07:30.725
132, -1904.55, -2052.27, -2122.97, -1826.73, 0.000, 0.000, 0.000, 14:07:30.725
133, -1529.77, -1656.28, -1809.61, -1572.86, 0.000, 0.000, 0.000, 14:07:30.739
134, -1397.03, -1520.78, -1710.48, -1486.73, 0.000, 0.000, 0.000, 14:07:30.739
135, -1912.56, -2084.77, -2161.50, -1846.36, 0.000, 0.000, 0.000, 14:07:30.754
136, -1908.08, -2052.94, -2149.00, -1832.73, 0.000, 0.000, 0.000, 14:07:30.754
137, -1532.23, -1657.83, -1814.71, -1570.67, 0.000, 0.000, 0.000, 14:07:30.768
138, -1388.85, -1522.03, -1717.74, -1480.80, 0.000, 0.000, 0.000, 14:07:30.769
139, -1906.79, -2077.79, -2168.60, -1837.87, 0.000, 0.000, 0.000, 14:07:30.769
140, -1905.88, -2051.81, -2120.08, -1829.87, 0.000, 0.000, 0.000, 14:07:30.769
141, -1517.50, -1651.72, -1801.45, -1567.01, 0.000, 0.000, 0.000, 14:07:30.783
142, -1381.18, -1521.77, -1711.16, -1481.99, 0.000, 0.000, 0.000, 14:07:30.783
143, -1898.27, -2085.71, -2162.97, -1836.34, 0.000, 0.000, 0.000, 14:07:30.784
144, -1890.01, -2075.20, -2132.73, -1835.20, 0.000, 0.000, 0.000, 14:07:30.784
145, -1509.20, -1670.92, -1792.92, -1561.54, 0.000, 0.000, 0.000, 14:07:30.799
146, -1360.57, -1560.39, -1718.22, -1475.43, 0.000, 0.000, 0.000, 14:07:30.799
147, -1874.48, -2099.76, -2175.54, -1829.14, 0.000, 0.000, 0.000, 14:07:30.814
148, -1858.11, -2114.29, -2128.91, -1823.05, 0.000, 0.000, 0.000, 14:07:30.815
149, -1459.06, -1662.33, -1793.69, -1568.35, 0.000, 0.000, 0.000, 14:07:30.815
150, -1289.75, -1568.49, -1713.71, -1475.46, 0.000, 0.000, 0.000, 14:07:30.815
151, -1784.17, -2153.41, -2164.16, -1826.44, 0.000, 0.000, 0.000, 14:07:30.829
152, -1757.94, -2132.65, -2123.48, -1807.71, 0.000, 0.000, 0.000, 14:07:30.829
153, -1320.20, -1730.40, -1780.66, -1544.43, 0.000, 0.000, 0.000, 14:07:30.844
154, -1142.62, -1617.92, -1704.69, -1466.94, 0.000, 0.000, 0.000, 14:07:30.844
155, -1614.14, -2201.31, -2154.39, -1817.28, 0.000, 0.000, 0.000, 14:07:30.844
156, -1592.21, -2197.12, -2122.29, -1800.82, 0.000, 0.000, 0.000, 14:07:30.845
157, -1205.95, -1802.28, -1783.00, -1538.44, 0.000, 0.000, 0.000, 14:07:30.859
158, -1080.92, -1664.74, -1717.38, -1463.68, 0.000, 0.000, 0.000, 14:07:30.859
159, -1610.96, -2222.69, -2171.37, -1822.18, 0.000, 0.000, 0.000, 14:07:30.874
160, -1618.53, -2213.43, -2126.16, -1807.79, 0.000, 0.000, 0.000, 14:07:30.874
161, -1256.48, -1785.73, -1784.98, -1537.64, 0.000, 0.000, 0.000, 14:07:30.875
162, -1144.41, -1668.23, -1714.55, -1453.28, 0.000, 0.000, 0.000, 14:07:30.875
163, -1676.23, -2217.36, -2172.50, -1810.76, 0.000, 0.000, 0.000, 14:07:30.889
164, -1685.34, -2182.04, -2122.57, -1806.35, 0.000, 0.000, 0.000, 14:07:30.889
165, -1325.99, -1760.77, -1786.65, -1546.72, 0.000, 0.000, 0.000, 14:07:30.903
166, -1229.55, -1630.76, -1723.83, -1473.44, 0.000, 0.000, 0.000, 14:07:30.904
167, -1776.36, -2177.96, -2179.05, -1826.45, 0.000, 0.000, 0.000, 14:07:30.904
168, -1779.19, -2133.26, -2128.86, -1817.25, 0.000, 0.000, 0.000, 14:07:30.904
169, -1429.93, -1700.24, -1786.23, -1558.25, 0.000, 0.000, 0.000, 14:07:30.919
170, -1336.17, -1575.27, -1723.58, -1483.75, 0.000, 0.000, 0.000, 14:07:30.919
171, -1877.55, -2114.86, -2168.98, -1839.60, 0.000, 0.000, 0.000, 14:07:30.933
172, -1900.98, -2073.17, -2133.76, -1829.22, 0.000, 0.000, 0.000, 14:07:30.933
173, -1531.57, -1642.07, -1783.82, -1567.37, 0.000, 0.000, 0.000, 14:07:30.934
174, -1449.48, -1509.57, -1721.04, -1485.97, 0.000, 0.000, 0.000, 14:07:30.934
175, -1981.30, -2043.20, -2173.46, -1846.26, 0.000, 0.000, 0.000, 14:07:30.949
176, -2007.61, -1999.62, -2120.79, -1834.95, 0.000, 0.000, 0.000, 14:07:30.949
177, -1634.89, -1576.60, -1793.96, -1573.94, 0.000, 0.000, 0.000, 14:07:30.964
178, -1531.63, -1451.28, -1727.32, -1490.29, 0.000, 0.000, 0.000, 14:07:30.964
179, -2081.42, -2005.58, -2178.86, -1854.69, 0.000, 0.000, 0.000, 14:07:30.965
180, -2066.79, -1952.68, -2133.63, -1841.63, 0.000, 0.000, 0.000, 14:07:30.965
181, -1693.55, -1546.57, -1801.06, -1581.80, 0.000, 0.000, 0.000, 14:07:30.979
182, -1580.49, -1436.03, -1738.86, -1510.40, 0.000, 0.000, 0.000, 14:07:30.979
183, -2097.69, -1993.36, -2170.58, -1858.18, 0.000, 0.000, 0.000, 14:07:30.994
184, -2079.03, -1959.21, -2134.67, -1838.99, 0.000, 0.000, 0.000, 14:07:30.994
185, -1691.43, -1544.68, -1792.95, -1577.38, 0.000, 0.000, 0.000, 14:07:30.995
186, -1567.22, -1439.78, -1727.55, -1499.43, 0.000, 0.000, 0.000, 14:07:30.995
187, -2085.21, -1994.33, -2177.22, -1857.22, 0.000, 0.000, 0.000, 14:07:31.009
188, -2059.13, -1959.93, -2120.41, -1838.15, 0.000, 0.000, 0.000, 14:07:31.009
189, -1667.03, -1553.46, -1783.33, -1570.92, 0.000, 0.000, 0.000, 14:07:31.025
190, -1548.66, -1435.67, -1730.52, -1499.04, 0.000, 0.000, 0.000, 14:07:31.025
191, -2058.55, -2004.52, -2180.55, -1852.95, 0.000, 0.000, 0.000, 14:07:31.025
192, -2039.80, -1979.39, -2111.49, -1837.57, 0.000, 0.000, 0.000, 14:07:31.025
193, -1650.90, -1565.77, -1787.21, -1572.22, 0.000, 0.000, 0.000, 14:07:31.038
194, -1522.26, -1454.55, -1727.40, -1492.72, 0.000, 0.000, 0.000, 14:07:31.038
195, -2037.43, -2028.77, -2179.16, -1852.65, 0.000, 0.000, 0.000, 14:07:31.053
196, -2010.52, -1979.38, -2129.74, -1832.83, 0.000, 0.000, 0.000, 14:07:31.054
197, -1621.28, -1573.96, -1792.90, -1567.69, 0.000, 0.000, 0.000, 14:07:31.054
198, -1506.84, -1486.14, -1733.66, -1498.71, 0.000, 0.000, 0.000, 14:07:31.054
199, -2013.76, -2037.24, -2185.65, -1853.41, 0.000, 0.000, 0.000, 14:07:31.083
200, -1984.53, -2001.90, -2124.56, -1829.04, 0.000, 0.000, 0.000, 14:07:31.083
0, -1600.79, -1605.08, -1791.38, -1564.35, 0.000, 0.000, 0.000, 14:07:31.084
1, -1477.05, -1493.19, -1725.38, -1496.26, 0.000, 0.000, 0.000, 14:07:31.085
2, -1984.41, -2040.24, -2178.08, -1848.60, 0.000, 0.000, 0.000, 14:07:31.085
3, -1958.71, -2010.45, -2117.31, -1823.38, 0.000, 0.000, 0.000, 14:07:31.098
4, -1568.19, -1594.07, -1779.39, -1561.70, 0.000, 0.000, 0.000, 14:07:31.098
5, -1451.04, -1494.25, -1726.58, -1493.93, 0.000, 0.000, 0.000, 14:07:31.100
6, -1967.02, -2053.70, -2186.27, -1843.71, 0.000, 0.000, 0.000, 14:07:31.100
7, -1944.15, -2024.35, -2127.35, -1823.35, 0.000, 0.000, 0.000, 14:07:31.114
8, -1552.32, -1614.73, -1783.78, -1560.21, 0.000, 0.000, 0.000, 14:07:31.114
9, -1443.69, -1500.26, -1725.25, -1488.49, 0.000, 0.000, 0.000, 14:07:31.129
10, -1952.51, -2057.77, -2181.32, -1844.07, 0.000, 0.000, 0.000, 14:07:31.129
11, -1927.06, -2028.00, -2125.53, -1826.03, 0.000, 0.000, 0.000, 14:07:31.129
12, -1542.85, -1617.91, -1779.36, -1559.34, 0.000, 0.000, 0.000, 14:07:31.129
13, -1429.32, -1519.53, -1732.13, -1489.58, 0.000, 0.000, 0.000, 14:07:31.144
14, -1947.88, -2075.42, -2185.70, -1843.12, 0.000, 0.000, 0.000, 14:07:31.145
15, -1919.94, -2028.56, -2105.28, -1823.75, 0.000, 0.000, 0.000, 14:07:31.160
16, -1537.91, -1618.79, -1788.19, -1557.84, 0.000, 0.000, 0.000, 14:07:31.160
17, -1423.45, -1524.80, -1721.71, -1487.85, 0.000, 0.000, 0.000, 14:07:31.160
18, -1946.30, -2080.54, -2194.87, -1844.80, 0.000, 0.000, 0.000, 14:07:31.160
19, -1908.85, -2033.42, -2120.85, -1820.87, 0.000, 0.000, 0.000, 14:07:31.174
20, -1526.11, -1614.38, -1781.06, -1562.31, 0.000, 0.000, 0.000, 14:07:31.175
21, -1425.64, -1531.09, -1726.91, -1484.86, 0.000, 0.000, 0.000, 14:07:31.189
22, -1934.44, -2074.78, -2170.01, -1843.46, 0.000, 0.000, 0.000, 14:07:31.190
23, -1906.55, -2025.38, -2104.37, -1820.18, 0.000, 0.000, 0.000, 14:07:31.190
24, -1528.81, -1623.18, -1777.19, -1553.66, 0.000, 0.000, 0.000, 14:07:31.190
25, -1419.86, -1523.54, -1725.73, -1492.04, 0.000, 0.000, 0.000, 14:07:31.204
26, -1941.95, -2085.44, -2186.49, -1851.31, 0.000, 0.000, 0.000, 14:07:31.204
27, -1908.77, -2030.89, -2121.49, -1817.63, 0.000, 0.000, 0.000, 14:07:31.218
28, -1521.55, -1619.54, -1787.65, -1553.92, 0.000, 0.000, 0.000, 14:07:31.218
29, -1408.19, -1527.44, -1724.46, -1491.08, 0.000, 0.000, 0.000, 14:07:31.219
30, -1935.53, -2084.27, -2178.10, -1844.64, 0.000, 0.000, 0.000, 14:07:31.219
31, -1899.20, -2044.61, -2121.22, -1820.92, 0.000, 0.000, 0.000, 14:07:31.234
32, -1522.10, -1624.96, -1775.50, -1548.43, 0.000, 0.000, 0.000, 14:07:31.234
33, -1414.41, -1527.28, -1732.65, -1488.23, 0.000, 0.000, 0.000, 14:07:31.248
34, -1934.59, -2097.46, -2189.75, -1847.65, 0.000, 0.000, 0.000, 14:07:31.248
35, -1907.14, -2043.09, -2117.22, -1820.75, 0.000, 0.000, 0.000, 14:07:31.249
36, -1516.75, -1622.38, -1777.15, -1558.49, 0.000, 0.000, 0.000, 14:07:31.249
37, -1413.30, -1531.99, -1723.73, -1486.29, 0.000, 0.000, 0.000, 14:07:31.279
38, -1930.43, -2082.88, -2188.45, -1846.30, 0.000, 0.000, 0.000, 14:07:31.279
39, -1896.08, -2043.13, -2117.96, -1817.70, 0.000, 0.000, 0.000, 14:07:31.294
40, -1511.01, -1624.28, -1781.81, -1554.78, 0.000, 0.000, 0.000, 14:07:31.294
41, -1414.38, -1528.73, -1727.56, -1485.53, 0.000, 0.000, 0.000, 14:07:31.294
42, -1920.29, -2074.70, -2178.62, -1840.91, 0.000, 0.000, 0.000, 14:07:31.295
43, -1888.42, -2040.37, -2105.40, -1817.95, 0.000, 0.000, 0.000, 14:07:31.296
44, -1515.95, -1624.37, -1782.51, -1552.63, 0.000, 0.000, 0.000, 14:07:31.296
45, -1408.50, -1540.66, -1741.80, -1493.87, 0.000, 0.000, 0.000, 14:07:31.296
46, -1931.09, -2084.63, -2181.05, -1846.05, 0.000, 0.000, 0.000, 14:07:31.296
47, -1893.28, -2032.76, -2125.97, -1818.91, 0.000, 0.000, 0.000, 14:07:31.309
48, -1504.52, -1620.85, -1781.59, -1547.42, 0.000, 0.000, 0.000, 14:07:31.309
49, -1414.70, -1526.92, -1729.61, -1487.23, 0.000, 0.000, 0.000, 14:07:31.324
50, -1919.56, -2081.75, -2168.64, -1844.62, 0.000, 0.000, 0.000, 14:07:31.324
51, -1892.72, -2036.51, -2121.39, -1821.59, 0.000, 0.000, 0.000, 14:07:31.339
52, -1504.74, -1607.71, -1784.73, -1550.80, 0.000, 0.000, 0.000, 14:07:31.340
53, -1403.24, -1521.19, -1734.93, -1493.15, 0.000, 0.000, 0.000, 14:07:31.340
54, -1928.57, -2087.00, -2172.60, -1849.79, 0.000, 0.000, 0.000, 14:07:31.340
55, -1898.38, -2035.31, -2104.95, -1821.51, 0.000, 0.000, 0.000, 14:07:31.354
56, -1514.13, -1622.25, -1784.03, -1556.87, 0.000, 0.000, 0.000, 14:07:31.354
57, -1416.71, -1528.78, -1723.03, -1497.73, 0.000, 0.000, 0.000, 14:07:31.369
58, -1930.21, -2093.24, -2193.95, -1849.66, 0.000, 0.000, 0.000, 14:07:31.369
59, -1897.73, -2048.47, -2114.69, -1815.92, 0.000, 0.000, 0.000, 14:07:31.370
60, -1503.19, -1614.53, -1771.80, -1550.64, 0.000, 0.000, 0.000, 14:07:31.370
61, -1413.92, -1528.12, -1727.93, -1493.92, 0.000, 0.000, 0.000, 14:07:31.384
62, -1922.03, -2070.45, -2181.73, -1854.45, 0.000, 0.000, 0.000, 14:07:31.384
63, -1897.54, -2034.69, -2120.60, -1816.08, 0.000, 0.000, 0.000, 14:07:31.399
64, -1506.29, -1619.74, -1777.08, -1551.55, 0.000, 0.000, 0.000, 14:07:31.399
65, -1420.60, -1550.36, -1749.18, -1494.21, 0.000, 0.000, 0.000, 14:07:31.399
66, -1933.70, -2096.48, -2202.07, -1851.56, 0.000, 0.000, 0.000, 14:07:31.399
67, -1893.33, -2041.89, -2126.99, -1821.85, 0.000, 0.000, 0.000, 14:07:31.414
68, -1501.87, -1627.26, -1776.66, -1554.94, 0.000, 0.000, 0.000, 14:07:31.414
69, -1417.78, -1556.52, -1748.36, -1500.29, 0.000, 0.000, 0.000, 14:07:31.429
70, -1926.43, -2091.06, -2182.01, -1848.67, 0.000, 0.000, 0.000, 14:07:31.429
71, -1886.24, -2026.10, -2129.44, -1817.67, 0.000, 0.000, 0.000, 14:07:31.429
72, -1490.31, -1610.55, -1767.54, -1545.30, 0.000, 0.000, 0.000, 14:07:31.429
73, -1413.59, -1530.17, -1739.33, -1494.55, 0.000, 0.000, 0.000, 14:07:31.444
74, -1923.62, -2093.38, -2180.47, -1848.63, 0.000, 0.000, 0.000, 14:07:31.444
75, -1893.72, -2029.61, -2121.66, -1820.22, 0.000, 0.000, 0.000, 14:07:31.460
76, -1505.01, -1610.29, -1767.98, -1547.58, 0.000, 0.000, 0.000, 14:07:31.460
77, -1416.11, -1531.69, -1731.47, -1492.52, 0.000, 0.000, 0.000, 14:07:31.460
78, -1925.40, -2090.73, -2191.89, -1848.48, 0.000, 0.000, 0.000, 14:07:31.460
79, -1883.07, -2027.30, -2122.37, -1816.66, 0.000, 0.000, 0.000, 14:07:31.474
80, -1495.83, -1618.19, -1782.14, -1553.37, 0.000, 0.000, 0.000, 14:07:31.474
81, -1418.30, -1537.44, -1748.77, -1498.10, 0.000, 0.000, 0.000, 14:07:31.489
82, -1931.32, -2084.47, -2187.04, -1852.68, 0.000, 0.000, 0.000, 14:07:31.489
83, -1884.59, -2030.40, -2113.08, -1815.89, 0.000, 0.000, 0.000, 14:07:31.496
84, -1495.31, -1611.26, -1774.64, -1551.56, 0.000, 0.000, 0.000, 14:07:31.496
85, -1411.50, -1537.85, -1746.23, -1500.12, 0.000, 0.000, 0.000, 14:07:31.504
86, -1938.45, -2093.30, -2197.02, -1848.26, 0.000, 0.000, 0.000, 14:07:31.504
87, -1897.80, -2045.39, -2119.27, -1815.78, 0.000, 0.000, 0.000, 14:07:31.519
88, -1495.46, -1612.37, -1776.15, -1554.14, 0.000, 0.000, 0.000, 14:07:31.519
89, -1417.61, -1537.96, -1743.37, -1498.84, 0.000, 0.000, 0.000, 14:07:31.520
90, -1929.55, -2094.17, -2198.40, -1849.98, 0.000, 0.000, 0.000, 14:07:31.520
91, -1887.91, -2031.96, -2108.21, -1816.43, 0.000, 0.000, 0.000, 14:07:31.534
92, -1500.05, -1619.26, -1776.42, -1545.18, 0.000, 0.000, 0.000, 14:07:31.534
93, -1414.55, -1541.12, -1744.17, -1498.69, 0.000, 0.000, 0.000, 14:07:31.548
94, -1936.49, -2093.70, -2192.10, -1855.62, 0.000, 0.000, 0.000, 14:07:31.548
95, -1882.67, -2030.85, -2113.91, -1818.74, 0.000, 0.000, 0.000, 14:07:31.563
96, -1503.11, -1613.12, -1771.85, -1547.36, 0.000, 0.000, 0.000, 14:07:31.563
97, -1424.08, -1545.04, -1748.03, -1496.13, 0.000, 0.000, 0.000, 14:07:31.564
98, -1935.99, -2095.55, -2189.62, -1856.28, 0.000, 0.000, 0.000, 14:07:31.564
99, -1885.81, -2022.69, -2121.22, -1814.44, 0.000, 0.000, 0.000, 14:07:31.579
100, -1501.16, -1610.84, -1778.62, -1545.30, 0.000, 0.000, 0.000, 14:07:31.579
