%OpenBCI Raw EEG Data
%
%Sample Rate = 200.0 Hz
%First Column = SampleIndex
%Last Column = Timestamp 
%Other Columns = EEG data in microvolts followed by Accel Data (in G) interleaved with Aux Data
0, -1925.67, -1985.16, -1986.38, -1724.70, 0.000, 0.000, 0.000, 14:05:45.228
1, -1547.45, -1626.02, -1638.85, -1468.26, 0.000, 0.000, 0.000, 14:05:45.242
2, -1300.17, -1380.03, -1509.20, -1309.51, 0.000, 0.000, 0.000, 14:05:45.242
3, -1846.30, -1960.97, -1973.69, -1675.69, 0.000, 0.000, 0.000, 14:05:45.257
4, -1927.92, -2033.20, -1989.48, -1717.33, 0.000, 0.000, 0.000, 14:05:45.257
5, -1543.20, -1630.62, -1656.63, -1462.42, 0.000, 0.000, 0.000, 14:05:45.257
6, -1301.07, -1370.92, -1490.17, -1305.21, 0.000, 0.000, 0.000, 14:05:45.258
7, -1841.68, -1964.28, -1958.34, -1676.66, 0.000, 0.000, 0.000, 14:05:45.288
8, -1927.32, -2021.06, -1992.93, -1725.80, 0.000, 0.000, 0.000, 14:05:45.288
9, -1547.17, -1631.25, -1633.32, -1463.74, 0.000, 0.000, 0.000, 14:05:45.288
10, -1299.56, -1383.20, -1499.02, -1302.94, 0.000, 0.000, 0.000, 14:05:45.288
11, -1828.50, -1969.65, -1947.24, -1674.27, 0.000, 0.000, 0.000, 14:05:45.289
12, -1916.47, -2043.20, -1974.73, -1722.68, 0.000, 0.000, 0.000, 14:05:45.289
13, -1529.00, -1635.92, -1652.32, -1453.73, 0.000, 0.000, 0.000, 14:05:45.303
14, -1282.58, -1369.79, -1498.25, -1302.32, 0.000, 0.000, 0.000, 14:05:45.303
15, -1833.69, -1987.65, -1973.21, -1674.39, 0.000, 0.000, 0.000, 14:05:45.317
16, -1902.82, -2022.55, -1978.83, -1714.53, 0.000, 0.000, 0.000, 14:05:45.317
17, -1521.31, -1626.06, -1638.12, -1456.78, 0.000, 0.000, 0.000, 14:05:45.318
18, -1279.44, -1395.58, -1500.13, -1303.04, 0.000, 0.000, 0.000, 14:05:45.318
19, -1822.27, -1973.84, -1951.60, -1670.92, 0.000, 0.000, 0.000, 14:05:45.333
20, -1908.79, -2055.48, -1981.00, -1714.46, 0.000, 0.000, 0.000, 14:05:45.333
21, -1517.23, -1635.30, -1641.11, -1451.09, 0.000, 0.000, 0.000, 14:05:45.347
22, -1279.43, -1399.18, -1498.92, -1300.38, 0.000, 0.000, 0.000, 14:05:45.347
23, -1812.85, -1978.37, -1965.31, -1666.38, 0.000, 0.000, 0.000, 14:05:45.348
24, -1895.41, -2041.53, -1975.36, -1712.50, 0.000, 0.000, 0.000, 14:05:45.348
25, -1506.37, -1630.65, -1654.30, -1446.75, 0.000, 0.000, 0.000, 14:05:45.362
26, -1269.00, -1383.30, -1494.48, -1297.68, 0.000, 0.000, 0.000, 14:05:45.362
27, -1822.19, -1984.30, -1951.36, -1666.36, 0.000, 0.000, 0.000, 14:05:45.378
28, -1898.54, -2043.90, -1984.52, -1714.11, 0.000, 0.000, 0.000, 14:05:45.378
29, -1506.25, -1625.40, -1645.92, -1450.86, 0.000, 0.000, 0.000, 14:05:45.378
30, -1270.03, -1387.77, -1478.54, -1301.34, 0.000, 0.000, 0.000, 14:05:45.378
31, -1806.75, -1952.90, -1956.49, -1668.43, 0.000, 0.000, 0.000, 14:05:45.399
32, -1890.08, -2050.19, -1974.52, -1709.71, 0.000, 0.000, 0.000, 14:05:45.399
33, -1510.83, -1640.94, -1636.66, -1452.02, 0.000, 0.000, 0.000, 14:05:45.407
34, -1270.66, -1380.17, -1486.41, -1304.07, 0.000, 0.000, 0.000, 14:05:45.407
35, -1819.34, -1977.04, -1951.55, -1673.40, 0.000, 0.000, 0.000, 14:05:45.408
36, -1900.19, -2032.90, -1964.74, -1714.57, 0.000, 0.000, 0.000, 14:05:45.408
37, -1507.89, -1609.60, -1644.64, -1447.69, 0.000, 0.000, 0.000, 14:05:45.424
38, -1277.48, -1401.67, -1491.77, -1301.67, 0.000, 0.000, 0.000, 14:05:45.424
39, -1817.57, -1986.82, -1949.52, -1672.71, 0.000, 0.000, 0.000, 14:05:45.438
40, -1903.91, -2021.53, -1970.74, -1714.60, 0.000, 0.000, 0.000, 14:05:45.438
41, -1518.86, -1616.73, -1638.49, -1448.97, 0.000, 0.000, 0.000, 14:05:45.452
42, -1279.99, -1386.45, -1491.14, -1299.45, 0.000, 0.000, 0.000, 14:05:45.453
43, -1822.81, -2004.40, -1961.09, -1671.79, 0.000, 0.000, 0.000, 14:05:45.453
44, -1909.37, -2037.30, -1971.93, -1714.56, 0.000, 0.000, 0.000, 14:05:45.453
45, -1509.73, -1613.56, -1652.22, -1448.33, 0.000, 0.000, 0.000, 14:05:45.467
46, -1287.38, -1391.41, -1499.17, -1297.84, 0.000, 0.000, 0.000, 14:05:45.467
47, -1836.74, -1965.09, -1966.68, -1679.94, 0.000, 0.000, 0.000, 14:05:45.468
48, -1912.55, -2041.48, -2005.25, -1711.19, 0.000, 0.000, 0.000, 14:05:45.468
49, -1503.36, -1622.34, -1635.10, -1448.04, 0.000, 0.000, 0.000, 14:05:45.482
50, -1282.03, -1381.89, -1493.59, -1301.07, 0.000, 0.000, 0.000, 14:05:45.482
51, -1832.65, -1963.94, -1950.16, -1674.99, 0.000, 0.000, 0.000, 14:05:45.498
52, -1900.31, -2022.83, -1962.14, -1707.66, 0.000, 0.000, 0.000, 14:05:45.499
53, -1517.09, -1622.90, -1630.04, -1441.99, 0.000, 0.000, 0.000, 14:05:45.499
54, -1289.49, -1385.84, -1503.18, -1299.38, 0.000, 0.000, 0.000, 14:05:45.499
55, -1839.84, -1968.48, -1960.24, -1676.43, 0.000, 0.000, 0.000, 14:05:45.513
56, -1910.03, -2022.79, -1970.54, -1706.70, 0.000, 0.000, 0.000, 14:05:45.513
57, -1506.42, -1622.17, -1664.11, -1437.16, 0.000, 0.000, 0.000, 14:05:45.527
58, -1283.31, -1402.46, -1468.50, -1297.46, 0.000, 0.000, 0.000, 14:05:45.527
59, -1830.30, -1976.39, -1967.52, -1673.18, 0.000, 0.000, 0.000, 14:05:45.528
60, -1898.16, -2033.59, -1963.63, -1708.47, 0.000, 0.000, 0.000, 14:05:45.528
61, -1509.86, -1609.40, -1636.50, -1438.83, 0.000, 0.000, 0.000, 14:05:45.542
62, -1285.42, -1387.05, -1468.12, -1298.06, 0.000, 0.000, 0.000, 14:05:45.542
63, -1845.39, -1990.49, -1962.59, -1681.13, 0.000, 0.000, 0.000, 14:05:45.557
64, -1891.28, -2026.15, -1942.54, -1703.21, 0.000, 0.000, 0.000, 14:05:45.557
65, -1496.31, -1609.67, -1631.10, -1437.98, 0.000, 0.000, 0.000, 14:05:45.558
66, -1285.75, -1391.99, -1486.17, -1304.74, 0.000, 0.000, 0.000, 14:05:45.558
67, -1839.94, -1969.10, -1979.89, -1683.21, 0.000, 0.000, 0.000, 14:05:45.573
68, -1900.99, -2062.87, -1989.55, -1714.08, 0.000, 0.000, 0.000, 14:05:45.573
69, -1502.91, -1637.55, -1650.92, -1444.80, 0.000, 0.000, 0.000, 14:05:45.587
70, -1287.41, -1407.83, -1507.44, -1311.35, 0.000, 0.000, 0.000, 14:05:45.587
71, -1845.09, -1993.26, -1984.64, -1687.16, 0.000, 0.000, 0.000, 14:05:45.588
72, -1896.88, -2008.37, -1977.26, -1701.24, 0.000, 0.000, 0.000, 14:05:45.588
73, -1492.81, -1587.57, -1623.19, -1433.27, 0.000, 0.000, 0.000, 14:05:45.603
74, -1288.15, -1397.13, -1504.83, -1299.84, 0.000, 0.000, 0.000, 14:05:45.603
75, -1845.49, -1987.56, -1985.66, -1677.15, 0.000, 0.000, 0.000, 14:05:45.618
76, -1892.88, -2042.28, -1981.26, -1709.27, 0.000, 0.000, 0.000, 14:05:45.618
77, -1508.36, -1615.75, -1638.96, -1436.59, 0.000, 0.000, 0.000, 14:05:45.618
78, -1291.92, -1393.01, -1505.66, -1301.66, 0.000, 0.000, 0.000, 14:05:45.618
79, -1847.54, -1959.99, -1977.04, -1674.23, 0.000, 0.000, 0.000, 14:05:45.633
80, -1899.93, -2013.00, -1951.48, -1701.51, 0.000, 0.000, 0.000, 14:05:45.633
81, -1495.84, -1589.12, -1606.15, -1435.16, 0.000, 0.000, 0.000, 14:05:45.648
82, -1282.26, -1389.15, -1486.65, -1301.40, 0.000, 0.000, 0.000, 14:05:45.648
83, -1842.55, -1990.06, -1976.22, -1688.42, 0.000, 0.000, 0.000, 14:05:45.648
84, -1894.48, -2039.66, -1972.27, -1709.82, 0.000, 0.000, 0.000, 14:05:45.648
85, -1487.09, -1575.47, -1620.44, -1433.90, 0.000, 0.000, 0.000, 14:05:45.662
86, -1275.13, -1375.30, -1487.77, -1302.01, 0.000, 0.000, 0.000, 14:05:45.663
87, -1842.05, -1992.33, -1979.44, -1681.43, 0.000, 0.000, 0.000, 14:05:45.678
88, -1889.54, -2011.80, -1961.76, -1704.91, 0.000, 0.000, 0.000, 14:05:45.678
89, -1486.34, -1589.49, -1623.65, -1430.05, 0.000, 0.000, 0.000, 14:05:45.692
90, -1279.84, -1394.98, -1497.77, -1303.98, 0.000, 0.000, 0.000, 14:05:45.692
91, -1842.69, -1994.12, -1971.62, -1680.91, 0.000, 0.000, 0.000, 14:05:45.693
92, -1890.82, -2023.81, -1968.82, -1704.89, 0.000, 0.000, 0.000, 14:05:45.693
93, -1489.15, -1595.57, -1647.13, -1436.65, 0.000, 0.000, 0.000, 14:05:45.707
94, -1282.11, -1400.83, -1504.92, -1308.17, 0.000, 0.000, 0.000, 14:05:45.707
95, -1845.93, -2002.44, -1972.93, -1685.64, 0.000, 0.000, 0.000, 14:05:45.708
96, -1898.74, -2029.33, -1957.54, -1712.38, 0.000, 0.000, 0.000, 14:05:45.708
97, -1492.98, -1616.66, -1628.91, -1440.60, 0.000, 0.000, 0.000, 14:05:45.737
98, -1290.56, -1403.71, -1499.31, -1312.36, 0.000, 0.000, 0.000, 14:05:45.737
99, -1856.79, -1991.80, -1972.30, -1690.36, 0.000, 0.000, 0.000, 14:05:45.738
100, -1897.46, -2036.55, -1976.28, -1710.92, 0.000, 0.000, 0.000, 14:05:45.738
101, -1495.59, -1587.40, -1637.60, -1434.99, 0.000, 0.000, 0.000, 14:05:45.739
102, -1292.36, -1385.04, -1470.76, -1310.44, 0.000, 0.000, 0.000, 14:05:45.740
103, -1856.54, -1987.81, -1967.72, -1693.23, 0.000, 0.000, 0.000, 14:05:45.753
104, -1906.11, -2022.51, -1984.49, -1707.97, 0.000, 0.000, 0.000, 14:05:45.754
105, -1492.91, -1589.66, -1628.96, -1431.80, 0.000, 0.000, 0.000, 14:05:45.768
106, -1286.13, -1380.04, -1500.35, -1306.60, 0.000, 0.000, 0.000, 14:05:45.768
107, -1846.93, -2012.85, -1969.02, -1687.03, 0.000, 0.000, 0.000, 14:05:45.768
108, -1906.92, -2000.61, -1965.08, -1706.60, 0.000, 0.000, 0.000, 14:05:45.769
109, -1489.51, -1590.74, -1622.78, -1432.41, 0.000, 0.000, 0.000, 14:05:45.783
110, -1292.31, -1398.42, -1509.25, -1306.75, 0.000, 0.000, 0.000, 14:05:45.783
111, -1854.70, -2016.07, -1994.03, -1687.82, 0.000, 0.000, 0.000, 14:05:45.797
112, -1904.18, -2033.23, -1977.27, -1706.10, 0.000, 0.000, 0.000, 14:05:45.798
113, -1495.14, -1593.75, -1640.05, -1432.64, 0.000, 0.000, 0.000, 14:05:45.798
114, -1299.10, -1406.00, -1503.24, -1306.49, 0.000, 0.000, 0.000, 14:05:45.798
115, -1858.79, -2007.07, -1981.14, -1689.93, 0.000, 0.000, 0.000, 14:05:45.812
116, -1900.01, -1999.11, -1957.65, -1708.28, 0.000, 0.000, 0.000, 14:05:45.812
117, -1501.52, -1590.45, -1624.04, -1434.14, 0.000, 0.000, 0.000, 14:05:45.843
118, -1288.83, -1398.66, -1499.51, -1306.81, 0.000, 0.000, 0.000, 14:05:45.843
119, -1861.16, -1994.12, -1966.25, -1695.85, 0.000, 0.000, 0.000, 14:05:45.843
120, -1896.34, -2027.32, -1964.69, -1709.00, 0.000, 0.000, 0.000, 14:05:45.843
121, -1484.38, -1592.41, -1626.84, -1433.25, 0.000, 0.000, 0.000, 14:05:45.844
122, -1298.25, -1374.66, -1498.97, -1312.89, 0.000, 0.000, 0.000, 14:05:45.844
123, -1855.02, -1989.16, -1942.71, -1697.08, 0.000, 0.000, 0.000, 14:05:45.845
124, -1887.30, -2035.92, -1950.80, -1704.47, 0.000, 0.000, 0.000, 14:05:45.845
125, -1482.80, -1560.99, -1623.83, -1426.91, 0.000, 0.000, 0.000, 14:05:45.858
126, -1294.09, -1421.01, -1503.03, -1306.17, 0.000, 0.000, 0.000, 14:05:45.858
127, -1866.88, -2005.81, -1973.80, -1695.36, 0.000, 0.000, 0.000, 14:05:45.873
128, -1894.58, -2036.68, -1970.27, -1708.02, 0.000, 0.000, 0.000, 14:05:45.874
129, -1484.59, -1581.63, -1624.93, -1422.05, 0.000, 0.000, 0.000, 14:05:45.888
130, -1291.56, -1391.26, -1512.06, -1304.39, 0.000, 0.000, 0.000, 14:05:45.888
131, -1864.76, -2018.51, -1989.33, -1687.14, 0.000, 0.000, 0.000, 14:05:45.889
132, -1889.49, -2014.74, -1953.93, -1702.84, 0.000, 0.000, 0.000, 14:05:45.889
133, -1493.93, -1582.87, -1650.06, -1430.79, 0.000, 0.000, 0.000, 14:05:45.902
134, -1308.10, -1404.99, -1486.41, -1311.12, 0.000, 0.000, 0.000, 14:05:45.904
135, -1872.57, -2007.40, -1989.32, -1697.91, 0.000, 0.000, 0.000, 14:05:45.918
136, -1888.32, -2015.30, -1970.11, -1700.47, 0.000, 0.000, 0.000, 14:05:45.918
137, -1484.81, -1607.42, -1628.95, -1427.38, 0.000, 0.000, 0.000, 14:05:45.918
138, -1295.81, -1388.02, -1515.79, -1309.24, 0.000, 0.000, 0.000, 14:05:45.919
139, -1865.71, -2018.67, -2003.68, -1691.77, 0.000, 0.000, 0.000, 14:05:45.932
140, -1889.19, -1999.90, -1959.97, -1696.57, 0.000, 0.000, 0.000, 14:05:45.932
141, -1476.55, -1543.13, -1590.31, -1425.52, 0.000, 0.000, 0.000, 14:05:45.947
142, -1294.69, -1404.02, -1495.51, -1312.56, 0.000, 0.000, 0.000, 14:05:45.947
143, -1864.42, -1962.83, -1994.22, -1692.90, 0.000, 0.000, 0.000, 14:05:45.948
144, -1883.96, -1990.08, -1967.72, -1701.79, 0.000, 0.000, 0.000, 14:05:45.948
145, -1482.41, -1570.11, -1615.97, -1429.61, 0.000, 0.000, 0.000, 14:05:45.970
146, -1299.43, -1400.66, -1499.27, -1313.98, 0.000, 0.000, 0.000, 14:05:45.970
147, -1855.88, -2030.26, -1958.99, -1694.18, 0.000, 0.000, 0.000, 14:05:45.978
148, -1896.18, -2033.63, -1962.47, -1710.31, 0.000, 0.000, 0.000, 14:05:45.978
149, -1476.58, -1600.69, -1614.34, -1430.10, 0.000, 0.000, 0.000, 14:05:45.979
150, -1301.59, -1422.73, -1516.07, -1317.99, 0.000, 0.000, 0.000, 14:05:45.979
151, -1867.15, -1962.97, -1990.65, -1692.79, 0.000, 0.000, 0.000, 14:05:46.007
152, -1882.54, -2013.07, -1948.64, -1700.36, 0.000, 0.000, 0.000, 14:05:46.007
153, -1471.00, -1579.56, -1612.04, -1417.54, 0.000, 0.000, 0.000, 14:05:46.008
154, -1296.66, -1421.96, -1520.39, -1309.47, 0.000, 0.000, 0.000, 14:05:46.008
155, -1861.08, -1974.15, -1933.22, -1693.49, 0.000, 0.000, 0.000, 14:05:46.008
156, -1884.75, -2011.53, -1955.04, -1700.15, 0.000, 0.000, 0.000, 14:05:46.008
157, -1472.42, -1588.61, -1619.48, -1425.72, 0.000, 0.000, 0.000, 14:05:46.023
158, -1292.42, -1394.61, -1517.18, -1311.94, 0.000, 0.000, 0.000, 14:05:46.023
159, -1870.15, -1998.43, -1998.00, -1695.46, 0.000, 0.000, 0.000, 14:05:46.037
160, -1886.99, -2049.85, -1985.35, -1704.35, 0.000, 0.000, 0.000, 14:05:46.037
161, -1479.92, -1552.15, -1594.26, -1428.74, 0.000, 0.000, 0.000, 14:05:46.038
162, -1292.54, -1401.92, -1504.49, -1315.58, 0.000, 0.000, 0.000, 14:05:46.038
163, -1862.71, -1967.07, -1989.80, -1699.49, 0.000, 0.000, 0.000, 14:05:46.053
164, -1883.00, -2033.19, -1953.78, -1703.68, 0.000, 0.000, 0.000, 14:05:46.053
165, -1464.37, -1587.32, -1616.36, -1422.42, 0.000, 0.000, 0.000, 14:05:46.068
166, -1302.61, -1391.36, -1517.05, -1315.37, 0.000, 0.000, 0.000, 14:05:46.068
167, -1875.47, -2038.71, -1975.22, -1700.41, 0.000, 0.000, 0.000, 14:05:46.069
168, -1895.56, -2014.90, -1965.38, -1707.88, 0.000, 0.000, 0.000, 14:05:46.069
169, -1473.46, -1564.14, -1604.73, -1425.26, 0.000, 0.000, 0.000, 14:05:46.082
170, -1302.89, -1431.54, -1522.98, -1316.70, 0.000, 0.000, 0.000, 14:05:46.082
171, -1863.65, -2018.47, -1974.47, -1693.71, 0.000, 0.000, 0.000, 14:05:46.112
172, -1885.24, -2012.70, -1943.34, -1701.27, 0.000, 0.000, 0.000, 14:05:46.112
173, -1474.58, -1577.69, -1624.36, -1422.87, 0.000, 0.000, 0.000, 14:05:46.113
174, -1301.03, -1416.86, -1507.76, -1317.19, 0.000, 0.000, 0.000, 14:05:46.113
175, -1878.44, -2027.42, -1998.88, -1701.68, 0.000, 0.000, 0.000, 14:05:46.114
176, -1885.04, -2013.07, -1946.11, -1700.72, 0.000, 0.000, 0.000, 14:05:46.114
177, -1468.14, -1571.60, -1612.87, -1427.54, 0.000, 0.000, 0.000, 14:05:46.115
178, -1308.63, -1406.58, -1497.91, -1320.47, 0.000, 0.000, 0.000, 14:05:46.115
179, -1881.12, -2026.89, -1990.53, -1708.13, 0.000, 0.000, 0.000, 14:05:46.127
180, -1896.00, -2027.45, -1956.58, -1700.62, 0.000, 0.000, 0.000, 14:05:46.127
181, -1474.47, -1565.67, -1614.80, -1420.14, 0.000, 0.000, 0.000, 14:05:46.142
182, -1300.26, -1411.93, -1506.42, -1319.85, 0.000, 0.000, 0.000, 14:05:46.142
183, -1873.14, -2017.78, -1992.02, -1697.05, 0.000, 0.000, 0.000, 14:05:46.157
184, -1883.98, -2011.93, -1952.82, -1700.15, 0.000, 0.000, 0.000, 14:05:46.157
185, -1479.35, -1571.61, -1629.51, -1419.54, 0.000, 0.000, 0.000, 14:05:46.172
186, -1312.39, -1426.89, -1527.46, -1319.37, 0.000, 0.000, 0.000, 14:05:46.172
187, -1871.70, -2018.91, -2012.53, -1701.61, 0.000, 0.000, 0.000, 14:05:46.188
188, -1890.88, -2002.33, -1945.03, -1697.32, 0.000, 0.000, 0.000, 14:05:46.188
189, -1466.76, -1570.06, -1604.25, -1417.76, 0.000, 0.000, 0.000, 14:05:46.189
190, -1306.44, -1414.44, -1504.43, -1317.33, 0.000, 0.000, 0.000, 14:05:46.189
191, -1884.74, -2014.08, -1998.60, -1703.94, 0.000, 0.000, 0.000, 14:05:46.189
192, -1885.98, -2009.27, -1953.08, -1698.00, 0.000, 0.000, 0.000, 14:05:46.190
193, -1472.14, -1571.45, -1596.48, -1422.44, 0.000, 0.000, 0.000, 14:05:46.204
194, -1311.46, -1409.66, -1509.36, -1317.64, 0.000, 0.000, 0.000, 14:05:46.204
195, -1875.55, -2033.41, -1997.15, -1704.28, 0.000, 0.000, 0.000, 14:05:46.233
196, -1884.40, -1998.46, -1964.78, -1704.74, 0.000, 0.000, 0.000, 14:05:46.233
197, -1467.01, -1567.28, -1609.76, -1422.43, 0.000, 0.000, 0.000, 14:05:46.233
198, -1302.90, -1422.93, -1506.26, -1319.22, 0.000, 0.000, 0.000, 14:05:46.233
199, -1868.39, -2019.71, -1977.29, -1700.26, 0.000, 0.000, 0.000, 14:05:46.234
200, -1875.05, -2005.14, -1964.83, -1699.27, 0.000, 0.000, 0.000, 14:05:46.234
0, -1457.42, -1550.31, -1606.15, -1416.82, 0.000, 0.000, 0.000, 14:05:46.235
1, -1313.15, -1428.92, -1525.45, -1325.07, 0.000, 0.000, 0.000, 14:05:46.247
2, -1881.49, -2013.09, -1975.14, -1703.29, 0.000, 0.000, 0.000, 14:05:46.247
3, -1874.81, -2011.33, -1943.30, -1694.36, 0.000, 0.000, 0.000, 14:05:46.262
4, -1460.95, -1537.79, -1604.00, -1413.84, 0.000, 0.000, 0.000, 14:05:46.262
5, -1309.60, -1424.27, -1522.92, -1318.84, 0.000, 0.000, 0.000, 14:05:46.263
6, -1882.53, -2004.40, -2002.95, -1701.88, 0.000, 0.000, 0.000, 14:05:46.263
7, -1885.55, -2020.69, -1967.45, -1695.54, 0.000, 0.000, 0.000, 14:05:46.277
8, -1459.64, -1564.85, -1607.85, -1414.37, 0.000, 0.000, 0.000, 14:05:46.278
9, -1316.33, -1423.02, -1524.92, -1320.23, 0.000, 0.000, 0.000, 14:05:46.292
10, -1875.95, -2018.24, -2000.33, -1704.41, 0.000, 0.000, 0.000, 14:05:46.292
11, -1871.35, -2011.34, -1957.86, -1688.28, 0.000, 0.000, 0.000, 14:05:46.293
12, -1457.90, -1581.91, -1613.10, -1412.24, 0.000, 0.000, 0.000, 14:05:46.293
13, -1313.66, -1416.90, -1530.14, -1325.13, 0.000, 0.000, 0.000, 14:05:46.307
14, -1879.50, -2014.89, -1996.22, -1702.73, 0.000, 0.000, 0.000, 14:05:46.308
15, -1882.95, -2006.01, -1964.84, -1697.99, 0.000, 0.000, 0.000, 14:05:46.323
16, -1473.23, -1577.55, -1611.58, -1417.31, 0.000, 0.000, 0.000, 14:05:46.323
17, -1311.01, -1435.58, -1517.40, -1324.81, 0.000, 0.000, 0.000, 14:05:46.330
18, -1878.54, -2034.06, -1999.98, -1706.30, 0.000, 0.000, 0.000, 14:05:46.330
19, -1877.25, -1979.96, -1937.94, -1694.95, 0.000, 0.000, 0.000, 14:05:46.338
20, -1453.41, -1560.05, -1592.29, -1409.11, 0.000, 0.000, 0.000, 14:05:46.338
21, -1307.59, -1413.69, -1520.24, -1314.72, 0.000, 0.000, 0.000, 14:05:46.352
22, -1895.07, -2023.00, -2005.75, -1709.10, 0.000, 0.000, 0.000, 14:05:46.353
23, -1880.79, -1994.53, -1953.82, -1696.72, 0.000, 0.000, 0.000, 14:05:46.353
24, -1452.43, -1557.17, -1596.18, -1406.59, 0.000, 0.000, 0.000, 14:05:46.353
25, -1310.48, -1424.48, -1519.55, -1316.27, 0.000, 0.000, 0.000, 14:05:46.368
26, -1882.43, -2039.30, -1994.69, -1706.35, 0.000, 0.000, 0.000, 14:05:46.368
27, -1880.99, -2020.19, -1955.43, -1697.70, 0.000, 0.000, 0.000, 14:05:46.397
28, -1459.62, -1549.24, -1601.51, -1410.32, 0.000, 0.000, 0.000, 14:05:46.397
29, -1310.75, -1413.14, -1526.47, -1318.12, 0.000, 0.000, 0.000, 14:05:46.398
30, -1882.87, -2026.28, -2011.75, -1709.36, 0.000, 0.000, 0.000, 14:05:46.398
31, -1877.42, -2004.25, -1954.58, -1696.56, 0.000, 0.000, 0.000, 14:05:46.398
32, -1456.28, -1561.83, -1594.30, -1407.89, 0.000, 0.000, 0.000, 14:05:46.398
33, -1318.26, -1410.80, -1522.33, -1321.28, 0.000, 0.000, 0.000, 14:05:46.399
34, -1889.07, -2033.42, -2000.77, -1710.62, 0.000, 0.000, 0.000, 14:05:46.399
35, -1880.92, -2017.24, -1936.09, -1700.25, 0.000, 0.000, 0.000, 14:05:46.413
36, -1453.58, -1574.43, -1590.47, -1408.94, 0.000, 0.000, 0.000, 14:05:46.413
37, -1306.48, -1407.17, -1527.55, -1319.22, 0.000, 0.000, 0.000, 14:05:46.442
38, -1885.41, -2039.40, -1997.90, -1712.99, 0.000, 0.000, 0.000, 14:05:46.442
39, -1881.21, -2008.26, -1949.93, -1693.12, 0.000, 0.000, 0.000, 14:05:46.443
40, -1452.75, -1548.00, -1595.77, -1406.48, 0.000, 0.000, 0.000, 14:05:46.443
41, -1315.40, -1406.79, -1530.20, -1322.59, 0.000, 0.000, 0.000, 14:05:46.457
42, -1888.97, -2021.61, -2013.43, -1717.64, 0.000, 0.000, 0.000, 14:05:46.457
43, -1888.32, -2031.50, -1958.07, -1699.33, 0.000, 0.000, 0.000, 14:05:46.458
44, -1453.44, -1548.55, -1597.90, -1406.69, 0.000, 0.000, 0.000, 14:05:46.458
45, -1312.18, -1435.58, -1513.85, -1328.17, 0.000, 0.000, 0.000, 14:05:46.473
46, -1890.02, -2050.02, -2021.21, -1722.86, 0.000, 0.000, 0.000, 14:05:46.473
47, -1873.37, -2004.93, -1945.79, -1701.18, 0.000, 0.000, 0.000, 14:05:46.473
48, -1448.77, -1564.15, -1595.32, -1410.25, 0.000, 0.000, 0.000, 14:05:46.473
49, -1316.18, -1418.43, -1529.95, -1325.70, 0.000, 0.000, 0.000, 14:05:46.503
50, -1890.70, -2014.00, -2008.29, -1715.28, 0.000, 0.000, 0.000, 14:05:46.504
51, -1869.30, -1997.40, -1961.42, -1694.56, 0.000, 0.000, 0.000, 14:05:46.504
52, -1442.35, -1575.86, -1589.76, -1400.75, 0.000, 0.000, 0.000, 14:05:46.504
53, -1307.61, -1410.87, -1518.66, -1321.01, 0.000, 0.000, 0.000, 14:05:46.504
54, -1892.15, -2042.59, -2008.56, -1710.27, 0.000, 0.000, 0.000, 14:05:46.504
55, -1864.57, -2000.17, -1944.57, -1692.16, 0.000, 0.000, 0.000, 14:05:46.518
56, -1444.37, -1559.92, -1586.18, -1402.32, 0.000, 0.000, 0.000, 14:05:46.518
57, -1313.73, -1427.31, -1521.95, -1324.21, 0.000, 0.000, 0.000, 14:05:46.532
58, -1888.92, -2035.49, -2017.73, -1720.70, 0.000, 0.000, 0.000, 14:05:46.532
59, -1875.70, -2012.55, -1951.86, -1697.56, 0.000, 0.000, 0.000, 14:05:46.533
60, -1444.46, -1546.13, -1576.68, -1403.73, 0.000, 0.000, 0.000, 14:05:46.533
61, -1317.28, -1428.02, -1534.68, -1328.72, 0.000, 0.000, 0.000, 14:05:46.562
62, -1893.20, -2029.41, -2012.67, -1723.60, 0.000, 0.000, 0.000, 14:05:46.562
63, -1888.31, -2018.49, -1961.47, -1699.09, 0.000, 0.000, 0.000, 14:05:46.563
64, -1456.09, -1546.92, -1598.81, -1409.73, 0.000, 0.000, 0.000, 14:05:46.563
65, -1321.80, -1433.97, -1524.98, -1327.42, 0.000, 0.000, 0.000, 14:05:46.564
66, -1903.54, -2039.55, -2009.75, -1723.17, 0.000, 0.000, 0.000, 14:05:46.564
67, -1885.11, -2003.18, -1956.79, -1699.58, 0.000, 0.000, 0.000, 14:05:46.577
68, -1449.55, -1550.67, -1584.15, -1399.17, 0.000, 0.000, 0.000, 14:05:46.577
69, -1319.03, -1430.09, -1523.93, -1324.17, 0.000, 0.000, 0.000, 14:05:46.608
70, -1890.29, -2034.67, -2006.70, -1716.54, 0.000, 0.000, 0.000, 14:05:46.608
71, -1874.89, -2002.04, -1952.27, -1689.60, 0.000, 0.000, 0.000, 14:05:46.608
72, -1430.15, -1528.22, -1583.91, -1390.23, 0.000, 0.000, 0.000, 14:05:46.608
73, -1312.10, -1424.67, -1520.97, -1327.56, 0.000, 0.000, 0.000, 14:05:46.609
74, -1893.01, -2035.53, -2006.98, -1715.54, 0.000, 0.000, 0.000, 14:05:46.609
75, -1869.54, -2000.94, -1940.15, -1687.39, 0.000, 0.000, 0.000, 14:05:46.610
76, -1435.97, -1547.93, -1588.95, -1395.07, 0.000, 0.000, 0.000, 14:05:46.610
77, -1309.60, -1423.68, -1517.51, -1323.84, 0.000, 0.000, 0.000, 14:05:46.623
78, -1893.37, -2032.55, -1997.76, -1711.54, 0.000, 0.000, 0.000, 14:05:46.623
79, -1869.53, -1990.96, -1952.21, -1691.78, 0.000, 0.000, 0.000, 14:05:46.637
80, -1443.98, -1527.58, -1589.60, -1393.89, 0.000, 0.000, 0.000, 14:05:46.637
81, -1324.15, -1439.74, -1540.12, -1323.47, 0.000, 0.000, 0.000, 14:05:46.669
82, -1895.42, -2025.39, -1996.62, -1713.17, 0.000, 0.000, 0.000, 14:05:46.669
83, -1875.36, -1985.68, -1954.21, -1689.43, 0.000, 0.000, 0.000, 14:05:46.669
84, -1440.39, -1561.10, -1599.71, -1396.34, 0.000, 0.000, 0.000, 14:05:46.669
85, -1332.38, -1444.15, -1525.18, -1328.26, 0.000, 0.000, 0.000, 14:05:46.670
86, -1902.79, -2021.91, -2032.70, -1720.50, 0.000, 0.000, 0.000, 14:05:46.670
87, -1875.92, -2007.58, -1925.20, -1697.03, 0.000, 0.000, 0.000, 14:05:46.670
88, -1432.40, -1533.27, -1574.27, -1392.31, 0.000, 0.000, 0.000, 14:05:46.670
89, -1320.38, -1433.32, -1526.91, -1329.57, 0.000, 0.000, 0.000, 14:05:46.682
90, -1891.86, -2047.24, -2009.33, -1718.88, 0.000, 0.000, 0.000, 14:05:46.682
91, -1869.05, -1988.34, -1950.55, -1681.35, 0.000, 0.000, 0.000, 14:05:46.697
92, -1445.21, -1540.28, -1595.26, -1394.73, 0.000, 0.000, 0.000, 14:05:46.697
93, -1321.74, -1434.29, -1518.33, -1327.41, 0.000, 0.000, 0.000, 14:05:46.713
94, -1891.33, -2058.41, -2008.17, -1715.41, 0.000, 0.000, 0.000, 14:05:46.713
95, -1864.71, -1980.25, -1954.34, -1684.08, 0.000, 0.000, 0.000, 14:05:46.727
96, -1434.18, -1520.32, -1575.10, -1390.13, 0.000, 0.000, 0.000, 14:05:46.727
97, -1332.66, -1448.93, -1542.40, -1336.03, 0.000, 0.000, 0.000, 14:05:46.728
98, -1899.38, -2023.84, -2012.57, -1721.53, 0.000, 0.000, 0.000, 14:05:46.728
99, -1876.49, -2002.84, -1953.52, -1690.75, 0.000, 0.000, 0.000, 14:05:46.743
100, -1435.21, -1546.84, -1570.54, -1395.34, 0.000, 0.000, 0.000, 14:05:46.743
101, -1328.49, -1418.33, -1537.28, -1337.77, 0.000, 0.000, 0.000, 14:05:46.743
102, -1896.51, -2043.78, -2019.14, -1718.25, 0.000, 0.000, 0.000, 14:05:46.743
103, -1861.26, -2004.36, -1942.26, -1688.60, 0.000, 0.000, 0.000, 14:05:46.764
104, -1431.39, -1537.73, -1573.07, -1395.32, 0.000, 0.000, 0.000, 14:05:46.764
105, -1334.05, -1448.33, -1536.61, -1341.10, 0.000, 0.000, 0.000, 14:05:46.773
106, -1904.18, -2072.53, -2011.56, -1725.70, 0.000, 0.000, 0.000, 14:05:46.773
107, -1857.32, -1962.63, -1940.14, -1691.73, 0.000, 0.000, 0.000, 14:05:46.773
108, -1431.19, -1538.03, -1583.07, -1397.31, 0.000, 0.000, 0.000, 14:05:46.773
109, -1322.42, -1428.03, -1535.45, -1338.32, 0.000, 0.000, 0.000, 14:05:46.788
110, -1896.91, -2033.79, -2023.85, -1722.19, 0.000, 0.000, 0.000, 14:05:46.789
111, -1853.77, -1982.76, -1936.79, -1686.41, 0.000, 0.000, 0.000, 14:05:46.803
112, -1428.42, -1535.64, -1573.23, -1391.38, 0.000, 0.000, 0.000, 14:05:46.803
113, -1329.11, -1449.33, -1541.48, -1335.36, 0.000, 0.000, 0.000, 14:05:46.804
114, -1904.34, -2052.65, -2016.29, -1726.77, 0.000, 0.000, 0.000, 14:05:46.804
115, -1861.41, -1995.55, -1949.69, -1686.07, 0.000, 0.000, 0.000, 14:05:46.818
116, -1429.62, -1525.33, -1586.54, -1390.34, 0.000, 0.000, 0.000, 14:05:46.819
117, -1329.39, -1451.37, -1551.16, -1336.95, 0.000, 0.000, 0.000, 14:05:46.832
118, -1910.93, -2068.83, -2022.08, -1727.51, 0.000, 0.000, 0.000, 14:05:46.833
119, -1862.31, -1993.66, -1943.30, -1688.03, 0.000, 0.000, 0.000, 14:05:46.833
120, -1431.07, -1534.71, -1587.37, -1394.99, 0.000, 0.000, 0.000, 14:05:46.833
121, -1336.06, -1446.87, -1552.52, -1336.14, 0.000, 0.000, 0.000, 14:05:46.848
122, -1902.96, -2049.78, -2016.99, -1727.05, 0.000, 0.000, 0.000, 14:05:46.848
123, -1863.45, -1991.15, -1949.51, -1685.28, 0.000, 0.000, 0.000, 14:05:46.863
124, -1421.99, -1537.73, -1570.98, -1393.45, 0.000, 0.000, 0.000, 14:05:46.863
125, -1331.97, -1462.57, -1545.74, -1338.42, 0.000, 0.000, 0.000, 14:05:46.863
126, -1901.44, -2053.93, -2022.35, -1731.61, 0.000, 0.000, 0.000, 14:05:46.863
127, -1844.00, -1990.17, -1933.90, -1684.58, 0.000, 0.000, 0.000, 14:05:46.892
128, -1420.14, -1532.08, -1566.95, -1391.14, 0.000, 0.000, 0.000, 14:05:46.893
129, -1327.31, -1431.05, -1532.83, -1339.62, 0.000, 0.000, 0.000, 14:05:46.893
130, -1904.83, -2042.14, -2009.23, -1723.36, 0.000, 0.000, 0.000, 14:05:46.893
131, -1851.36, -1989.35, -1936.65, -1684.85, 0.000, 0.000, 0.000, 14:05:46.894
132, -1427.58, -1520.99, -1569.63, -1390.93, 0.000, 0.000, 0.000, 14:05:46.894
133, -1340.00, -1451.76, -1545.73, -1341.48, 0.000, 0.000, 0.000, 14:05:46.908
134, -1904.54, -2044.60, -2025.19, -1727.61, 0.000, 0.000, 0.000, 14:05:46.908
135, -1861.19, -1986.16, -1938.39, -1676.42, 0.000, 0.000, 0.000, 14:05:46.924
136, -1424.37, -1530.74, -1574.52, -1386.37, 0.000, 0.000, 0.000, 14:05:46.924
137, -1335.97, -1453.54, -1547.03, -1343.24, 0.000, 0.000, 0.000, 14:05:46.924
138, -1919.36, -2060.03, -2021.21, -1723.61, 0.000, 0.000, 0.000, 14:05:46.924
139, -1862.08, -1989.31, -1918.92, -1681.93, 0.000, 0.000, 0.000, 14:05:46.953
140, -1434.05, -1535.23, -1575.51, -1392.73, 0.000, 0.000, 0.000, 14:05:46.953
141, -1347.66, -1459.75, -1560.69, -1350.55, 0.000, 0.000, 0.000, 14:05:46.953
142, -1910.59, -2064.01, -2024.83, -1729.43, 0.000, 0.000, 0.000, 14:05:46.953
143, -1851.21, -1982.38, -1934.60, -1682.37, 0.000, 0.000, 0.000, 14:05:46.954
144, -1416.35, -1523.46, -1571.15, -1388.68, 0.000, 0.000, 0.000, 14:05:46.954
145, -1332.99, -1446.12, -1555.30, -1345.02, 0.000, 0.000, 0.000, 14:05:46.967
146, -1897.16, -2053.79, -2019.82, -1721.98, 0.000, 0.000, 0.000, 14:05:46.969
147, -1851.61, -1973.13, -1934.75, -1685.83, 0.000, 0.000, 0.000, 14:05:46.998
148, -1418.93, -1531.52, -1571.72, -1389.46, 0.000, 0.000, 0.000, 14:05:46.998
149, -1338.53, -1459.05, -1549.26, -1337.64, 0.000, 0.000, 0.000, 14:05:47.013
150, -1905.15, -2068.17, -2030.54, -1731.33, 0.000, 0.000, 0.000, 14:05:47.013
151, -1862.95, -1989.44, -1930.20, -1682.71, 0.000, 0.000, 0.000, 14:05:47.014
152, -1419.47, -1520.59, -1575.20, -1391.93, 0.000, 0.000, 0.000, 14:05:47.014
153, -1337.98, -1461.59, -1555.32, -1347.66, 0.000, 0.000, 0.000, 14:05:47.015
154, -1912.08, -2056.77, -2034.50, -1736.67, 0.000, 0.000, 0.000, 14:05:47.015
155, -1852.57, -1977.08, -1926.42, -1682.10, 0.000, 0.000, 0.000, 14:05:47.015
156, -1411.57, -1504.63, -1571.42, -1383.66, 0.000, 0.000, 0.000, 14:05:47.015
157, -1338.09, -1450.71, -1552.89, -1350.43, 0.000, 0.000, 0.000, 14:05:47.028
158, -1918.86, -2050.55, -2017.49, -1731.35, 0.000, 0.000, 0.000, 14:05:47.028
159, -1845.23, -1974.81, -1921.78, -1682.07, 0.000, 0.000, 0.000, 14:05:47.057
160, -1405.52, -1511.41, -1570.48, -1388.56, 0.000, 0.000, 0.000, 14:05:47.057
161, -1340.24, -1460.25, -1557.92, -1344.80, 0.000, 0.000, 0.000, 14:05:47.058
162, -1906.92, -2060.23, -2023.77, -1726.75, 0.000, 0.000, 0.000, 14:05:47.058
163, -1853.05, -1984.06, -1935.51, -1682.28, 0.000, 0.000, 0.000, 14:05:47.059
164, -1420.70, -1509.13, -1577.61, -1386.49, 0.000, 0.000, 0.000, 14:05:47.059
165, -1345.17, -1456.50, -1557.46, -1344.91, 0.000, 0.000, 0.000, 14:05:47.060
166, -1906.74, -2045.28, -2020.78, -1724.73, 0.000, 0.000, 0.000, 14:05:47.060
167, -1849.27, -1974.75, -1926.59, -1674.12, 0.000, 0.000, 0.000, 14:05:47.073
168, -1415.69, -1518.86, -1571.20, -1382.57, 0.000, 0.000, 0.000, 14:05:47.073
169, -1354.84, -1461.60, -1558.27, -1345.31, 0.000, 0.000, 0.000, 14:05:47.088
170, -1929.44, -2079.58, -2040.04, -1734.17, 0.000, 0.000, 0.000, 14:05:47.088
171, -1862.86, -2010.34, -1938.93, -1683.03, 0.000, 0.000, 0.000, 14:05:47.103
172, -1420.86, -1520.45, -1573.28, -1383.73, 0.000, 0.000, 0.000, 14:05:47.103
173, -1352.38, -1460.27, -1555.05, -1351.31, 0.000, 0.000, 0.000, 14:05:47.118
174, -1909.25, -2057.96, -2026.15, -1722.24, 0.000, 0.000, 0.000, 14:05:47.118
175, -1847.76, -1966.59, -1940.83, -1673.77, 0.000, 0.000, 0.000, 14:05:47.118
176, -1410.64, -1515.93, -1557.00, -1381.57, 0.000, 0.000, 0.000, 14:05:47.118
177, -1354.07, -1463.61, -1559.40, -1346.01, 0.000, 0.000, 0.000, 14:05:47.178
178, -1921.82, -2052.44, -2016.00, -1728.42, 0.000, 0.000, 0.000, 14:05:47.178
179, -1852.77, -1967.73, -1917.31, -1669.12, 0.000, 0.000, 0.000, 14:05:47.178
180, -1409.49, -1498.79, -1558.93, -1372.20, 0.000, 0.000, 0.000, 14:05:47.178
181, -1345.20, -1445.42, -1548.71, -1347.24, 0.000, 0.000, 0.000, 14:05:47.179
182, -1911.31, -2061.19, -2022.21, -1725.98, 0.000, 0.000, 0.000, 14:05:47.179
183, -1846.85, -1975.06, -1916.38, -1675.03, 0.000, 0.000, 0.000, 14:05:47.180
184, -1406.26, -1515.09, -1556.51, -1379.53, 0.000, 0.000, 0.000, 14:05:47.180
185, -1360.44, -1463.63, -1561.12, -1349.04, 0.000, 0.000, 0.000, 14:05:47.180
186, -1917.74, -2038.68, -2003.82, -1724.44, 0.000, 0.000, 0.000, 14:05:47.181
187, -1849.78, -1964.61, -1949.16, -1675.55, 0.000, 0.000, 0.000, 14:05:47.181
188, -1407.40, -1508.25, -1565.70, -1383.63, 0.000, 0.000, 0.000, 14:05:47.181
189, -1355.06, -1485.88, -1569.43, -1353.90, 0.000, 0.000, 0.000, 14:05:47.182
190, -1917.58, -2066.09, -2028.97, -1735.18, 0.000, 0.000, 0.000, 14:05:47.182
191, -1863.75, -1985.48, -1915.12, -1678.85, 0.000, 0.000, 0.000, 14:05:47.193
192, -1413.40, -1503.62, -1564.75, -1381.32, 0.000, 0.000, 0.000, 14:05:47.193
193, -1369.80, -1472.76, -1566.45, -1357.55, 0.000, 0.000, 0.000, 14:05:47.226
194, -1925.81, -2057.75, -2029.17, -1734.97, 0.000, 0.000, 0.000, 14:05:47.226
195, -1859.47, -1982.90, -1922.35, -1676.14, 0.000, 0.000, 0.000, 14:05:47.226
196, -1407.24, -1511.61, -1566.81, -1382.01, 0.000, 0.000, 0.000, 14:05:47.226
197, -1367.34, -1478.88, -1577.21, -1353.67, 0.000, 0.000, 0.000, 14:05:47.241
198, -1931.52, -2067.91, -2036.96, -1731.02, 0.000, 0.000, 0.000, 14:05:47.242
199, -1855.94, -1963.03, -1940.89, -1671.43, 0.000, 0.000, 0.000, 14:05:47.243
200, -1410.48, -1503.78, -1562.89, -1379.74, 0.000, 0.000, 0.000, 14:05:47.243
0, -1362.96, -1471.33, -1575.66, -1357.07, 0.000, 0.000, 0.000, 14:05:47.243
1, -1924.06, -2076.07, -2010.55, -1734.10, 0.000, 0.000, 0.000, 14:05:47.253
2, -1847.68, -1969.32, -1941.73, -1677.11, 0.000, 0.000, 0.000, 14:05:47.253
3, -1412.92, -1517.35, -1558.81, -1374.65, 0.000, 0.000, 0.000, 14:05:47.268
4, -1364.89, -1467.07, -1578.91, -1354.88, 0.000, 0.000, 0.000, 14:05:47.268
5, -1932.62, -2057.00, -2035.66, -1733.34, 0.000, 0.000, 0.000, 14:05:47.268
6, -1851.52, -1990.11, -1935.27, -1672.38, 0.000, 0.000, 0.000, 14:05:47.268
7, -1407.83, -1508.44, -1575.71, -1373.74, 0.000, 0.000, 0.000, 14:05:47.283
8, -1365.57, -1480.76, -1580.15, -1357.73, 0.000, 0.000, 0.000, 14:05:47.283
9, -1927.92, -2064.60, -2030.15, -1733.57, 0.000, 0.000, 0.000, 14:05:47.297
10, -1848.69, -1972.67, -1904.16, -1678.00, 0.000, 0.000, 0.000, 14:05:47.297
11, -1413.98, -1513.70, -1563.86, -1381.04, 0.000, 0.000, 0.000, 14:05:47.298
12, -1362.83, -1476.00, -1566.74, -1361.56, 0.000, 0.000, 0.000, 14:05:47.298
13, -1928.94, -2064.53, -2028.71, -1738.04, 0.000, 0.000, 0.000, 14:05:47.312
14, -1842.13, -1972.08, -1892.91, -1683.11, 0.000, 0.000, 0.000, 14:05:47.312
15, -1404.77, -1484.00, -1565.02, -1381.12, 0.000, 0.000, 0.000, 14:05:47.343
16, -1362.88, -1474.53, -1570.48, -1363.65, 0.000, 0.000, 0.000, 14:05:47.343
17, -1923.45, -2065.10, -2022.60, -1738.18, 0.000, 0.000, 0.000, 14:05:47.343
18, -1843.82, -1959.02, -1925.27, -1673.10, 0.000, 0.000, 0.000, 14:05:47.343
19, -1404.90, -1499.60, -1543.91, -1375.62, 0.000, 0.000, 0.000, 14:05:47.344
20, -1372.87, -1485.82, -1576.44, -1358.07, 0.000, 0.000, 0.000, 14:05:47.344
21, -1931.20, -2055.68, -2026.47, -1731.93, 0.000, 0.000, 0.000, 14:05:47.345
22, -1849.69, -1968.99, -1926.89, -1668.27, 0.000, 0.000, 0.000, 14:05:47.345
23, -1407.37, -1513.04, -1556.32, -1368.82, 0.000, 0.000, 0.000, 14:05:47.358
24, -1361.77, -1469.04, -1568.74, -1354.10, 0.000, 0.000, 0.000, 14:05:47.358
25, -1920.82, -2076.68, -2029.54, -1733.83, 0.000, 0.000, 0.000, 14:05:47.388
26, -1843.98, -1927.98, -1935.65, -1666.24, 0.000, 0.000, 0.000, 14:05:47.388
27, -1399.87, -1508.00, -1561.29, -1370.95, 0.000, 0.000, 0.000, 14:05:47.388
28, -1362.54, -1504.56, -1575.63, -1357.77, 0.000, 0.000, 0.000, 14:05:47.388
29, -1931.43, -2056.84, -2017.12, -1735.07, 0.000, 0.000, 0.000, 14:05:47.390
30, -1842.39, -1974.85, -1927.81, -1670.93, 0.000, 0.000, 0.000, 14:05:47.390
31, -1406.12, -1499.93, -1557.95, -1374.05, 0.000, 0.000, 0.000, 14:05:47.403
32, -1365.04, -1465.34, -1581.64, -1361.29, 0.000, 0.000, 0.000, 14:05:47.403
33, -1927.53, -2074.89, -2008.19, -1734.56, 0.000, 0.000, 0.000, 14:05:47.418
34, -1846.98, -1961.23, -1904.13, -1671.32, 0.000, 0.000, 0.000, 14:05:47.418
35, -1401.38, -1516.60, -1557.71, -1373.76, 0.000, 0.000, 0.000, 14:05:47.419
36, -1361.67, -1469.08, -1578.73, -1356.28, 0.000, 0.000, 0.000, 14:05:47.419
37, -1927.09, -2054.30, -2012.18, -1735.68, 0.000, 0.000, 0.000, 14:05:47.432
38, -1839.39, -1971.86, -1921.77, -1670.20, 0.000, 0.000, 0.000, 14:05:47.434
39, -1394.42, -1476.28, -1552.79, -1372.19, 0.000, 0.000, 0.000, 14:05:47.447
40, -1365.95, -1472.44, -1581.21, -1361.13, 0.000, 0.000, 0.000, 14:05:47.447
41, -1924.21, -2097.87, -2026.23, -1739.43, 0.000, 0.000, 0.000, 14:05:47.448
42, -1835.77, -1988.79, -1904.14, -1666.14, 0.000, 0.000, 0.000, 14:05:47.448
43, -1396.40, -1467.89, -1559.24, -1367.28, 0.000, 0.000, 0.000, 14:05:47.463
44, -1367.17, -1483.51, -1578.43, -1362.03, 0.000, 0.000, 0.000, 14:05:47.463
45, -1921.35, -2048.76, -2029.78, -1734.59, 0.000, 0.000, 0.000, 14:05:47.477
46, -1844.36, -1954.45, -1916.49, -1668.48, 0.000, 0.000, 0.000, 14:05:47.477
47, -1398.21, -1511.90, -1554.98, -1367.71, 0.000, 0.000, 0.000, 14:05:47.478
48, -1366.96, -1496.43, -1583.68, -1361.04, 0.000, 0.000, 0.000, 14:05:47.478
49, -1936.34, -2071.67, -2040.29, -1740.66, 0.000, 0.000, 0.000, 14:05:47.507
50, -1843.09, -1962.58, -1923.00, -1673.57, 0.000, 0.000, 0.000, 14:05:47.507
51, -1405.02, -1479.96, -1557.22, -1376.76, 0.000, 0.000, 0.000, 14:05:47.507
52, -1370.08, -1476.97, -1582.26, -1369.97, 0.000, 0.000, 0.000, 14:05:47.507
53, -1937.40, -2074.49, -2034.01, -1744.84, 0.000, 0.000, 0.000, 14:05:47.516
54, -1843.33, -1973.42, -1915.03, -1672.78, 0.000, 0.000, 0.000, 14:05:47.516
55, -1387.08, -1491.03, -1548.49, -1369.69, 0.000, 0.000, 0.000, 14:05:47.523
56, -1368.92, -1480.11, -1574.44, -1368.20, 0.000, 0.000, 0.000, 14:05:47.523
57, -1921.61, -2084.03, -2031.53, -1741.44, 0.000, 0.000, 0.000, 14:05:47.537
58, -1844.81, -1945.14, -1927.31, -1670.74, 0.000, 0.000, 0.000, 14:05:47.537
59, -1389.84, -1485.75, -1549.77, -1365.53, 0.000, 0.000, 0.000, 14:05:47.553
60, -1367.83, -1502.56, -1590.87, -1362.11, 0.000, 0.000, 0.000, 14:05:47.553
61, -1920.85, -2073.11, -2026.22, -1735.72, 0.000, 0.000, 0.000, 14:05:47.553
62, -1826.41, -1954.83, -1919.92, -1656.45, 0.000, 0.000, 0.000, 14:05:47.553
63, -1381.17, -1491.86, -1542.06, -1364.12, 0.000, 0.000, 0.000, 14:05:47.568
64, -1380.17, -1504.90, -1583.76, -1366.72, 0.000, 0.000, 0.000, 14:05:47.568
65, -1928.53, -2083.62, -2037.05, -1740.78, 0.000, 0.000, 0.000, 14:05:47.569
66, -1824.79, -1931.98, -1923.07, -1660.12, 0.000, 0.000, 0.000, 14:05:47.569
67, -1377.92, -1507.22, -1545.74, -1361.71, 0.000, 0.000, 0.000, 14:05:47.583
68, -1364.86, -1529.60, -1582.94, -1364.18, 0.000, 0.000, 0.000, 14:05:47.583
69, -1919.96, -2092.16, -2031.00, -1736.10, 0.000, 0.000, 0.000, 14:05:47.612
70, -1815.50, -1993.71, -1915.07, -1663.97, 0.000, 0.000, 0.000, 14:05:47.612
71, -1367.64, -1494.02, -1545.46, -1364.84, 0.000, 0.000, 0.000, 14:05:47.613
72, -1341.75, -1509.36, -1583.70, -1361.18, 0.000, 0.000, 0.000, 14:05:47.613
73, -1866.66, -2115.47, -2028.29, -1734.68, 0.000, 0.000, 0.000, 14:05:47.613
74, -1742.58, -2019.42, -1892.00, -1656.96, 0.000, 0.000, 0.000, 14:05:47.614
75, -1259.83, -1510.39, -1518.98, -1347.54, 0.000, 0.000, 0.000, 14:05:47.614
76, -1233.16, -1523.46, -1562.60, -1361.47, 0.000, 0.000, 0.000, 14:05:47.614
77, -1721.51, -2115.77, -2022.33, -1726.01, 0.000, 0.000, 0.000, 14:05:47.628
78, -1557.91, -2109.04, -1892.41, -1634.45, 0.000, 0.000, 0.000, 14:05:47.628
79, -1074.31, -1573.60, -1539.31, -1348.97, 0.000, 0.000, 0.000, 14:05:47.643
80, -1044.02, -1607.52, -1572.66, -1359.95, 0.000, 0.000, 0.000, 14:05:47.643
81, -1594.98, -2209.25, -2014.55, -1725.05, 0.000, 0.000, 0.000, 14:05:47.673
82, -1506.80, -2121.08, -1908.64, -1636.68, 0.000, 0.000, 0.000, 14:05:47.673
83, -1081.58, -1669.56, -1548.45, -1342.36, 0.000, 0.000, 0.000, 14:05:47.673
84, -1103.07, -1693.71, -1591.73, -1361.48, 0.000, 0.000, 0.000, 14:05:47.673
85, -1692.06, -2257.28, -2037.76, -1729.85, 0.000, 0.000, 0.000, 14:05:47.674
86, -1609.85, -2104.15, -1904.70, -1655.47, 0.000, 0.000, 0.000, 14:05:47.674
87, -1198.32, -1589.35, -1539.37, -1356.68, 0.000, 0.000, 0.000, 14:05:47.674
88, -1236.24, -1628.11, -1596.95, -1369.19, 0.000, 0.000, 0.000, 14:05:47.675
89, -1828.38, -2194.99, -2044.85, -1738.72, 0.000, 0.000, 0.000, 14:05:47.688
90, -1769.61, -2004.58, -1917.16, -1664.11, 0.000, 0.000, 0.000, 14:05:47.688
91, -1363.10, -1525.61, -1553.07, -1366.12, 0.000, 0.000, 0.000, 14:05:47.704
92, -1409.18, -1535.17, -1610.40, -1377.10, 0.000, 0.000, 0.000, 14:05:47.704
93, -1996.29, -2064.12, -2042.51, -1747.04, 0.000, 0.000, 0.000, 14:05:47.718
94, -1916.39, -1915.57, -1907.65, -1665.32, 0.000, 0.000, 0.000, 14:05:47.718
95, -1503.88, -1428.70, -1553.55, -1371.40, 0.000, 0.000, 0.000, 14:05:47.719
96, -1525.50, -1445.80, -1599.90, -1386.73, 0.000, 0.000, 0.000, 14:05:47.719
97, -2083.29, -1997.85, -2051.08, -1755.10, 0.000, 0.000, 0.000, 14:05:47.748
98, -1990.93, -1845.38, -1924.49, -1675.80, 0.000, 0.000, 0.000, 14:05:47.748
99, -1548.37, -1394.00, -1547.43, -1369.74, 0.000, 0.000, 0.000, 14:05:47.748
100, -1552.52, -1444.70, -1606.45, -1387.73, 0.000, 0.000, 0.000, 14:05:47.748
101, -2110.06, -1937.54, -2041.10, -1749.28, 0.000, 0.000, 0.000, 14:05:47.749
102, -1993.88, -1845.82, -1916.86, -1668.89, 0.000, 0.000, 0.000, 14:05:47.749
103, -1544.87, -1405.61, -1543.71, -1369.79, 0.000, 0.000, 0.000, 14:05:47.763
104, -1547.99, -1402.45, -1599.74, -1385.78, 0.000, 0.000, 0.000, 14:05:47.763
105, -2084.17, -2016.49, -2040.29, -1750.21, 0.000, 0.000, 0.000, 14:05:47.777
106, -1974.70, -1889.12, -1909.40, -1669.89, 0.000, 0.000, 0.000, 14:05:47.777
107, -1528.78, -1381.57, -1549.13, -1373.62, 0.000, 0.000, 0.000, 14:05:47.778
108, -1536.88, -1424.38, -1612.64, -1389.34, 0.000, 0.000, 0.000, 14:05:47.778
109, -2072.39, -1973.91, -2046.75, -1754.90, 0.000, 0.000, 0.000, 14:05:47.793
110, -1939.56, -1845.19, -1907.73, -1662.35, 0.000, 0.000, 0.000, 14:05:47.793
111, -1490.97, -1387.24, -1534.47, -1358.16, 0.000, 0.000, 0.000, 14:05:47.807
112, -1504.03, -1470.78, -1616.09, -1383.68, 0.000, 0.000, 0.000, 14:05:47.807
113, -2038.27, -1995.33, -2040.55, -1750.38, 0.000, 0.000, 0.000, 14:05:47.808
114, -1924.17, -1891.06, -1914.43, -1664.05, 0.000, 0.000, 0.000, 14:05:47.808
115, -1460.66, -1441.41, -1531.21, -1357.11, 0.000, 0.000, 0.000, 14:05:47.822
116, -1471.94, -1440.53, -1609.44, -1383.60, 0.000, 0.000, 0.000, 14:05:47.823
117, -2017.73, -2070.22, -2049.63, -1752.63, 0.000, 0.000, 0.000, 14:05:47.837
118, -1888.24, -1925.23, -1908.55, -1664.62, 0.000, 0.000, 0.000, 14:05:47.837
119, -1450.37, -1416.54, -1541.23, -1364.27, 0.000, 0.000, 0.000, 14:05:47.838
120, -1458.54, -1492.43, -1595.07, -1390.41, 0.000, 0.000, 0.000, 14:05:47.838
121, -1998.02, -2086.97, -2046.69, -1751.60, 0.000, 0.000, 0.000, 14:05:47.854
122, -1880.20, -1956.98, -1898.07, -1660.35, 0.000, 0.000, 0.000, 14:05:47.854
123, -1408.04, -1448.96, -1542.16, -1360.27, 0.000, 0.000, 0.000, 14:05:47.868
124, -1437.15, -1500.64, -1591.66, -1382.66, 0.000, 0.000, 0.000, 14:05:47.868
125, -1978.38, -2093.73, -2048.95, -1749.52, 0.000, 0.000, 0.000, 14:05:47.868
126, -1874.87, -1940.02, -1920.83, -1664.78, 0.000, 0.000, 0.000, 14:05:47.868
127, -1410.95, -1415.61, -1523.30, -1356.11, 0.000, 0.000, 0.000, 14:05:47.898
128, -1439.73, -1483.41, -1599.71, -1389.55, 0.000, 0.000, 0.000, 14:05:47.898
129, -1978.30, -2095.25, -2014.96, -1752.89, 0.000, 0.000, 0.000, 14:05:47.898
130, -1850.97, -1962.21, -1908.95, -1660.14, 0.000, 0.000, 0.000, 14:05:47.898
131, -1394.76, -1448.93, -1560.92, -1364.34, 0.000, 0.000, 0.000, 14:05:47.899
132, -1434.23, -1517.25, -1613.35, -1388.55, 0.000, 0.000, 0.000, 14:05:47.899
133, -1963.67, -2069.74, -2038.54, -1749.98, 0.000, 0.000, 0.000, 14:05:47.913
134, -1845.18, -1957.46, -1902.97, -1658.07, 0.000, 0.000, 0.000, 14:05:47.914
135, -1383.11, -1457.15, -1529.34, -1349.63, 0.000, 0.000, 0.000, 14:05:47.928
136, -1402.64, -1501.44, -1598.83, -1375.48, 0.000, 0.000, 0.000, 14:05:47.928
137, -1950.89, -2086.51, -2053.91, -1743.53, 0.000, 0.000, 0.000, 14:05:47.928
138, -1826.55, -1917.78, -1892.91, -1655.72, 0.000, 0.000, 0.000, 14:05:47.928
139, -1376.19, -1413.95, -1524.87, -1348.05, 0.000, 0.000, 0.000, 14:05:47.949
140, -1406.64, -1485.54, -1606.42, -1378.64, 0.000, 0.000, 0.000, 14:05:47.949
141, -1946.26, -2092.90, -2039.27, -1740.43, 0.000, 0.000, 0.000, 14:05:47.957
142, -1837.80, -1935.39, -1940.47, -1653.81, 0.000, 0.000, 0.000, 14:05:47.958
143, -1380.72, -1456.27, -1489.18, -1345.63, 0.000, 0.000, 0.000, 14:05:47.958
144, -1415.14, -1517.53, -1629.33, -1385.21, 0.000, 0.000, 0.000, 14:05:47.958
145, -1947.16, -2099.30, -2046.11, -1747.26, 0.000, 0.000, 0.000, 14:05:47.972
146, -1839.23, -1952.81, -1914.41, -1658.10, 0.000, 0.000, 0.000, 14:05:47.973
147, -1384.03, -1454.89, -1533.87, -1359.33, 0.000, 0.000, 0.000, 14:05:47.988
148, -1419.15, -1480.70, -1616.00, -1392.12, 0.000, 0.000, 0.000, 14:05:47.988
149, -1948.04, -2031.68, -2021.08, -1751.82, 0.000, 0.000, 0.000, 14:05:47.989
150, -1822.46, -1889.46, -1902.14, -1653.04, 0.000, 0.000, 0.000, 14:05:47.989
151, -1375.68, -1444.01, -1531.20, -1358.89, 0.000, 0.000, 0.000, 14:05:48.003
152, -1422.12, -1513.41, -1606.50, -1392.42, 0.000, 0.000, 0.000, 14:05:48.003
153, -1943.54, -2076.11, -2042.72, -1750.63, 0.000, 0.000, 0.000, 14:05:48.017
154, -1823.23, -1914.00, -1884.40, -1658.69, 0.000, 0.000, 0.000, 14:05:48.018
155, -1382.82, -1460.10, -1537.80, -1358.01, 0.000, 0.000, 0.000, 14:05:48.018
156, -1417.46, -1512.74, -1620.32, -1395.38, 0.000, 0.000, 0.000, 14:05:48.018
157, -1949.59, -2044.42, -2049.31, -1753.45, 0.000, 0.000, 0.000, 14:05:48.033
158, -1826.77, -1971.51, -1895.87, -1657.69, 0.000, 0.000, 0.000, 14:05:48.033
159, -1379.41, -1484.99, -1534.00, -1353.77, 0.000, 0.000, 0.000, 14:05:48.062
160, -1412.44, -1492.70, -1603.93, -1393.84, 0.000, 0.000, 0.000, 14:05:48.062
161, -1949.97, -2094.22, -2064.25, -1749.21, 0.000, 0.000, 0.000, 14:05:48.063
162, -1823.22, -1947.17, -1904.54, -1659.20, 0.000, 0.000, 0.000, 14:05:48.063
163, -1378.05, -1468.78, -1533.36, -1358.18, 0.000, 0.000, 0.000, 14:05:48.092
164, -1419.04, -1552.12, -1620.21, -1394.41, 0.000, 0.000, 0.000, 14:05:48.092
165, -1948.42, -2055.64, -2060.54, -1750.65, 0.000, 0.000, 0.000, 14:05:48.092
166, -1814.92, -1953.18, -1885.17, -1657.88, 0.000, 0.000, 0.000, 14:05:48.092
167, -1374.50, -1424.97, -1542.82, -1354.00, 0.000, 0.000, 0.000, 14:05:48.094
168, -1414.30, -1520.99, -1619.12, -1393.05, 0.000, 0.000, 0.000, 14:05:48.094
169, -1948.84, -2096.93, -2046.26, -1752.05, 0.000, 0.000, 0.000, 14:05:48.095
170, -1820.12, -1973.69, -1893.49, -1654.18, 0.000, 0.000, 0.000, 14:05:48.095
171, -1363.27, -1463.74, -1529.18, -1348.99, 0.000, 0.000, 0.000, 14:05:48.095
172, -1411.62, -1480.75, -1612.63, -1384.05, 0.000, 0.000, 0.000, 14:05:48.096
173, -1950.76, -2100.43, -2012.77, -1746.37, 0.000, 0.000, 0.000, 14:05:48.108
174, -1822.30, -1942.16, -1882.73, -1652.54, 0.000, 0.000, 0.000, 14:05:48.108
175, -1361.06, -1440.66, -1526.06, -1351.32, 0.000, 0.000, 0.000, 14:05:48.123
176, -1418.79, -1531.03, -1616.09, -1397.56, 0.000, 0.000, 0.000, 14:05:48.123
177, -1965.47, -2079.30, -2035.85, -1750.81, 0.000, 0.000, 0.000, 14:05:48.138
178, -1818.89, -1956.12, -1924.32, -1655.19, 0.000, 0.000, 0.000, 14:05:48.138
179, -1366.65, -1436.92, -1548.71, -1351.12, 0.000, 0.000, 0.000, 14:05:48.139
180, -1431.07, -1524.60, -1620.52, -1396.32, 0.000, 0.000, 0.000, 14:05:48.139
181, -1955.63, -2066.09, -2032.93, -1750.05, 0.000, 0.000, 0.000, 14:05:48.153
182, -1812.73, -1907.75, -1902.81, -1645.41, 0.000, 0.000, 0.000, 14:05:48.154
183, -1349.62, -1467.73, -1520.24, -1340.55, 0.000, 0.000, 0.000, 14:05:48.168
184, -1421.51, -1510.20, -1617.29, -1391.07, 0.000, 0.000, 0.000, 14:05:48.168
185, -1959.73, -2092.30, -2041.30, -1756.70, 0.000, 0.000, 0.000, 14:05:48.169
186, -1819.34, -1925.93, -1907.19, -1647.18, 0.000, 0.000, 0.000, 14:05:48.169
187, -1356.58, -1470.08, -1523.09, -1343.73, 0.000, 0.000, 0.000, 14:05:48.183
188, -1423.27, -1543.75, -1610.25, -1400.92, 0.000, 0.000, 0.000, 14:05:48.183
189, -1946.41, -2105.72, -2041.54, -1744.97, 0.000, 0.000, 0.000, 14:05:48.197
190, -1818.13, -1936.94, -1881.77, -1652.11, 0.000, 0.000, 0.000, 14:05:48.197
191, -1357.57, -1449.29, -1526.34, -1346.30, 0.000, 0.000, 0.000, 14:05:48.198
192, -1416.55, -1544.42, -1634.44, -1397.80, 0.000, 0.000, 0.000, 14:05:48.198
193, -1935.83, -2077.21, -2048.74, -1754.63, 0.000, 0.000, 0.000, 14:05:48.212
194, -1801.24, -1935.35, -1898.12, -1647.31, 0.000, 0.000, 0.000, 14:05:48.212
195, -1358.38, -1462.79, -1528.82, -1342.28, 0.000, 0.000, 0.000, 14:05:48.227
196, -1428.77, -1504.80, -1633.94, -1392.92, 0.000, 0.000, 0.000, 14:05:48.227
197, -1947.46, -2099.04, -2043.40, -1746.89, 0.000, 0.000, 0.000, 14:05:48.243
198, -1805.48, -1937.50, -1898.82, -1644.24, 0.000, 0.000, 0.000, 14:05:48.243
199, -1351.30, -1456.40, -1512.73, -1343.70, 0.000, 0.000, 0.000, 14:05:48.243
200, -1429.78, -1529.63, -1609.65, -1395.92, 0.000, 0.000, 0.000, 14:05:48.243
0, -1961.30, -2105.58, -2023.06, -1755.47, 0.000, 0.000, 0.000, 14:05:48.244
1, -1808.77, -1934.21, -1902.97, -1644.60, 0.000, 0.000, 0.000, 14:05:48.257
2, -1356.68, -1463.52, -1521.56, -1342.76, 0.000, 0.000, 0.000, 14:05:48.258
3, -1431.16, -1565.63, -1627.92, -1400.94, 0.000, 0.000, 0.000, 14:05:48.273
4, -1963.48, -2067.55, -2052.91, -1753.90, 0.000, 0.000, 0.000, 14:05:48.273
5, -1823.36, -1907.53, -1888.82, -1644.96, 0.000, 0.000, 0.000, 14:05:48.273
6, -1354.03, -1462.58, -1499.31, -1344.86, 0.000, 0.000, 0.000, 14:05:48.273
7, -1424.57, -1502.09, -1621.98, -1398.15, 0.000, 0.000, 0.000, 14:05:48.288
8, -1960.91, -2102.42, -2043.59, -1752.24, 0.000, 0.000, 0.000, 14:05:48.288
9, -1808.27, -1896.80, -1901.96, -1644.23, 0.000, 0.000, 0.000, 14:05:48.304
10, -1361.07, -1444.79, -1529.94, -1340.30, 0.000, 0.000, 0.000, 14:05:48.304
11, -1440.00, -1538.20, -1673.29, -1403.72, 0.000, 0.000, 0.000, 14:05:48.304
12, -1963.15, -2081.90, -2055.60, -1753.43, 0.000, 0.000, 0.000, 14:05:48.304
13, -1815.84, -1919.18, -1905.88, -1651.89, 0.000, 0.000, 0.000, 14:05:48.333
14, -1362.04, -1433.71, -1516.79, -1343.75, 0.000, 0.000, 0.000, 14:05:48.333
15, -1444.89, -1519.28, -1643.82, -1403.37, 0.000, 0.000, 0.000, 14:05:48.333
16, -1966.64, -2140.66, -2056.26, -1754.35, 0.000, 0.000, 0.000, 14:05:48.334
17, -1814.73, -1942.68, -1895.94, -1650.61, 0.000, 0.000, 0.000, 14:05:48.334
18, -1373.59, -1434.06, -1507.55, -1341.19, 0.000, 0.000, 0.000, 14:05:48.334
19, -1434.69, -1513.06, -1624.64, -1399.22, 0.000, 0.000, 0.000, 14:05:48.348
20, -1959.10, -2085.71, -2053.77, -1753.21, 0.000, 0.000, 0.000, 14:05:48.348
21, -1803.82, -1953.03, -1881.18, -1640.99, 0.000, 0.000, 0.000, 14:05:48.362
22, -1355.52, -1442.87, -1495.11, -1339.65, 0.000, 0.000, 0.000, 14:05:48.362
23, -1423.66, -1535.96, -1662.65, -1406.24, 0.000, 0.000, 0.000, 14:05:48.392
24, -1956.41, -2093.17, -2057.45, -1754.63, 0.000, 0.000, 0.000, 14:05:48.392
25, -1794.58, -1929.10, -1889.78, -1642.43, 0.000, 0.000, 0.000, 14:05:48.393
26, -1343.66, -1446.71, -1502.10, -1341.96, 0.000, 0.000, 0.000, 14:05:48.393
27, -1424.28, -1559.76, -1624.58, -1406.32, 0.000, 0.000, 0.000, 14:05:48.393
28, -1936.88, -2102.88, -2015.96, -1752.42, 0.000, 0.000, 0.000, 14:05:48.393
29, -1782.25, -1919.68, -1885.14, -1642.35, 0.000, 0.000, 0.000, 14:05:48.394
30, -1331.94, -1456.17, -1508.54, -1339.77, 0.000, 0.000, 0.000, 14:05:48.394
31, -1424.99, -1547.27, -1607.08, -1405.92, 0.000, 0.000, 0.000, 14:05:48.408
32, -1938.18, -2100.79, -2059.20, -1754.08, 0.000, 0.000, 0.000, 14:05:48.408
33, -1787.44, -1932.82, -1840.98, -1639.80, 0.000, 0.000, 0.000, 14:05:48.423
34, -1329.43, -1459.16, -1507.79, -1339.50, 0.000, 0.000, 0.000, 14:05:48.423
35, -1430.96, -1614.25, -1651.55, -1410.05, 0.000, 0.000, 0.000, 14:05:48.423
36, -1946.32, -2113.08, -2008.44, -1749.33, 0.000, 0.000, 0.000, 14:05:48.423
37, -1787.62, -1953.78, -1902.21, -1634.95, 0.000, 0.000, 0.000, 14:05:48.454
38, -1333.76, -1448.26, -1516.50, -1335.31, 0.000, 0.000, 0.000, 14:05:48.454
39, -1415.48, -1567.94, -1677.75, -1404.17, 0.000, 0.000, 0.000, 14:05:48.454
40, -1943.55, -2101.39, -2057.61, -1754.16, 0.000, 0.000, 0.000, 14:05:48.454
41, -1790.69, -1908.59, -1941.01, -1642.52, 0.000, 0.000, 0.000, 14:05:48.454
42, -1337.39, -1467.68, -1508.21, -1332.74, 0.000, 0.000, 0.000, 14:05:48.454
43, -1426.75, -1589.25, -1614.43, -1415.18, 0.000, 0.000, 0.000, 14:05:48.468
44, -1943.96, -2076.19, -2014.79, -1758.95, 0.000, 0.000, 0.000, 14:05:48.468
45, -1785.11, -1951.66, -1834.50, -1646.04, 0.000, 0.000, 0.000, 14:05:48.498
46, -1332.20, -1444.68, -1486.63, -1340.64, 0.000, 0.000, 0.000, 14:05:48.499
47, -1425.12, -1543.23, -1659.36, -1413.73, 0.000, 0.000, 0.000, 14:05:48.499
48, -1947.01, -2093.52, -2060.86, -1757.09, 0.000, 0.000, 0.000, 14:05:48.499
49, -1783.91, -1917.21, -1919.02, -1645.00, 0.000, 0.000, 0.000, 14:05:48.501
50, -1328.15, -1457.65, -1518.85, -1337.92, 0.000, 0.000, 0.000, 14:05:48.501
51, -1423.41, -1560.91, -1656.42, -1411.08, 0.000, 0.000, 0.000, 14:05:48.501
52, -1942.87, -2086.61, -2052.28, -1753.76, 0.000, 0.000, 0.000, 14:05:48.501
53, -1793.29, -1920.41, -1877.78, -1641.84, 0.000, 0.000, 0.000, 14:05:48.513
54, -1333.37, -1437.07, -1520.46, -1334.20, 0.000, 0.000, 0.000, 14:05:48.513
55, -1431.83, -1569.13, -1624.51, -1415.94, 0.000, 0.000, 0.000, 14:05:48.527
56, -1936.03, -2102.63, -2027.40, -1754.47, 0.000, 0.000, 0.000, 14:05:48.527
57, -1786.72, -1944.62, -1897.62, -1639.51, 0.000, 0.000, 0.000, 14:05:48.557
58, -1327.07, -1441.75, -1545.92, -1330.09, 0.000, 0.000, 0.000, 14:05:48.557
59, -1434.30, -1566.19, -1659.82, -1414.99, 0.000, 0.000, 0.000, 14:05:48.558
60, -1951.04, -2067.98, -2100.66, -1759.54, 0.000, 0.000, 0.000, 14:05:48.558
61, -1780.79, -1917.59, -1914.98, -1634.44, 0.000, 0.000, 0.000, 14:05:48.558
62, -1342.23, -1418.58, -1507.65, -1335.38, 0.000, 0.000, 0.000, 14:05:48.558
63, -1442.28, -1582.74, -1628.22, -1413.63, 0.000, 0.000, 0.000, 14:05:48.559
64, -1957.21, -2061.00, -2053.25, -1752.39, 0.000, 0.000, 0.000, 14:05:48.559
65, -1794.33, -1874.50, -1865.72, -1633.34, 0.000, 0.000, 0.000, 14:05:48.573
66, -1339.99, -1462.33, -1504.93, -1336.88, 0.000, 0.000, 0.000, 14:05:48.573
67, -1447.90, -1553.58, -1639.37, -1420.86, 0.000, 0.000, 0.000, 14:05:48.588
68, -1958.57, -2071.36, -2022.45, -1759.73, 0.000, 0.000, 0.000, 14:05:48.588
69, -1780.93, -1922.11, -1873.46, -1636.19, 0.000, 0.000, 0.000, 14:05:48.619
70, -1342.63, -1453.15, -1496.37, -1335.12, 0.000, 0.000, 0.000, 14:05:48.619
71, -1447.36, -1577.87, -1652.26, -1418.61, 0.000, 0.000, 0.000, 14:05:48.621
72, -1949.40, -2116.82, -2010.01, -1758.30, 0.000, 0.000, 0.000, 14:05:48.621
73, -1784.65, -1919.26, -1887.88, -1634.41, 0.000, 0.000, 0.000, 14:05:48.621
74, -1337.88, -1431.88, -1508.68, -1334.37, 0.000, 0.000, 0.000, 14:05:48.621
75, -1453.43, -1589.06, -1663.48, -1421.85, 0.000, 0.000, 0.000, 14:05:48.621
76, -1948.27, -2100.22, -2008.39, -1762.06, 0.000, 0.000, 0.000, 14:05:48.621
77, -1786.34, -1880.23, -1880.24, -1633.76, 0.000, 0.000, 0.000, 14:05:48.633
78, -1330.98, -1448.72, -1537.14, -1335.23, 0.000, 0.000, 0.000, 14:05:48.633
79, -1455.83, -1567.03, -1638.66, -1421.45, 0.000, 0.000, 0.000, 14:05:48.663
80, -1960.84, -2134.76, -2086.27, -1758.99, 0.000, 0.000, 0.000, 14:05:48.663
81, -1788.81, -1876.22, -1879.10, -1635.03, 0.000, 0.000, 0.000, 14:05:48.663
82, -1341.88, -1424.37, -1521.04, -1331.14, 0.000, 0.000, 0.000, 14:05:48.663
83, -1458.23, -1581.61, -1658.01, -1415.32, 0.000, 0.000, 0.000, 14:05:48.664
84, -1963.87, -2106.29, -2056.38, -1745.94, 0.000, 0.000, 0.000, 14:05:48.664
85, -1796.15, -1902.53, -1915.04, -1625.47, 0.000, 0.000, 0.000, 14:05:48.678
86, -1329.16, -1453.56, -1511.52, -1324.21, 0.000, 0.000, 0.000, 14:05:48.678
87, -1462.35, -1576.32, -1663.63, -1416.55, 0.000, 0.000, 0.000, 14:05:48.693
88, -1961.92, -2132.86, -2027.40, -1753.63, 0.000, 0.000, 0.000, 14:05:48.693
89, -1796.77, -1947.86, -1877.84, -1634.29, 0.000, 0.000, 0.000, 14:05:48.693
90, -1334.32, -1418.88, -1510.66, -1325.94, 0.000, 0.000, 0.000, 14:05:48.694
91, -1458.67, -1550.30, -1668.31, -1421.69, 0.000, 0.000, 0.000, 14:05:48.723
92, -1956.14, -2127.59, -2045.88, -1753.74, 0.000, 0.000, 0.000, 14:05:48.723
93, -1779.33, -1890.95, -1881.65, -1627.54, 0.000, 0.000, 0.000, 14:05:48.723
94, -1339.43, -1404.12, -1496.21, -1329.85, 0.000, 0.000, 0.000, 14:05:48.724
95, -1455.78, -1601.85, -1653.31, -1421.67, 0.000, 0.000, 0.000, 14:05:48.724
96, -1948.48, -2136.50, -2044.53, -1758.48, 0.000, 0.000, 0.000, 14:05:48.724
97, -1780.96, -1910.74, -1873.14, -1635.86, 0.000, 0.000, 0.000, 14:05:48.738
98, -1330.70, -1447.01, -1512.14, -1329.21, 0.000, 0.000, 0.000, 14:05:48.738
99, -1457.25, -1585.37, -1656.69, -1429.36, 0.000, 0.000, 0.000, 14:05:48.752
100, -1950.12, -2132.07, -2056.75, -1763.92, 0.000, 0.000, 0.000, 14:05:48.752
101, -1781.73, -1876.09, -1871.22, -1639.90, 0.000, 0.000, 0.000, 14:05:48.752
102, -1321.50, -1415.17, -1501.80, -1326.48, 0.000, 0.000, 0.000, 14:05:48.754
103, -1447.52, -1586.27, -1649.86, -1417.03, 0.000, 0.000, 0.000, 14:05:48.783
104, -1950.55, -2125.51, -2058.81, -1750.85, 0.000, 0.000, 0.000, 14:05:48.783
105, -1786.20, -1920.23, -1890.75, -1625.87, 0.000, 0.000, 0.000, 14:05:48.783
106, -1329.35, -1417.18, -1521.44, -1322.10, 0.000, 0.000, 0.000, 14:05:48.784
107, -1471.38, -1569.59, -1674.69, -1417.80, 0.000, 0.000, 0.000, 14:05:48.784
108, -1966.39, -2077.20, -2051.34, -1745.17, 0.000, 0.000, 0.000, 14:05:48.784
109, -1794.44, -1864.06, -1874.46, -1618.74, 0.000, 0.000, 0.000, 14:05:48.798
110, -1328.53, -1387.11, -1500.52, -1318.63, 0.000, 0.000, 0.000, 14:05:48.798
111, -1466.26, -1571.81, -1671.08, -1418.66, 0.000, 0.000, 0.000, 14:05:48.813
112, -1957.80, -2101.66, -2050.39, -1750.34, 0.000, 0.000, 0.000, 14:05:48.813
113, -1782.12, -1901.90, -1865.78, -1626.56, 0.000, 0.000, 0.000, 14:05:48.828
114, -1332.86, -1438.21, -1495.39, -1321.62, 0.000, 0.000, 0.000, 14:05:48.828
115, -1473.35, -1581.60, -1670.91, -1430.81, 0.000, 0.000, 0.000, 14:05:48.828
116, -1959.64, -2104.71, -2033.24, -1758.53, 0.000, 0.000, 0.000, 14:05:48.828
117, -1779.34, -1933.18, -1858.25, -1628.29, 0.000, 0.000, 0.000, 14:05:48.843
118, -1330.02, -1437.10, -1492.32, -1322.93, 0.000, 0.000, 0.000, 14:05:48.843
119, -1464.42, -1596.05, -1661.38, -1426.63, 0.000, 0.000, 0.000, 14:05:48.843
120, -1962.69, -2086.06, -2027.68, -1759.67, 0.000, 0.000, 0.000, 14:05:48.843
121, -1776.73, -1875.01, -1881.89, -1635.99, 0.000, 0.000, 0.000, 14:05:48.857
122, -1331.83, -1391.82, -1507.99, -1329.99, 0.000, 0.000, 0.000, 14:05:48.857
123, -1474.13, -1588.79, -1668.04, -1436.08, 0.000, 0.000, 0.000, 14:05:48.887
124, -1951.12, -2094.41, -2049.40, -1762.12, 0.000, 0.000, 0.000, 14:05:48.887
125, -1777.29, -1896.17, -1871.77, -1629.84, 0.000, 0.000, 0.000, 14:05:48.888
126, -1329.42, -1431.93, -1486.30, -1328.70, 0.000, 0.000, 0.000, 14:05:48.889
127, -1477.27, -1621.57, -1682.99, -1439.25, 0.000, 0.000, 0.000, 14:05:48.889
128, -1958.84, -2066.92, -2034.43, -1760.53, 0.000, 0.000, 0.000, 14:05:48.889
129, -1772.33, -1895.08, -1891.05, -1630.56, 0.000, 0.000, 0.000, 14:05:48.896
130, -1331.69, -1427.90, -1497.19, -1326.06, 0.000, 0.000, 0.000, 14:05:48.896
131, -1472.15, -1573.57, -1674.25, -1432.03, 0.000, 0.000, 0.000, 14:05:48.903
132, -1969.78, -2108.32, -2051.13, -1761.59, 0.000, 0.000, 0.000, 14:05:48.903
133, -1789.56, -1923.94, -1887.69, -1627.52, 0.000, 0.000, 0.000, 14:05:48.917
134, -1337.46, -1447.15, -1508.94, -1326.70, 0.000, 0.000, 0.000, 14:05:48.919
135, -1476.32, -1596.42, -1679.36, -1433.86, 0.000, 0.000, 0.000, 14:05:48.933
136, -1959.46, -2114.79, -2078.52, -1756.20, 0.000, 0.000, 0.000, 14:05:48.933
137, -1778.10, -1885.92, -1843.65, -1619.83, 0.000, 0.000, 0.000, 14:05:48.947
138, -1334.67, -1430.52, -1523.73, -1325.32, 0.000, 0.000, 0.000, 14:05:48.947
139, -1476.79, -1617.18, -1684.73, -1435.42, 0.000, 0.000, 0.000, 14:05:48.949
140, -1955.55, -2083.08, -2043.83, -1754.48, 0.000, 0.000, 0.000, 14:05:48.949
141, -1779.28, -1874.61, -1889.19, -1627.67, 0.000, 0.000, 0.000, 14:05:48.962
142, -1331.22, -1395.30, -1515.85, -1324.08, 0.000, 0.000, 0.000, 14:05:48.962
143, -1480.43, -1590.64, -1694.78, -1439.71, 0.000, 0.000, 0.000, 14:05:48.963
144, -1965.08, -2093.44, -2049.30, -1758.96, 0.000, 0.000, 0.000, 14:05:48.963
145, -1782.92, -1908.23, -1879.32, -1629.45, 0.000, 0.000, 0.000, 14:05:48.977
146, -1327.25, -1448.35, -1492.76, -1326.21, 0.000, 0.000, 0.000, 14:05:48.977
147, -1481.44, -1616.38, -1664.02, -1443.64, 0.000, 0.000, 0.000, 14:05:49.007
148, -1972.90, -2107.72, -2072.07, -1758.03, 0.000, 0.000, 0.000, 14:05:49.007
149, -1778.39, -1883.91, -1846.36, -1623.26, 0.000, 0.000, 0.000, 14:05:49.008
150, -1323.82, -1422.33, -1521.73, -1321.74, 0.000, 0.000, 0.000, 14:05:49.008
151, -1485.82, -1608.60, -1670.21, -1436.94, 0.000, 0.000, 0.000, 14:05:49.008
152, -1973.48, -2070.01, -2068.22, -1766.96, 0.000, 0.000, 0.000, 14:05:49.008
153, -1768.54, -1874.97, -1873.97, -1619.00, 0.000, 0.000, 0.000, 14:05:49.009
154, -1331.12, -1402.02, -1503.44, -1318.74, 0.000, 0.000, 0.000, 14:05:49.009
155, -1485.40, -1602.72, -1676.40, -1440.40, 0.000, 0.000, 0.000, 14:05:49.023
156, -1951.20, -2128.52, -2066.56, -1758.10, 0.000, 0.000, 0.000, 14:05:49.023
157, -1770.14, -1918.31, -1861.28, -1621.19, 0.000, 0.000, 0.000, 14:05:49.038
158, -1318.75, -1383.94, -1485.25, -1321.90, 0.000, 0.000, 0.000, 14:05:49.038
159, -1481.80, -1617.65, -1679.99, -1436.03, 0.000, 0.000, 0.000, 14:05:49.053
160, -1964.56, -2080.33, -2060.26, -1754.38, 0.000, 0.000, 0.000, 14:05:49.053
161, -1771.10, -1922.76, -1869.22, -1623.74, 0.000, 0.000, 0.000, 14:05:49.053
162, -1329.02, -1450.60, -1500.81, -1319.73, 0.000, 0.000, 0.000, 14:05:49.053
163, -1469.32, -1647.74, -1662.92, -1443.25, 0.000, 0.000, 0.000, 14:05:49.067
164, -1941.44, -2124.56, -2049.63, -1753.63, 0.000, 0.000, 0.000, 14:05:49.069
165, -1745.75, -1926.37, -1855.45, -1621.08, 0.000, 0.000, 0.000, 14:05:49.083
166, -1276.76, -1434.70, -1482.17, -1322.16, 0.000, 0.000, 0.000, 14:05:49.083
167, -1430.60, -1599.25, -1670.33, -1439.40, 0.000, 0.000, 0.000, 14:05:49.084
168, -1851.29, -2172.49, -2037.53, -1749.41, 0.000, 0.000, 0.000, 14:05:49.084
169, -1642.00, -1933.46, -1852.91, -1616.87, 0.000, 0.000, 0.000, 14:05:49.112
170, -1144.18, -1521.82, -1497.35, -1313.17, 0.000, 0.000, 0.000, 14:05:49.112
171, -1278.84, -1707.81, -1675.12, -1429.88, 0.000, 0.000, 0.000, 14:05:49.113
172, -1695.74, -2183.16, -2036.54, -1738.38, 0.000, 0.000, 0.000, 14:05:49.113
173, -1474.80, -2028.66, -1814.49, -1607.24, 0.000, 0.000, 0.000, 14:05:49.113
174, -1013.12, -1553.87, -1494.76, -1304.67, 0.000, 0.000, 0.000, 14:05:49.114
175, -1204.80, -1736.37, -1688.21, -1434.88, 0.000, 0.000, 0.000, 14:05:49.127
176, -1703.50, -2235.00, -2047.49, -1744.99, 0.000, 0.000, 0.000, 14:05:49.127
177, -1547.54, -2042.53, -1852.43, -1610.99, 0.000, 0.000, 0.000, 14:05:49.142
178, -1136.54, -1522.22, -1502.52, -1310.48, 0.000, 0.000, 0.000, 14:05:49.142
179, -1354.72, -1690.61, -1700.98, -1435.57, 0.000, 0.000, 0.000, 14:05:49.143
180, -1874.62, -2185.88, -2056.26, -1756.85, 0.000, 0.000, 0.000, 14:05:49.143
181, -1721.94, -1932.11, -1888.83, -1619.10, 0.000, 0.000, 0.000, 14:05:49.173
182, -1316.09, -1436.25, -1502.91, -1324.27, 0.000, 0.000, 0.000, 14:05:49.173
183, -1510.62, -1598.65, -1691.78, -1453.99, 0.000, 0.000, 0.000, 14:05:49.174
184, -2011.28, -2057.02, -2059.81, -1769.54, 0.000, 0.000, 0.000, 14:05:49.174
185, -1837.45, -1863.76, -1869.47, -1631.83, 0.000, 0.000, 0.000, 14:05:49.174
186, -1408.81, -1395.40, -1510.37, -1324.61, 0.000, 0.000, 0.000, 14:05:49.174
187, -1581.40, -1594.53, -1701.14, -1455.73, 0.000, 0.000, 0.000, 14:05:49.219
188, -2076.42, -2050.86, -2048.80, -1770.00, 0.000, 0.000, 0.000, 14:05:49.219
189, -1876.02, -1833.42, -1868.52, -1627.52, 0.000, 0.000, 0.000, 14:05:49.220
190, -1428.74, -1372.01, -1496.63, -1324.74, 0.000, 0.000, 0.000, 14:05:49.220
191, -1616.83, -1594.40, -1697.52, -1457.33, 0.000, 0.000, 0.000, 14:05:49.220
192, -2077.47, -2047.31, -2050.71, -1767.59, 0.000, 0.000, 0.000, 14:05:49.220
193, -1875.76, -1814.05, -1854.58, -1627.17, 0.000, 0.000, 0.000, 14:05:49.221
194, -1425.16, -1365.08, -1493.02, -1322.34, 0.000, 0.000, 0.000, 14:05:49.221
195, -1585.70, -1545.67, -1690.70, -1451.56, 0.000, 0.000, 0.000, 14:05:49.221
196, -2059.86, -2035.49, -2067.44, -1766.34, 0.000, 0.000, 0.000, 14:05:49.221
197, -1866.06, -1831.23, -1885.83, -1621.90, 0.000, 0.000, 0.000, 14:05:49.233
198, -1408.32, -1364.42, -1484.20, -1317.74, 0.000, 0.000, 0.000, 14:05:49.233
199, -1581.11, -1572.32, -1661.46, -1448.65, 0.000, 0.000, 0.000, 14:05:49.247
200, -2036.28, -2054.27, -2043.39, -1762.33, 0.000, 0.000, 0.000, 14:05:49.248
0, -1842.80, -1829.58, -1867.00, -1619.68, 0.000, 0.000, 0.000, 14:05:49.248
1, -1387.69, -1359.23, -1489.27, -1318.97, 0.000, 0.000, 0.000, 14:05:49.262
2, -1583.13, -1583.12, -1706.13, -1457.10, 0.000, 0.000, 0.000, 14:05:49.262
3, -2036.61, -2042.37, -2047.68, -1765.84, 0.000, 0.000, 0.000, 14:05:49.278
4, -1834.33, -1845.75, -1856.89, -1621.00, 0.000, 0.000, 0.000, 14:05:49.278
5, -1388.46, -1394.59, -1509.53, -1324.09, 0.000, 0.000, 0.000, 14:05:49.278
6, -1570.11, -1605.08, -1695.82, -1453.70, 0.000, 0.000, 0.000, 14:05:49.278
7, -2014.58, -2081.90, -2059.66, -1765.86, 0.000, 0.000, 0.000, 14:05:49.293
8, -1828.51, -1863.89, -1853.85, -1624.85, 0.000, 0.000, 0.000, 14:05:49.293
9, -1371.20, -1377.63, -1498.09, -1327.20, 0.000, 0.000, 0.000, 14:05:49.308
10, -1558.42, -1601.19, -1700.81, -1458.98, 0.000, 0.000, 0.000, 14:05:49.308
11, -2009.78, -2046.66, -2066.67, -1762.63, 0.000, 0.000, 0.000, 14:05:49.310
12, -1802.08, -1857.82, -1871.80, -1623.35, 0.000, 0.000, 0.000, 14:05:49.310
13, -1344.76, -1406.08, -1501.25, -1320.94, 0.000, 0.000, 0.000, 14:05:49.338
14, -1543.41, -1606.29, -1696.73, -1466.75, 0.000, 0.000, 0.000, 14:05:49.338
15, -2003.88, -2078.61, -2061.71, -1766.44, 0.000, 0.000, 0.000, 14:05:49.339
16, -1786.79, -1845.66, -1831.57, -1616.31, 0.000, 0.000, 0.000, 14:05:49.339
17, -1337.38, -1381.40, -1470.87, -1315.03, 0.000, 0.000, 0.000, 14:05:49.345
18, -1527.20, -1601.38, -1684.46, -1454.79, 0.000, 0.000, 0.000, 14:05:49.345
19, -1967.52, -2093.39, -2051.10, -1761.54, 0.000, 0.000, 0.000, 14:05:49.353
20, -1783.06, -1860.93, -1851.96, -1617.94, 0.000, 0.000, 0.000, 14:05:49.353
21, -1323.54, -1386.60, -1486.47, -1315.10, 0.000, 0.000, 0.000, 14:05:49.368
22, -1525.99, -1617.29, -1708.39, -1459.14, 0.000, 0.000, 0.000, 14:05:49.369
23, -1967.47, -2066.60, -2036.82, -1754.55, 0.000, 0.000, 0.000, 14:05:49.369
24, -1768.59, -1876.09, -1842.46, -1613.12, 0.000, 0.000, 0.000, 14:05:49.369
25, -1315.08, -1382.26, -1487.52, -1313.61, 0.000, 0.000, 0.000, 14:05:49.383
26, -1522.69, -1630.92, -1699.30, -1458.50, 0.000, 0.000, 0.000, 14:05:49.383
27, -1975.50, -2116.50, -2059.30, -1768.45, 0.000, 0.000, 0.000, 14:05:49.397
28, -1776.28, -1851.19, -1845.84, -1614.76, 0.000, 0.000, 0.000, 14:05:49.397
29, -1326.63, -1396.42, -1498.18, -1318.95, 0.000, 0.000, 0.000, 14:05:49.398
30, -1525.83, -1624.73, -1712.35, -1458.97, 0.000, 0.000, 0.000, 14:05:49.398
31, -1980.39, -2117.39, -2031.45, -1764.99, 0.000, 0.000, 0.000, 14:05:49.412
32, -1774.26, -1886.84, -1868.95, -1618.02, 0.000, 0.000, 0.000, 14:05:49.412
33, -1327.34, -1414.43, -1491.15, -1322.25, 0.000, 0.000, 0.000, 14:05:49.428
34, -1520.12, -1629.85, -1713.34, -1460.18, 0.000, 0.000, 0.000, 14:05:49.428
35, -1990.51, -2102.72, -2046.30, -1763.01, 0.000, 0.000, 0.000, 14:05:49.442
36, -1771.33, -1860.82, -1849.91, -1610.56, 0.000, 0.000, 0.000, 14:05:49.442
37, -1316.99, -1397.85, -1499.82, -1312.11, 0.000, 0.000, 0.000, 14:05:49.443
38, -1530.49, -1644.00, -1707.82, -1456.70, 0.000, 0.000, 0.000, 14:05:49.443
39, -1975.70, -2087.66, -2071.61, -1751.40, 0.000, 0.000, 0.000, 14:05:49.457
40, -1764.73, -1880.52, -1840.75, -1611.79, 0.000, 0.000, 0.000, 14:05:49.457
41, -1321.29, -1405.67, -1490.30, -1307.97, 0.000, 0.000, 0.000, 14:05:49.457
42, -1522.17, -1619.62, -1719.99, -1460.04, 0.000, 0.000, 0.000, 14:05:49.458
43, -1973.53, -2083.76, -2043.50, -1755.91, 0.000, 0.000, 0.000, 14:05:49.473
44, -1761.69, -1868.16, -1849.07, -1609.47, 0.000, 0.000, 0.000, 14:05:49.473
45, -1314.36, -1406.75, -1490.40, -1308.39, 0.000, 0.000, 0.000, 14:05:49.488
46, -1520.04, -1633.64, -1708.20, -1459.05, 0.000, 0.000, 0.000, 14:05:49.488
47, -1968.89, -2070.29, -2077.78, -1757.00, 0.000, 0.000, 0.000, 14:05:49.489
48, -1753.77, -1869.93, -1847.17, -1611.48, 0.000, 0.000, 0.000, 14:05:49.489
49, -1316.71, -1392.50, -1499.18, -1317.42, 0.000, 0.000, 0.000, 14:05:49.503
50, -1529.42, -1654.61, -1701.75, -1471.62, 0.000, 0.000, 0.000, 14:05:49.503
51, -1967.30, -2059.36, -2037.28, -1762.35, 0.000, 0.000, 0.000, 14:05:49.519
52, -1759.99, -1885.30, -1836.11, -1611.84, 0.000, 0.000, 0.000, 14:05:49.519
53, -1310.95, -1402.12, -1480.26, -1314.16, 0.000, 0.000, 0.000, 14:05:49.519
54, -1520.90, -1658.93, -1706.35, -1466.64, 0.000, 0.000, 0.000, 14:05:49.519
55, -1971.39, -2127.19, -2039.96, -1762.66, 0.000, 0.000, 0.000, 14:05:49.532
56, -1761.36, -1888.51, -1842.55, -1612.46, 0.000, 0.000, 0.000, 14:05:49.533
57, -1317.31, -1384.45, -1499.78, -1313.13, 0.000, 0.000, 0.000, 14:05:49.547
58, -1537.17, -1643.99, -1716.30, -1471.61, 0.000, 0.000, 0.000, 14:05:49.547
59, -1976.54, -2099.00, -2049.41, -1764.11, 0.000, 0.000, 0.000, 14:05:49.562
60, -1760.30, -1848.31, -1855.81, -1611.23, 0.000, 0.000, 0.000, 14:05:49.562
61, -1310.69, -1418.11, -1492.64, -1316.18, 0.000, 0.000, 0.000, 14:05:49.563
62, -1515.18, -1635.27, -1710.05, -1469.86, 0.000, 0.000, 0.000, 14:05:49.563
63, -1957.20, -2114.54, -2044.30, -1760.68, 0.000, 0.000, 0.000, 14:05:49.578
64, -1738.58, -1889.16, -1835.37, -1603.48, 0.000, 0.000, 0.000, 14:05:49.578
65, -1296.55, -1382.46, -1481.75, -1308.00, 0.000, 0.000, 0.000, 14:05:49.593
66, -1515.73, -1649.67, -1700.11, -1470.68, 0.000, 0.000, 0.000, 14:05:49.593
67, -1963.26, -2089.89, -2046.24, -1758.06, 0.000, 0.000, 0.000, 14:05:49.593
68, -1748.97, -1873.58, -1845.72, -1609.54, 0.000, 0.000, 0.000, 14:05:49.593
69, -1300.01, -1410.20, -1489.75, -1313.58, 0.000, 0.000, 0.000, 14:05:49.607
70, -1532.09, -1615.60, -1726.23, -1469.94, 0.000, 0.000, 0.000, 14:05:49.607
71, -1964.88, -2117.15, -2056.50, -1761.66, 0.000, 0.000, 0.000, 14:05:49.608
72, -1749.57, -1822.41, -1840.79, -1611.59, 0.000, 0.000, 0.000, 14:05:49.608
73, -1300.31, -1388.48, -1480.92, -1314.61, 0.000, 0.000, 0.000, 14:05:49.623
74, -1524.06, -1646.38, -1722.52, -1470.31, 0.000, 0.000, 0.000, 14:05:49.623
75, -1962.15, -2088.27, -2053.06, -1763.02, 0.000, 0.000, 0.000, 14:05:49.638
76, -1754.19, -1890.10, -1843.52, -1613.27, 0.000, 0.000, 0.000, 14:05:49.638
77, -1307.43, -1406.07, -1480.61, -1309.66, 0.000, 0.000, 0.000, 14:05:49.639
78, -1533.67, -1678.40, -1713.79, -1469.68, 0.000, 0.000, 0.000, 14:05:49.639
79, -1960.90, -2102.42, -2045.04, -1760.02, 0.000, 0.000, 0.000, 14:05:49.669
80, -1738.39, -1848.00, -1830.81, -1607.31, 0.000, 0.000, 0.000, 14:05:49.669
81, -1297.60, -1377.97, -1481.33, -1308.51, 0.000, 0.000, 0.000, 14:05:49.670
82, -1530.71, -1617.10, -1719.40, -1472.57, 0.000, 0.000, 0.000, 14:05:49.670
83, -1963.78, -2079.01, -2058.47, -1760.02, 0.000, 0.000, 0.000, 14:05:49.670
84, -1742.11, -1826.94, -1846.37, -1602.55, 0.000, 0.000, 0.000, 14:05:49.670
85, -1290.24, -1358.57, -1483.37, -1301.32, 0.000, 0.000, 0.000, 14:05:49.697
86, -1527.37, -1683.76, -1723.91, -1467.37, 0.000, 0.000, 0.000, 14:05:49.697
87, -1970.10, -2138.03, -2050.99, -1759.28, 0.000, 0.000, 0.000, 14:05:49.697
88, -1755.35, -1871.88, -1836.27, -1603.67, 0.000, 0.000, 0.000, 14:05:49.698
89, -1302.88, -1386.58, -1482.74, -1309.74, 0.000, 0.000, 0.000, 14:05:49.699
90, -1539.25, -1675.35, -1730.40, -1483.31, 0.000, 0.000, 0.000, 14:05:49.699
91, -1973.52, -2091.89, -2049.54, -1770.10, 0.000, 0.000, 0.000, 14:05:49.728
92, -1747.95, -1872.94, -1845.45, -1608.92, 0.000, 0.000, 0.000, 14:05:49.728
93, -1302.88, -1386.88, -1488.91, -1306.37, 0.000, 0.000, 0.000, 14:05:49.728
94, -1538.75, -1661.45, -1721.73, -1470.26, 0.000, 0.000, 0.000, 14:05:49.728
95, -1972.11, -2091.06, -2050.89, -1764.64, 0.000, 0.000, 0.000, 14:05:49.729
96, -1747.28, -1841.04, -1840.68, -1603.14, 0.000, 0.000, 0.000, 14:05:49.729
97, -1302.78, -1392.85, -1485.78, -1313.83, 0.000, 0.000, 0.000, 14:05:49.742
98, -1539.01, -1669.64, -1730.43, -1482.52, 0.000, 0.000, 0.000, 14:05:49.742
99, -1966.99, -2101.53, -2055.76, -1767.19, 0.000, 0.000, 0.000, 14:05:49.788
100, -1744.51, -1864.61, -1833.90, -1607.84, 0.000, 0.000, 0.000, 14:05:49.788
101, -1304.13, -1393.21, -1483.57, -1311.67, 0.000, 0.000, 0.000, 14:05:49.789
102, -1533.56, -1685.92, -1729.14, -1478.71, 0.000, 0.000, 0.000, 14:05:49.789
103, -1974.08, -2137.07, -2051.45, -1768.16, 0.000, 0.000, 0.000, 14:05:49.790
104, -1736.53, -1855.95, -1840.29, -1609.55, 0.000, 0.000, 0.000, 14:05:49.790
105, -1296.09, -1371.68, -1472.66, -1307.04, 0.000, 0.000, 0.000, 14:05:49.790
106, -1531.67, -1641.72, -1722.28, -1472.48, 0.000, 0.000, 0.000, 14:05:49.790
107, -1957.94, -2104.55, -2050.49, -1759.71, 0.000, 0.000, 0.000, 14:05:49.790
108, -1737.06, -1846.88, -1840.81, -1604.24, 0.000, 0.000, 0.000, 14:05:49.791
109, -1285.25, -1385.04, -1476.51, -1296.99, 0.000, 0.000, 0.000, 14:05:49.803
110, -1524.99, -1656.62, -1723.25, -1478.77, 0.000, 0.000, 0.000, 14:05:49.803
111, -1949.71, -2098.48, -2052.91, -1761.60, 0.000, 0.000, 0.000, 14:05:49.818
112, -1741.21, -1870.55, -1835.46, -1603.09, 0.000, 0.000, 0.000, 14:05:49.818
113, -1298.15, -1390.18, -1487.65, -1304.59, 0.000, 0.000, 0.000, 14:05:49.819
114, -1540.56, -1666.81, -1735.11, -1478.55, 0.000, 0.000, 0.000, 14:05:49.819
115, -1963.32, -2097.70, -2056.09, -1763.19, 0.000, 0.000, 0.000, 14:05:49.832
116, -1737.38, -1848.12, -1833.99, -1601.46, 0.000, 0.000, 0.000, 14:05:49.832
117, -1301.00, -1402.98, -1480.11, -1304.80, 0.000, 0.000, 0.000, 14:05:49.847
118, -1538.11, -1678.06, -1726.68, -1480.90, 0.000, 0.000, 0.000, 14:05:49.848
119, -1962.57, -2113.38, -2056.79, -1764.07, 0.000, 0.000, 0.000, 14:05:49.848
120, -1732.88, -1859.92, -1810.77, -1600.07, 0.000, 0.000, 0.000, 14:05:49.848
121, -1290.16, -1380.23, -1478.69, -1303.37, 0.000, 0.000, 0.000, 14:05:49.862
122, -1545.42, -1666.87, -1724.09, -1486.68, 0.000, 0.000, 0.000, 14:05:49.862
123, -1964.97, -2116.60, -2062.20, -1763.61, 0.000, 0.000, 0.000, 14:05:49.878
124, -1735.86, -1851.14, -1834.55, -1598.75, 0.000, 0.000, 0.000, 14:05:49.878
125, -1290.86, -1380.60, -1478.78, -1305.61, 0.000, 0.000, 0.000, 14:05:49.892
126, -1539.09, -1689.11, -1732.56, -1480.33, 0.000, 0.000, 0.000, 14:05:49.892
127, -1958.07, -2117.40, -2023.40, -1760.35, 0.000, 0.000, 0.000, 14:05:49.893
128, -1726.50, -1870.09, -1855.12, -1598.37, 0.000, 0.000, 0.000, 14:05:49.893
129, -1286.71, -1387.33, -1483.59, -1301.81, 0.000, 0.000, 0.000, 14:05:49.907
130, -1532.85, -1657.80, -1741.29, -1479.75, 0.000, 0.000, 0.000, 14:05:49.908
131, -1977.41, -2094.71, -2051.14, -1758.00, 0.000, 0.000, 0.000, 14:05:49.908
132, -1735.29, -1831.48, -1829.36, -1599.46, 0.000, 0.000, 0.000, 14:05:49.908
133, -1294.82, -1380.48, -1471.22, -1303.51, 0.000, 0.000, 0.000, 14:05:49.923
134, -1551.48, -1672.65, -1731.07, -1479.84, 0.000, 0.000, 0.000, 14:05:49.923
135, -1969.70, -2131.22, -2049.15, -1760.91, 0.000, 0.000, 0.000, 14:05:49.938
136, -1740.91, -1845.33, -1842.74, -1593.80, 0.000, 0.000, 0.000, 14:05:49.938
137, -1288.17, -1379.88, -1478.18, -1300.81, 0.000, 0.000, 0.000, 14:05:49.939
138, -1540.17, -1673.21, -1723.32, -1486.18, 0.000, 0.000, 0.000, 14:05:49.939
139, -1962.13, -2102.63, -2041.92, -1760.51, 0.000, 0.000, 0.000, 14:05:49.953
140, -1734.42, -1864.46, -1828.26, -1597.55, 0.000, 0.000, 0.000, 14:05:49.953
141, -1283.35, -1389.57, -1482.47, -1300.63, 0.000, 0.000, 0.000, 14:05:49.967
142, -1543.72, -1690.49, -1734.85, -1487.15, 0.000, 0.000, 0.000, 14:05:49.969
143, -1954.44, -2119.58, -2046.71, -1762.31, 0.000, 0.000, 0.000, 14:05:49.969
144, -1710.29, -1880.12, -1831.35, -1591.65, 0.000, 0.000, 0.000, 14:05:49.969
145, -1286.86, -1411.37, -1477.19, -1303.30, 0.000, 0.000, 0.000, 14:05:49.982
146, -1500.60, -1702.75, -1740.38, -1482.48, 0.000, 0.000, 0.000, 14:05:49.983
147, -1910.17, -2126.81, -2041.67, -1754.82, 0.000, 0.000, 0.000, 14:05:49.998
148, -1656.30, -1875.97, -1833.62, -1592.77, 0.000, 0.000, 0.000, 14:05:49.998
149, -1200.72, -1436.57, -1473.11, -1293.10, 0.000, 0.000, 0.000, 14:05:49.999
150, -1416.57, -1754.79, -1735.87, -1473.80, 0.000, 0.000, 0.000, 14:05:49.999
151, -1787.23, -2169.23, -2031.72, -1739.24, 0.000, 0.000, 0.000, 14:05:50.013
152, -1520.23, -1921.76, -1801.46, -1577.54, 0.000, 0.000, 0.000, 14:05:50.013
153, -1046.21, -1487.00, -1462.96, -1284.70, 0.000, 0.000, 0.000, 14:05:50.028
154, -1283.78, -1800.47, -1735.40, -1472.18, 0.000, 0.000, 0.000, 14:05:50.028
155, -1671.84, -2246.14, -2038.28, -1748.46, 0.000, 0.000, 0.000, 14:05:50.028
156, -1447.53, -1986.85, -1814.70, -1581.41, 0.000, 0.000, 0.000, 14:05:50.028
157, -1030.79, -1522.04, -1469.84, -1287.46, 0.000, 0.000, 0.000, 14:05:50.042
158, -1316.26, -1805.72, -1732.19, -1476.94, 0.000, 0.000, 0.000, 14:05:50.043
159, -1786.80, -2220.61, -2037.66, -1758.24, 0.000, 0.000, 0.000, 14:05:50.057
160, -1607.03, -1948.83, -1831.46, -1600.17, 0.000, 0.000, 0.000, 14:05:50.057
161, -1204.74, -1440.51, -1486.06, -1303.54, 0.000, 0.000, 0.000, 14:05:50.058
162, -1529.21, -1713.81, -1751.72, -1493.40, 0.000, 0.000, 0.000, 14:05:50.058
163, -1963.91, -2140.12, -2059.43, -1772.31, 0.000, 0.000, 0.000, 14:05:50.072
164, -1756.21, -1865.74, -1831.42, -1608.88, 0.000, 0.000, 0.000, 14:05:50.073
165, -1338.46, -1403.50, -1492.81, -1307.78, 0.000, 0.000, 0.000, 14:05:50.087
166, -1621.93, -1652.45, -1758.27, -1507.55, 0.000, 0.000, 0.000, 14:05:50.088
167, -2048.92, -2107.09, -2043.31, -1774.71, 0.000, 0.000, 0.000, 14:05:50.088
168, -1817.22, -1842.29, -1842.55, -1608.48, 0.000, 0.000, 0.000, 14:05:50.089
169, -1392.73, -1333.45, -1490.64, -1313.42, 0.000, 0.000, 0.000, 14:05:50.118
170, -1671.73, -1608.22, -1771.57, -1507.22, 0.000, 0.000, 0.000, 14:05:50.118
171, -2058.45, -2042.14, -2057.96, -1766.23, 0.000, 0.000, 0.000, 14:05:50.119
172, -1832.40, -1735.13, -1827.03, -1598.17, 0.000, 0.000, 0.000, 14:05:50.119
173, -1389.88, -1318.39, -1487.55, -1308.61, 0.000, 0.000, 0.000, 14:05:50.119
174, -1658.43, -1655.66, -1771.85, -1501.71, 0.000, 0.000, 0.000, 14:05:50.119
175, -2071.50, -2049.16, -2044.93, -1767.32, 0.000, 0.000, 0.000, 14:05:50.133
176, -1814.29, -1785.18, -1825.77, -1597.07, 0.000, 0.000, 0.000, 14:05:50.133
177, -1381.85, -1341.60, -1466.36, -1300.43, 0.000, 0.000, 0.000, 14:05:50.147
178, -1653.14, -1649.70, -1754.89, -1501.25, 0.000, 0.000, 0.000, 14:05:50.147
179, -2054.89, -2066.12, -2048.55, -1762.35, 0.000, 0.000, 0.000, 14:05:50.148
180, -1807.96, -1804.29, -1823.49, -1596.09, 0.000, 0.000, 0.000, 14:05:50.148
181, -1360.16, -1340.00, -1480.65, -1309.19, 0.000, 0.000, 0.000, 14:05:50.162
182, -1643.24, -1653.84, -1761.30, -1506.47, 0.000, 0.000, 0.000, 14:05:50.162
183, -2041.35, -2043.31, -2049.93, -1771.15, 0.000, 0.000, 0.000, 14:05:50.177
184, -1796.74, -1782.36, -1823.18, -1597.44, 0.000, 0.000, 0.000, 14:05:50.177
185, -1346.54, -1322.44, -1475.28, -1303.00, 0.000, 0.000, 0.000, 14:05:50.178
186, -1635.05, -1654.17, -1763.99, -1502.30, 0.000, 0.000, 0.000, 14:05:50.178
187, -2027.42, -2064.85, -2057.53, -1763.04, 0.000, 0.000, 0.000, 14:05:50.192
188, -1781.27, -1798.39, -1830.59, -1596.96, 0.000, 0.000, 0.000, 14:05:50.192
189, -1341.58, -1364.26, -1482.82, -1300.35, 0.000, 0.000, 0.000, 14:05:50.207
190, -1604.31, -1660.69, -1758.07, -1499.84, 0.000, 0.000, 0.000, 14:05:50.207
191, -2004.25, -2079.22, -2046.51, -1763.66, 0.000, 0.000, 0.000, 14:05:50.208
192, -1776.90, -1802.56, -1834.68, -1594.22, 0.000, 0.000, 0.000, 14:05:50.208
193, -1336.52, -1356.73, -1479.58, -1301.23, 0.000, 0.000, 0.000, 14:05:50.222
194, -1610.05, -1683.75, -1755.73, -1499.33, 0.000, 0.000, 0.000, 14:05:50.222
195, -2006.46, -2092.56, -2056.28, -1764.62, 0.000, 0.000, 0.000, 14:05:50.238
196, -1759.31, -1835.33, -1822.91, -1595.48, 0.000, 0.000, 0.000, 14:05:50.239
197, -1310.24, -1371.36, -1469.43, -1297.00, 0.000, 0.000, 0.000, 14:05:50.239
198, -1620.48, -1692.68, -1764.83, -1506.96, 0.000, 0.000, 0.000, 14:05:50.239
199, -1998.46, -2095.39, -2063.92, -1769.51, 0.000, 0.000, 0.000, 14:05:50.252
200, -1747.46, -1828.06, -1832.29, -1595.98, 0.000, 0.000, 0.000, 14:05:50.252
0, -1304.36, -1355.18, -1474.83, -1298.82, 0.000, 0.000, 0.000, 14:05:50.252
1, -1591.99, -1675.65, -1769.30, -1501.64, 0.000, 0.000, 0.000, 14:05:50.268
2, -1973.66, -2091.05, -2034.20, -1760.95, 0.000, 0.000, 0.000, 14:05:50.268
3, -1726.49, -1825.80, -1820.14, -1590.96, 0.000, 0.000, 0.000, 14:05:50.282
4, -1301.82, -1346.03, -1474.74, -1298.01, 0.000, 0.000, 0.000, 14:05:50.282
5, -1584.25, -1696.27, -1765.66, -1506.26, 0.000, 0.000, 0.000, 14:05:50.284
6, -1973.25, -2091.69, -2039.53, -1763.35, 0.000, 0.000, 0.000, 14:05:50.284
7, -1713.65, -1821.47, -1804.85, -1590.87, 0.000, 0.000, 0.000, 14:05:50.298
8, -1290.33, -1359.90, -1493.75, -1296.07, 0.000, 0.000, 0.000, 14:05:50.298
9, -1578.28, -1729.42, -1742.19, -1500.81, 0.000, 0.000, 0.000, 14:05:50.313
10, -1972.69, -2066.42, -2052.51, -1766.61, 0.000, 0.000, 0.000, 14:05:50.313
11, -1727.73, -1817.98, -1843.52, -1592.66, 0.000, 0.000, 0.000, 14:05:50.313
12, -1285.24, -1363.08, -1457.54, -1293.06, 0.000, 0.000, 0.000, 14:05:50.313
13, -1572.63, -1699.27, -1791.69, -1505.76, 0.000, 0.000, 0.000, 14:05:50.327
14, -1966.99, -2108.65, -2042.64, -1769.76, 0.000, 0.000, 0.000, 14:05:50.327
15, -1723.80, -1841.40, -1802.84, -1592.80, 0.000, 0.000, 0.000, 14:05:50.342
16, -1278.51, -1379.10, -1468.64, -1294.07, 0.000, 0.000, 0.000, 14:05:50.342
17, -1589.25, -1703.26, -1753.33, -1514.22, 0.000, 0.000, 0.000, 14:05:50.343
18, -1976.64, -2121.82, -2049.13, -1772.85, 0.000, 0.000, 0.000, 14:05:50.343
19, -1723.87, -1827.92, -1824.72, -1595.11, 0.000, 0.000, 0.000, 14:05:50.358
20, -1283.79, -1386.99, -1489.79, -1299.01, 0.000, 0.000, 0.000, 14:05:50.358
21, -1575.60, -1713.19, -1749.49, -1510.70, 0.000, 0.000, 0.000, 14:05:50.372
22, -1969.32, -2120.52, -2051.99, -1772.16, 0.000, 0.000, 0.000, 14:05:50.372
23, -1714.61, -1816.25, -1803.47, -1583.54, 0.000, 0.000, 0.000, 14:05:50.373
24, -1274.76, -1367.32, -1440.82, -1287.21, 0.000, 0.000, 0.000, 14:05:50.373
25, -1579.87, -1703.66, -1752.45, -1499.71, 0.000, 0.000, 0.000, 14:05:50.388
26, -1967.42, -2102.98, -2045.17, -1766.87, 0.000, 0.000, 0.000, 14:05:50.388
27, -1716.39, -1828.77, -1812.88, -1581.85, 0.000, 0.000, 0.000, 14:05:50.403
28, -1274.66, -1359.29, -1454.67, -1284.30, 0.000, 0.000, 0.000, 14:05:50.403
29, -1577.28, -1708.42, -1778.42, -1504.10, 0.000, 0.000, 0.000, 14:05:50.403
30, -1977.03, -2127.64, -2016.29, -1767.68, 0.000, 0.000, 0.000, 14:05:50.403
31, -1710.45, -1820.67, -1830.16, -1579.40, 0.000, 0.000, 0.000, 14:05:50.419
32, -1276.84, -1365.96, -1459.61, -1287.44, 0.000, 0.000, 0.000, 14:05:50.419
33, -1581.58, -1722.01, -1739.85, -1509.81, 0.000, 0.000, 0.000, 14:05:50.448
34, -1966.99, -2098.39, -2076.24, -1766.36, 0.000, 0.000, 0.000, 14:05:50.448
35, -1723.71, -1814.67, -1826.98, -1587.66, 0.000, 0.000, 0.000, 14:05:50.448
36, -1278.65, -1349.18, -1487.70, -1292.74, 0.000, 0.000, 0.000, 14:05:50.448
37, -1591.41, -1716.65, -1774.26, -1511.07, 0.000, 0.000, 0.000, 14:05:50.449
38, -1973.35, -2111.58, -2070.63, -1767.27, 0.000, 0.000, 0.000, 14:05:50.450
39, -1714.57, -1833.67, -1801.02, -1589.80, 0.000, 0.000, 0.000, 14:05:50.450
40, -1276.53, -1380.70, -1453.08, -1291.92, 0.000, 0.000, 0.000, 14:05:50.450
41, -1588.48, -1709.53, -1775.87, -1509.46, 0.000, 0.000, 0.000, 14:05:50.463
42, -1970.91, -2112.22, -2054.85, -1767.78, 0.000, 0.000, 0.000, 14:05:50.463
43, -1714.19, -1807.12, -1810.80, -1587.12, 0.000, 0.000, 0.000, 14:05:50.478
44, -1277.78, -1366.00, -1460.74, -1289.89, 0.000, 0.000, 0.000, 14:05:50.478
45, -1594.49, -1722.35, -1784.52, -1515.47, 0.000, 0.000, 0.000, 14:05:50.492
46, -1971.23, -2116.09, -2058.00, -1766.07, 0.000, 0.000, 0.000, 14:05:50.493
47, -1718.03, -1816.01, -1825.74, -1583.35, 0.000, 0.000, 0.000, 14:05:50.493
48, -1275.21, -1374.58, -1467.00, -1293.12, 0.000, 0.000, 0.000, 14:05:50.493
49, -1588.79, -1714.90, -1769.15, -1517.09, 0.000, 0.000, 0.000, 14:05:50.507
50, -1963.95, -2112.78, -2054.34, -1762.45, 0.000, 0.000, 0.000, 14:05:50.507
51, -1700.88, -1794.91, -1832.33, -1581.76, 0.000, 0.000, 0.000, 14:05:50.522
52, -1268.45, -1369.12, -1461.71, -1287.22, 0.000, 0.000, 0.000, 14:05:50.522
53, -1589.16, -1728.72, -1764.87, -1517.83, 0.000, 0.000, 0.000, 14:05:50.529
54, -1973.52, -2117.17, -2070.83, -1770.92, 0.000, 0.000, 0.000, 14:05:50.529
55, -1709.61, -1826.23, -1821.38, -1584.05, 0.000, 0.000, 0.000, 14:05:50.538
56, -1276.14, -1381.59, -1462.19, -1288.17, 0.000, 0.000, 0.000, 14:05:50.538
57, -1594.22, -1734.11, -1778.96, -1515.29, 0.000, 0.000, 0.000, 14:05:50.552
58, -1972.93, -2098.08, -2060.99, -1770.48, 0.000, 0.000, 0.000, 14:05:50.552
59, -1714.95, -1832.45, -1797.95, -1587.78, 0.000, 0.000, 0.000, 14:05:50.553
60, -1274.86, -1367.90, -1479.13, -1290.91, 0.000, 0.000, 0.000, 14:05:50.553
61, -1590.46, -1727.23, -1772.94, -1518.00, 0.000, 0.000, 0.000, 14:05:50.568
62, -1974.80, -2110.76, -2064.10, -1762.48, 0.000, 0.000, 0.000, 14:05:50.568
63, -1711.50, -1814.97, -1803.92, -1576.84, 0.000, 0.000, 0.000, 14:05:50.583
64, -1282.36, -1368.23, -1465.63, -1281.91, 0.000, 0.000, 0.000, 14:05:50.583
65, -1599.22, -1722.75, -1779.30, -1513.34, 0.000, 0.000, 0.000, 14:05:50.583
66, -1966.55, -2102.33, -2074.37, -1761.80, 0.000, 0.000, 0.000, 14:05:50.584
67, -1707.16, -1815.34, -1808.01, -1578.64, 0.000, 0.000, 0.000, 14:05:50.613
68, -1268.50, -1358.76, -1456.48, -1287.12, 0.000, 0.000, 0.000, 14:05:50.613
69, -1595.81, -1730.74, -1769.37, -1512.74, 0.000, 0.000, 0.000, 14:05:50.613
70, -1971.90, -2085.92, -2065.69, -1765.70, 0.000, 0.000, 0.000, 14:05:50.613
71, -1711.86, -1822.56, -1819.73, -1586.84, 0.000, 0.000, 0.000, 14:05:50.614
72, -1276.54, -1369.50, -1472.10, -1287.95, 0.000, 0.000, 0.000, 14:05:50.614
73, -1605.46, -1730.16, -1782.55, -1517.96, 0.000, 0.000, 0.000, 14:05:50.627
74, -1970.79, -2105.61, -2028.25, -1774.59, 0.000, 0.000, 0.000, 14:05:50.627
75, -1706.26, -1811.98, -1817.57, -1581.01, 0.000, 0.000, 0.000, 14:05:50.642
76, -1273.02, -1367.66, -1468.20, -1285.79, 0.000, 0.000, 0.000, 14:05:50.642
77, -1599.93, -1725.49, -1776.20, -1520.49, 0.000, 0.000, 0.000, 14:05:50.643
78, -1968.59, -2102.24, -2042.94, -1768.33, 0.000, 0.000, 0.000, 14:05:50.643
79, -1698.25, -1828.58, -1812.19, -1576.87, 0.000, 0.000, 0.000, 14:05:50.658
80, -1276.38, -1371.54, -1457.97, -1292.73, 0.000, 0.000, 0.000, 14:05:50.658
81, -1597.68, -1719.74, -1781.89, -1525.39, 0.000, 0.000, 0.000, 14:05:50.672
82, -1961.30, -2118.80, -2041.77, -1766.51, 0.000, 0.000, 0.000, 14:05:50.672
83, -1706.92, -1792.95, -1798.94, -1576.22, 0.000, 0.000, 0.000, 14:05:50.673
84, -1264.78, -1354.15, -1482.45, -1288.23, 0.000, 0.000, 0.000, 14:05:50.673
85, -1602.49, -1755.43, -1794.87, -1528.68, 0.000, 0.000, 0.000, 14:05:50.703
86, -1953.12, -2117.38, -2056.92, -1764.13, 0.000, 0.000, 0.000, 14:05:50.703
87, -1701.58, -1805.59, -1785.42, -1571.03, 0.000, 0.000, 0.000, 14:05:50.703
88, -1275.79, -1373.21, -1439.81, -1287.64, 0.000, 0.000, 0.000, 14:05:50.703
89, -1596.33, -1740.70, -1791.26, -1527.94, 0.000, 0.000, 0.000, 14:05:50.704
90, -1956.10, -2113.77, -2051.68, -1766.41, 0.000, 0.000, 0.000, 14:05:50.704
91, -1698.13, -1812.33, -1804.24, -1580.95, 0.000, 0.000, 0.000, 14:05:50.718
92, -1270.61, -1357.25, -1474.42, -1295.47, 0.000, 0.000, 0.000, 14:05:50.720
93, -1600.30, -1724.94, -1788.16, -1528.48, 0.000, 0.000, 0.000, 14:05:50.733
94, -1954.75, -2099.18, -2037.51, -1765.22, 0.000, 0.000, 0.000, 14:05:50.733
95, -1701.41, -1832.33, -1792.44, -1584.81, 0.000, 0.000, 0.000, 14:05:50.734
96, -1273.28, -1361.80, -1455.65, -1290.15, 0.000, 0.000, 0.000, 14:05:50.734
97, -1604.62, -1746.71, -1797.09, -1526.96, 0.000, 0.000, 0.000, 14:05:50.748
98, -1965.93, -2095.14, -2038.75, -1765.48, 0.000, 0.000, 0.000, 14:05:50.748
99, -1694.65, -1782.38, -1793.97, -1579.97, 0.000, 0.000, 0.000, 14:05:50.777
100, -1265.02, -1371.75, -1461.36, -1288.46, 0.000, 0.000, 0.000, 14:05:50.777
101, -1597.50, -1737.57, -1805.67, -1527.02, 0.000, 0.000, 0.000, 14:05:50.778
102, -1964.80, -2107.27, -2078.75, -1766.12, 0.000, 0.000, 0.000, 14:05:50.778
103, -1693.76, -1803.69, -1812.27, -1578.54, 0.000, 0.000, 0.000, 14:05:50.778
104, -1267.12, -1329.68, -1445.83, -1288.99, 0.000, 0.000, 0.000, 14:05:50.778
105, -1606.97, -1724.77, -1756.55, -1529.25, 0.000, 0.000, 0.000, 14:05:50.779
106, -1969.27, -2124.95, -2076.49, -1766.49, 0.000, 0.000, 0.000, 14:05:50.779
107, -1704.35, -1783.15, -1811.14, -1576.07, 0.000, 0.000, 0.000, 14:05:50.793
108, -1276.76, -1381.58, -1421.04, -1288.69, 0.000, 0.000, 0.000, 14:05:50.793
109, -1614.70, -1770.65, -1831.27, -1533.21, 0.000, 0.000, 0.000, 14:05:50.808
110, -1969.15, -2109.71, -2050.90, -1762.99, 0.000, 0.000, 0.000, 14:05:50.808
111, -1698.93, -1806.63, -1780.15, -1574.21, 0.000, 0.000, 0.000, 14:05:50.822
112, -1268.07, -1373.21, -1444.56, -1287.63, 0.000, 0.000, 0.000, 14:05:50.822
113, -1604.06, -1718.62, -1784.70, -1519.20, 0.000, 0.000, 0.000, 14:05:50.823
114, -1964.93, -2107.88, -2074.85, -1761.83, 0.000, 0.000, 0.000, 14:05:50.823
115, -1695.17, -1801.84, -1804.37, -1573.74, 0.000, 0.000, 0.000, 14:05:50.838
116, -1263.93, -1368.44, -1460.56, -1289.26, 0.000, 0.000, 0.000, 14:05:50.838
117, -1613.33, -1751.64, -1805.83, -1534.20, 0.000, 0.000, 0.000, 14:05:50.852
118, -1963.36, -2111.49, -2034.19, -1766.91, 0.000, 0.000, 0.000, 14:05:50.852
119, -1697.48, -1812.19, -1813.95, -1576.52, 0.000, 0.000, 0.000, 14:05:50.853
120, -1269.65, -1351.61, -1447.82, -1286.26, 0.000, 0.000, 0.000, 14:05:50.853
121, -1620.67, -1749.96, -1831.62, -1523.70, 0.000, 0.000, 0.000, 14:05:50.869
122, -1960.29, -2109.44, -2075.61, -1758.55, 0.000, 0.000, 0.000, 14:05:50.869
123, -1699.32, -1823.66, -1805.11, -1571.97, 0.000, 0.000, 0.000, 14:05:50.883
124, -1270.61, -1335.26, -1464.77, -1288.41, 0.000, 0.000, 0.000, 14:05:50.883
125, -1622.73, -1766.26, -1799.79, -1534.93, 0.000, 0.000, 0.000, 14:05:50.883
126, -1967.02, -2085.01, -2041.00, -1762.02, 0.000, 0.000, 0.000, 14:05:50.884
127, -1711.34, -1810.56, -1809.94, -1576.83, 0.000, 0.000, 0.000, 14:05:50.898
128, -1273.78, -1376.88, -1472.51, -1290.16, 0.000, 0.000, 0.000, 14:05:50.898
129, -1617.67, -1762.68, -1821.37, -1528.46, 0.000, 0.000, 0.000, 14:05:50.912
130, -1961.55, -2089.76, -2029.05, -1760.44, 0.000, 0.000, 0.000, 14:05:50.912
131, -1699.42, -1802.37, -1801.95, -1574.42, 0.000, 0.000, 0.000, 14:05:50.920
132, -1276.56, -1364.54, -1481.25, -1287.34, 0.000, 0.000, 0.000, 14:05:50.920
133, -1625.43, -1757.93, -1806.66, -1538.92, 0.000, 0.000, 0.000, 14:05:50.928
134, -1967.44, -2126.45, -2031.97, -1766.52, 0.000, 0.000, 0.000, 14:05:50.928
135, -1686.34, -1810.58, -1757.63, -1574.84, 0.000, 0.000, 0.000, 14:05:50.942
136, -1267.42, -1363.93, -1469.44, -1283.99, 0.000, 0.000, 0.000, 14:05:50.943
137, -1618.76, -1743.26, -1767.25, -1535.66, 0.000, 0.000, 0.000, 14:05:50.943
138, -1963.95, -2104.47, -2032.12, -1761.68, 0.000, 0.000, 0.000, 14:05:50.944
139, -1697.90, -1799.35, -1821.38, -1572.17, 0.000, 0.000, 0.000, 14:05:50.957
140, -1267.56, -1360.42, -1472.68, -1286.32, 0.000, 0.000, 0.000, 14:05:50.957
141, -1621.01, -1733.21, -1815.38, -1539.47, 0.000, 0.000, 0.000, 14:05:50.973
142, -1964.44, -2084.50, -2044.78, -1760.74, 0.000, 0.000, 0.000, 14:05:50.973
143, -1698.50, -1808.79, -1794.89, -1577.02, 0.000, 0.000, 0.000, 14:05:50.973
144, -1267.70, -1375.19, -1453.81, -1287.26, 0.000, 0.000, 0.000, 14:05:50.973
145, -1617.74, -1755.31, -1816.47, -1541.80, 0.000, 0.000, 0.000, 14:05:51.003
146, -1967.77, -2111.46, -2058.02, -1761.47, 0.000, 0.000, 0.000, 14:05:51.003
147, -1692.87, -1780.60, -1796.13, -1567.92, 0.000, 0.000, 0.000, 14:05:51.003
148, -1263.50, -1365.77, -1463.73, -1283.97, 0.000, 0.000, 0.000, 14:05:51.003
149, -1620.50, -1746.67, -1783.94, -1531.33, 0.000, 0.000, 0.000, 14:05:51.003
150, -1963.21, -2066.01, -2059.49, -1759.09, 0.000, 0.000, 0.000, 14:05:51.004
151, -1689.85, -1806.87, -1806.38, -1567.63, 0.000, 0.000, 0.000, 14:05:51.017
152, -1260.19, -1374.19, -1458.68, -1282.99, 0.000, 0.000, 0.000, 14:05:51.018
153, -1630.28, -1798.83, -1803.70, -1541.12, 0.000, 0.000, 0.000, 14:05:51.032
154, -1960.45, -2066.79, -2027.04, -1763.55, 0.000, 0.000, 0.000, 14:05:51.033
155, -1682.28, -1806.79, -1762.80, -1570.18, 0.000, 0.000, 0.000, 14:05:51.033
156, -1265.71, -1364.54, -1470.58, -1282.12, 0.000, 0.000, 0.000, 14:05:51.033
157, -1620.27, -1742.49, -1813.48, -1535.81, 0.000, 0.000, 0.000, 14:05:51.048
158, -1959.48, -2104.88, -2023.73, -1758.18, 0.000, 0.000, 0.000, 14:05:51.048
159, -1689.34, -1814.14, -1807.51, -1564.51, 0.000, 0.000, 0.000, 14:05:51.063
160, -1271.03, -1366.89, -1464.03, -1286.61, 0.000, 0.000, 0.000, 14:05:51.063
161, -1626.01, -1750.36, -1799.60, -1544.56, 0.000, 0.000, 0.000, 14:05:51.063
162, -1964.69, -2126.66, -2059.35, -1762.36, 0.000, 0.000, 0.000, 14:05:51.063
163, -1691.85, -1808.54, -1805.29, -1565.81, 0.000, 0.000, 0.000, 14:05:51.078
164, -1262.27, -1360.23, -1463.77, -1282.13, 0.000, 0.000, 0.000, 14:05:51.078
165, -1630.65, -1758.78, -1809.89, -1542.82, 0.000, 0.000, 0.000, 14:05:51.092
166, -1970.30, -2099.81, -2066.45, -1761.58, 0.000, 0.000, 0.000, 14:05:51.092
167, -1695.48, -1821.58, -1798.22, -1565.27, 0.000, 0.000, 0.000, 14:05:51.093
168, -1262.37, -1343.31, -1457.72, -1286.39, 0.000, 0.000, 0.000, 14:05:51.093
169, -1634.41, -1750.62, -1818.73, -1540.31, 0.000, 0.000, 0.000, 14:05:51.108
170, -1964.71, -2111.55, -2040.35, -1764.51, 0.000, 0.000, 0.000, 14:05:51.108
171, -1691.27, -1826.17, -1791.60, -1566.40, 0.000, 0.000, 0.000, 14:05:51.122
172, -1259.36, -1334.81, -1454.57, -1282.46, 0.000, 0.000, 0.000, 14:05:51.122
173, -1640.08, -1773.28, -1811.59, -1547.74, 0.000, 0.000, 0.000, 14:05:51.123
174, -1967.58, -2112.55, -2047.49, -1764.05, 0.000, 0.000, 0.000, 14:05:51.123
175, -1686.64, -1809.63, -1805.01, -1574.60, 0.000, 0.000, 0.000, 14:05:51.138
176, -1268.56, -1351.13, -1478.73, -1281.44, 0.000, 0.000, 0.000, 14:05:51.139
177, -1632.09, -1772.77, -1823.28, -1550.47, 0.000, 0.000, 0.000, 14:05:51.169
178, -1959.50, -2093.87, -2036.41, -1762.32, 0.000, 0.000, 0.000, 14:05:51.169
179, -1667.40, -1812.37, -1772.80, -1560.92, 0.000, 0.000, 0.000, 14:05:51.169
180, -1247.89, -1349.12, -1448.68, -1281.71, 0.000, 0.000, 0.000, 14:05:51.169
181, -1625.73, -1752.19, -1791.30, -1544.40, 0.000, 0.000, 0.000, 14:05:51.169
182, -1950.31, -2099.75, -2035.97, -1760.44, 0.000, 0.000, 0.000, 14:05:51.169
183, -1681.67, -1797.50, -1784.80, -1565.79, 0.000, 0.000, 0.000, 14:05:51.170
184, -1254.07, -1355.65, -1423.37, -1283.70, 0.000, 0.000, 0.000, 14:05:51.170
185, -1622.75, -1756.78, -1812.08, -1543.94, 0.000, 0.000, 0.000, 14:05:51.183
186, -1959.02, -2095.86, -2061.42, -1763.91, 0.000, 0.000, 0.000, 14:05:51.183
187, -1677.94, -1800.41, -1787.51, -1567.35, 0.000, 0.000, 0.000, 14:05:51.198
188, -1268.85, -1351.65, -1474.11, -1286.80, 0.000, 0.000, 0.000, 14:05:51.198
189, -1633.05, -1751.37, -1815.92, -1551.28, 0.000, 0.000, 0.000, 14:05:51.227
190, -1963.33, -2132.15, -2061.48, -1763.75, 0.000, 0.000, 0.000, 14:05:51.227
191, -1680.28, -1773.92, -1833.87, -1570.85, 0.000, 0.000, 0.000, 14:05:51.228
192, -1267.24, -1363.57, -1456.09, -1290.05, 0.000, 0.000, 0.000, 14:05:51.228
193, -1643.14, -1796.26, -1819.04, -1550.15, 0.000, 0.000, 0.000, 14:05:51.228
194, -1958.43, -2084.88, -2029.28, -1765.30, 0.000, 0.000, 0.000, 14:05:51.229
195, -1682.04, -1800.52, -1781.92, -1562.39, 0.000, 0.000, 0.000, 14:05:51.229
196, -1265.92, -1359.65, -1461.82, -1286.93, 0.000, 0.000, 0.000, 14:05:51.229
197, -1638.44, -1798.98, -1812.93, -1556.35, 0.000, 0.000, 0.000, 14:05:51.242
198, -1967.01, -2101.07, -2054.47, -1761.01, 0.000, 0.000, 0.000, 14:05:51.242
199, -1674.42, -1796.53, -1784.69, -1560.27, 0.000, 0.000, 0.000, 14:05:51.258
200, -1262.84, -1343.61, -1469.15, -1282.90, 0.000, 0.000, 0.000, 14:05:51.258
0, -1649.91, -1770.80, -1823.96, -1547.85, 0.000, 0.000, 0.000, 14:05:51.258
1, -1960.93, -2093.70, -2047.69, -1761.39, 0.000, 0.000, 0.000, 14:05:51.273
2, -1674.16, -1813.18, -1780.08, -1563.35, 0.000, 0.000, 0.000, 14:05:51.273
3, -1264.32, -1363.05, -1466.85, -1281.27, 0.000, 0.000, 0.000, 14:05:51.289
4, -1647.44, -1781.00, -1820.86, -1555.63, 0.000, 0.000, 0.000, 14:05:51.289
5, -1966.76, -2099.90, -2033.50, -1767.57, 0.000, 0.000, 0.000, 14:05:51.289
6, -1674.95, -1804.39, -1792.90, -1564.24, 0.000, 0.000, 0.000, 14:05:51.289
7, -1270.56, -1366.22, -1461.45, -1287.33, 0.000, 0.000, 0.000, 14:05:51.309
8, -1648.75, -1775.76, -1820.04, -1559.62, 0.000, 0.000, 0.000, 14:05:51.310
9, -1966.36, -2095.14, -2047.26, -1764.68, 0.000, 0.000, 0.000, 14:05:51.333
10, -1680.22, -1770.26, -1789.55, -1568.00, 0.000, 0.000, 0.000, 14:05:51.333
11, -1262.06, -1357.14, -1457.78, -1289.01, 0.000, 0.000, 0.000, 14:05:51.333
12, -1642.66, -1773.29, -1815.16, -1558.23, 0.000, 0.000, 0.000, 14:05:51.333
13, -1958.24, -2082.71, -2041.74, -1765.36, 0.000, 0.000, 0.000, 14:05:51.334
14, -1673.85, -1807.00, -1780.01, -1564.55, 0.000, 0.000, 0.000, 14:05:51.334
15, -1263.00, -1332.20, -1455.88, -1283.80, 0.000, 0.000, 0.000, 14:05:51.334
16, -1642.40, -1778.72, -1822.48, -1553.81, 0.000, 0.000, 0.000, 14:05:51.334
17, -1958.07, -2110.70, -2035.61, -1758.12, 0.000, 0.000, 0.000, 14:05:51.347
18, -1665.04, -1772.12, -1779.31, -1552.57, 0.000, 0.000, 0.000, 14:05:51.347
19, -1256.55, -1358.75, -1454.28, -1284.61, 0.000, 0.000, 0.000, 14:05:51.362
20, -1647.20, -1783.45, -1816.66, -1558.08, 0.000, 0.000, 0.000, 14:05:51.363
21, -1962.50, -2129.09, -2042.60, -1761.17, 0.000, 0.000, 0.000, 14:05:51.393
22, -1664.26, -1752.99, -1775.56, -1556.66, 0.000, 0.000, 0.000, 14:05:51.393
23, -1261.18, -1379.40, -1462.18, -1280.80, 0.000, 0.000, 0.000, 14:05:51.393
24, -1658.22, -1799.09, -1831.14, -1556.79, 0.000, 0.000, 0.000, 14:05:51.393
25, -1955.61, -2083.82, -2038.22, -1757.02, 0.000, 0.000, 0.000, 14:05:51.407
26, -1668.48, -1799.29, -1782.19, -1558.15, 0.000, 0.000, 0.000, 14:05:51.407
27, -1264.41, -1345.59, -1463.77, -1288.21, 0.000, 0.000, 0.000, 14:05:51.408
28, -1649.74, -1797.38, -1821.48, -1561.88, 0.000, 0.000, 0.000, 14:05:51.408
29, -1958.15, -2109.61, -2048.73, -1760.21, 0.000, 0.000, 0.000, 14:05:51.408
30, -1670.09, -1798.37, -1783.54, -1555.01, 0.000, 0.000, 0.000, 14:05:51.408
31, -1270.17, -1354.77, -1468.40, -1277.30, 0.000, 0.000, 0.000, 14:05:51.424
32, -1661.04, -1765.75, -1840.15, -1559.67, 0.000, 0.000, 0.000, 14:05:51.424
33, -1965.12, -2126.08, -2044.52, -1759.44, 0.000, 0.000, 0.000, 14:05:51.438
34, -1674.20, -1809.75, -1784.21, -1553.20, 0.000, 0.000, 0.000, 14:05:51.439
35, -1254.49, -1350.13, -1457.92, -1276.40, 0.000, 0.000, 0.000, 14:05:51.439
36, -1655.06, -1781.92, -1824.22, -1551.28, 0.000, 0.000, 0.000, 14:05:51.439
37, -1960.14, -2103.80, -2030.96, -1756.54, 0.000, 0.000, 0.000, 14:05:51.454
38, -1671.42, -1761.09, -1777.57, -1549.21, 0.000, 0.000, 0.000, 14:05:51.454
39, -1257.82, -1380.86, -1462.13, -1275.96, 0.000, 0.000, 0.000, 14:05:51.468
40, -1647.92, -1804.01, -1823.95, -1556.34, 0.000, 0.000, 0.000, 14:05:51.469
41, -1946.41, -2055.59, -2039.23, -1756.56, 0.000, 0.000, 0.000, 14:05:51.469
42, -1666.71, -1774.29, -1775.05, -1553.30, 0.000, 0.000, 0.000, 14:05:51.469
43, -1255.19, -1354.51, -1458.07, -1282.78, 0.000, 0.000, 0.000, 14:05:51.483
44, -1660.57, -1770.16, -1836.09, -1566.97, 0.000, 0.000, 0.000, 14:05:51.483
45, -1960.62, -2105.49, -2048.20, -1761.68, 0.000, 0.000, 0.000, 14:05:51.498
46, -1666.06, -1786.30, -1781.46, -1555.86, 0.000, 0.000, 0.000, 14:05:51.498
47, -1258.11, -1369.12, -1457.26, -1283.62, 0.000, 0.000, 0.000, 14:05:51.498
48, -1663.23, -1792.39, -1835.66, -1560.96, 0.000, 0.000, 0.000, 14:05:51.499
49, -1959.78, -2097.43, -2055.13, -1757.85, 0.000, 0.000, 0.000, 14:05:51.512
50, -1669.00, -1765.45, -1780.30, -1554.90, 0.000, 0.000, 0.000, 14:05:51.512
51, -1274.33, -1359.27, -1459.98, -1284.94, 0.000, 0.000, 0.000, 14:05:51.528
52, -1661.14, -1804.90, -1833.05, -1561.89, 0.000, 0.000, 0.000, 14:05:51.528
53, -1963.24, -2090.36, -2042.58, -1760.82, 0.000, 0.000, 0.000, 14:05:51.528
54, -1667.11, -1781.94, -1775.63, -1547.91, 0.000, 0.000, 0.000, 14:05:51.528
55, -1258.64, -1366.00, -1460.51, -1279.21, 0.000, 0.000, 0.000, 14:05:51.558
56, -1667.70, -1797.12, -1834.19, -1568.80, 0.000, 0.000, 0.000, 14:05:51.558
57, -1966.52, -2076.41, -2044.10, -1760.80, 0.000, 0.000, 0.000, 14:05:51.558
58, -1658.83, -1761.99, -1724.66, -1554.52, 0.000, 0.000, 0.000, 14:05:51.558
59, -1254.01, -1349.52, -1431.75, -1282.10, 0.000, 0.000, 0.000, 14:05:51.559
60, -1664.27, -1771.88, -1835.88, -1567.68, 0.000, 0.000, 0.000, 14:05:51.559
61, -1954.51, -2095.25, -2009.73, -1764.19, 0.000, 0.000, 0.000, 14:05:51.572
62, -1662.75, -1771.46, -1753.82, -1554.28, 0.000, 0.000, 0.000, 14:05:51.573
63, -1251.26, -1347.09, -1456.69, -1282.46, 0.000, 0.000, 0.000, 14:05:51.588
64, -1659.45, -1797.96, -1840.77, -1568.50, 0.000, 0.000, 0.000, 14:05:51.588
65, -1958.51, -2090.81, -2072.74, -1760.99, 0.000, 0.000, 0.000, 14:05:51.602
66, -1661.08, -1732.89, -1808.69, -1550.28, 0.000, 0.000, 0.000, 14:05:51.602
67, -1251.74, -1359.03, -1493.18, -1282.28, 0.000, 0.000, 0.000, 14:05:51.603
68, -1664.16, -1796.97, -1821.63, -1572.90, 0.000, 0.000, 0.000, 14:05:51.603
69, -1949.73, -2077.43, -2071.96, -1754.98, 0.000, 0.000, 0.000, 14:05:51.619
70, -1659.65, -1780.77, -1790.27, -1547.10, 0.000, 0.000, 0.000, 14:05:51.619
71, -1253.12, -1365.14, -1451.88, -1285.36, 0.000, 0.000, 0.000, 14:05:51.619
72, -1670.39, -1817.96, -1835.94, -1573.39, 0.000, 0.000, 0.000, 14:05:51.619
73, -1961.64, -2101.10, -2036.91, -1763.61, 0.000, 0.000, 0.000, 14:05:51.633
74, -1658.73, -1790.18, -1765.45, -1551.30, 0.000, 0.000, 0.000, 14:05:51.634
75, -1260.88, -1346.87, -1459.34, -1282.68, 0.000, 0.000, 0.000, 14:05:51.663
76, -1667.03, -1792.11, -1845.85, -1575.24, 0.000, 0.000, 0.000, 14:05:51.663
77, -1966.54, -2107.99, -2048.93, -1761.64, 0.000, 0.000, 0.000, 14:05:51.663
78, -1665.24, -1783.26, -1763.90, -1546.95, 0.000, 0.000, 0.000, 14:05:51.663
79, -1260.76, -1359.86, -1463.56, -1288.29, 0.000, 0.000, 0.000, 14:05:51.664
80, -1676.32, -1786.32, -1843.10, -1573.30, 0.000, 0.000, 0.000, 14:05:51.664
81, -1953.08, -2082.63, -2034.46, -1755.96, 0.000, 0.000, 0.000, 14:05:51.665
82, -1650.91, -1747.26, -1761.37, -1542.01, 0.000, 0.000, 0.000, 14:05:51.665
83, -1255.63, -1361.82, -1455.84, -1283.10, 0.000, 0.000, 0.000, 14:05:51.685
84, -1673.06, -1802.57, -1840.49, -1572.96, 0.000, 0.000, 0.000, 14:05:51.685
85, -1960.14, -2104.38, -2035.14, -1760.28, 0.000, 0.000, 0.000, 14:05:51.693
86, -1659.92, -1767.78, -1762.89, -1548.25, 0.000, 0.000, 0.000, 14:05:51.693
87, -1257.72, -1353.05, -1452.64, -1280.41, 0.000, 0.000, 0.000, 14:05:51.708
88, -1668.16, -1810.33, -1832.34, -1573.05, 0.000, 0.000, 0.000, 14:05:51.708
89, -1955.78, -2090.88, -2043.10, -1754.78, 0.000, 0.000, 0.000, 14:05:51.708
90, -1646.46, -1763.89, -1758.54, -1538.47, 0.000, 0.000, 0.000, 14:05:51.708
91, -1248.95, -1354.19, -1458.10, -1278.81, 0.000, 0.000, 0.000, 14:05:51.723
92, -1674.11, -1819.33, -1842.08, -1573.63, 0.000, 0.000, 0.000, 14:05:51.723
93, -1952.21, -2099.13, -2044.93, -1757.03, 0.000, 0.000, 0.000, 14:05:51.739
94, -1655.79, -1772.47, -1774.02, -1542.20, 0.000, 0.000, 0.000, 14:05:51.739
95, -1261.81, -1351.93, -1464.49, -1283.10, 0.000, 0.000, 0.000, 14:05:51.739
96, -1668.73, -1811.17, -1848.01, -1575.25, 0.000, 0.000, 0.000, 14:05:51.739
97, -1950.93, -2094.01, -2036.34, -1757.26, 0.000, 0.000, 0.000, 14:05:51.753
98, -1643.01, -1753.50, -1763.21, -1544.61, 0.000, 0.000, 0.000, 14:05:51.753
99, -1266.19, -1375.28, -1462.68, -1284.07, 0.000, 0.000, 0.000, 14:05:51.767
100, -1672.90, -1823.36, -1852.84, -1577.23, 0.000, 0.000, 0.000, 14:05:51.768
101, -1963.95, -2112.76, -2041.37, -1755.75, 0.000, 0.000, 0.000, 14:05:51.768
102, -1660.72, -1764.44, -1770.89, -1543.91, 0.000, 0.000, 0.000, 14:05:51.769
103, -1257.22, -1356.16, -1461.06, -1280.00, 0.000, 0.000, 0.000, 14:05:51.783
104, -1686.19, -1804.40, -1840.98, -1584.33, 0.000, 0.000, 0.000, 14:05:51.783
105, -1956.22, -2095.76, -2047.79, -1755.51, 0.000, 0.000, 0.000, 14:05:51.797
106, -1658.51, -1766.41, -1765.79, -1545.07, 0.000, 0.000, 0.000, 14:05:51.798
107, -1257.10, -1353.21, -1459.69, -1285.92, 0.000, 0.000, 0.000, 14:05:51.798
108, -1692.07, -1833.56, -1861.94, -1584.88, 0.000, 0.000, 0.000, 14:05:51.798
109, -1957.01, -2084.41, -2048.20, -1762.63, 0.000, 0.000, 0.000, 14:05:51.827
110, -1651.89, -1754.59, -1765.99, -1548.04, 0.000, 0.000, 0.000, 14:05:51.827
111, -1255.30, -1361.14, -1463.94, -1280.53, 0.000, 0.000, 0.000, 14:05:51.827
112, -1685.26, -1824.04, -1860.23, -1579.47, 0.000, 0.000, 0.000, 14:05:51.828
113, -1955.19, -2094.27, -2045.63, -1759.16, 0.000, 0.000, 0.000, 14:05:51.828
114, -1643.71, -1784.37, -1771.41, -1540.59, 0.000, 0.000, 0.000, 14:05:51.828
115, -1255.36, -1375.04, -1470.93, -1280.77, 0.000, 0.000, 0.000, 14:05:51.843
116, -1679.33, -1824.24, -1869.30, -1583.97, 0.000, 0.000, 0.000, 14:05:51.843
117, -1958.53, -2116.11, -2050.73, -1761.63, 0.000, 0.000, 0.000, 14:05:51.858
118, -1644.27, -1735.60, -1758.55, -1542.74, 0.000, 0.000, 0.000, 14:05:51.858
119, -1250.09, -1348.73, -1450.28, -1285.34, 0.000, 0.000, 0.000, 14:05:51.858
120, -1677.36, -1826.67, -1843.07, -1586.27, 0.000, 0.000, 0.000, 14:05:51.858
121, -1954.97, -2094.19, -2011.55, -1761.38, 0.000, 0.000, 0.000, 14:05:51.873
122, -1648.10, -1752.22, -1749.62, -1536.56, 0.000, 0.000, 0.000, 14:05:51.873
123, -1255.54, -1348.46, -1493.40, -1284.94, 0.000, 0.000, 0.000, 14:05:51.889
124, -1691.31, -1836.35, -1863.70, -1580.70, 0.000, 0.000, 0.000, 14:05:51.889
125, -1956.82, -2082.75, -2053.54, -1756.07, 0.000, 0.000, 0.000, 14:05:51.889
126, -1641.07, -1758.93, -1711.14, -1541.76, 0.000, 0.000, 0.000, 14:05:51.889
127, -1261.26, -1328.38, -1443.23, -1288.03, 0.000, 0.000, 0.000, 14:05:51.903
128, -1699.01, -1825.29, -1892.87, -1592.51, 0.000, 0.000, 0.000, 14:05:51.903
129, -1968.10, -2115.21, -2042.01, -1761.59, 0.000, 0.000, 0.000, 14:05:51.918
130, -1657.24, -1746.90, -1775.46, -1543.88, 0.000, 0.000, 0.000, 14:05:51.918
131, -1258.21, -1357.90, -1456.17, -1279.18, 0.000, 0.000, 0.000, 14:05:51.919
132, -1693.02, -1823.32, -1852.18, -1590.47, 0.000, 0.000, 0.000, 14:05:51.919
133, -1963.21, -2081.45, -2091.64, -1762.55, 0.000, 0.000, 0.000, 14:05:51.933
134, -1655.92, -1763.38, -1749.10, -1546.05, 0.000, 0.000, 0.000, 14:05:51.933
135, -1269.16, -1361.48, -1460.78, -1289.85, 0.000, 0.000, 0.000, 14:05:51.963
136, -1689.41, -1829.42, -1834.78, -1585.30, 0.000, 0.000, 0.000, 14:05:51.963
137, -1955.23, -2052.56, -2076.20, -1751.89, 0.000, 0.000, 0.000, 14:05:51.963
138, -1636.90, -1723.50, -1779.96, -1532.39, 0.000, 0.000, 0.000, 14:05:51.963
139, -1245.96, -1339.54, -1456.38, -1271.72, 0.000, 0.000, 0.000, 14:05:51.964
140, -1690.87, -1821.60, -1875.36, -1583.07, 0.000, 0.000, 0.000, 14:05:51.964
141, -1950.23, -2078.96, -2040.29, -1758.42, 0.000, 0.000, 0.000, 14:05:51.965
142, -1636.88, -1770.20, -1742.82, -1535.94, 0.000, 0.000, 0.000, 14:05:51.965
143, -1253.57, -1361.76, -1447.45, -1276.37, 0.000, 0.000, 0.000, 14:05:51.993
144, -1696.39, -1847.72, -1838.81, -1583.63, 0.000, 0.000, 0.000, 14:05:51.993
145, -1941.22, -2052.89, -2021.53, -1753.62, 0.000, 0.000, 0.000, 14:05:51.993
146, -1632.91, -1744.28, -1769.04, -1535.40, 0.000, 0.000, 0.000, 14:05:51.993
147, -1250.57, -1346.96, -1453.24, -1279.94, 0.000, 0.000, 0.000, 14:05:52.008
148, -1700.69, -1854.85, -1858.04, -1590.96, 0.000, 0.000, 0.000, 14:05:52.008
149, -1958.68, -2110.14, -2045.53, -1763.65, 0.000, 0.000, 0.000, 14:05:52.015
150, -1640.28, -1735.21, -1750.14, -1537.01, 0.000, 0.000, 0.000, 14:05:52.015
151, -1255.56, -1366.25, -1444.28, -1282.00, 0.000, 0.000, 0.000, 14:05:52.022
152, -1695.15, -1840.39, -1877.26, -1595.12, 0.000, 0.000, 0.000, 14:05:52.022
153, -1955.68, -2094.60, -2032.61, -1757.16, 0.000, 0.000, 0.000, 14:05:52.039
154, -1640.85, -1764.99, -1750.36, -1534.37, 0.000, 0.000, 0.000, 14:05:52.039
155, -1264.60, -1362.24, -1460.26, -1282.20, 0.000, 0.000, 0.000, 14:05:52.039
156, -1703.48, -1853.53, -1885.95, -1593.63, 0.000, 0.000, 0.000, 14:05:52.039
157, -1956.75, -2080.26, -2027.81, -1758.09, 0.000, 0.000, 0.000, 14:05:52.052
158, -1633.38, -1761.84, -1741.97, -1533.54, 0.000, 0.000, 0.000, 14:05:52.052
159, -1258.79, -1343.43, -1456.82, -1281.09, 0.000, 0.000, 0.000, 14:05:52.067
160, -1708.34, -1843.62, -1865.92, -1595.58, 0.000, 0.000, 0.000, 14:05:52.068
161, -1960.13, -2054.14, -2034.07, -1758.64, 0.000, 0.000, 0.000, 14:05:52.068
162, -1640.92, -1760.24, -1755.72, -1528.97, 0.000, 0.000, 0.000, 14:05:52.068
163, -1261.07, -1340.68, -1454.07, -1278.27, 0.000, 0.000, 0.000, 14:05:52.083
164, -1705.92, -1853.90, -1885.11, -1593.72, 0.000, 0.000, 0.000, 14:05:52.083
165, -1963.56, -2100.20, -2042.60, -1753.52, 0.000, 0.000, 0.000, 14:05:52.112
166, -1635.89, -1745.59, -1766.29, -1533.98, 0.000, 0.000, 0.000, 14:05:52.112
167, -1262.33, -1374.42, -1447.94, -1282.52, 0.000, 0.000, 0.000, 14:05:52.113
168, -1716.44, -1871.79, -1878.35, -1602.66, 0.000, 0.000, 0.000, 14:05:52.113
169, -1963.01, -2119.86, -2049.95, -1759.35, 0.000, 0.000, 0.000, 14:05:52.113
170, -1637.23, -1694.44, -1750.07, -1538.57, 0.000, 0.000, 0.000, 14:05:52.113
171, -1257.42, -1347.02, -1442.47, -1281.69, 0.000, 0.000, 0.000, 14:05:52.114
172, -1712.13, -1840.79, -1870.49, -1604.86, 0.000, 0.000, 0.000, 14:05:52.114
173, -1966.40, -2114.65, -2053.42, -1765.39, 0.000, 0.000, 0.000, 14:05:52.128
174, -1641.64, -1709.77, -1757.12, -1533.31, 0.000, 0.000, 0.000, 14:05:52.128
175, -1262.18, -1357.31, -1452.19, -1284.25, 0.000, 0.000, 0.000, 14:05:52.143
176, -1715.82, -1868.37, -1888.84, -1602.02, 0.000, 0.000, 0.000, 14:05:52.143
177, -1960.23, -2046.89, -2066.87, -1757.98, 0.000, 0.000, 0.000, 14:05:52.158
178, -1626.25, -1706.18, -1733.91, -1528.39, 0.000, 0.000, 0.000, 14:05:52.158
179, -1260.64, -1355.66, -1458.89, -1283.32, 0.000, 0.000, 0.000, 14:05:52.158
180, -1721.14, -1838.41, -1871.86, -1594.80, 0.000, 0.000, 0.000, 14:05:52.158
181, -1957.00, -2098.59, -2041.63, -1753.37, 0.000, 0.000, 0.000, 14:05:52.173
182, -1637.82, -1755.09, -1753.07, -1531.30, 0.000, 0.000, 0.000, 14:05:52.173
183, -1247.91, -1345.49, -1457.95, -1277.81, 0.000, 0.000, 0.000, 14:05:52.188
184, -1705.19, -1862.55, -1877.78, -1600.77, 0.000, 0.000, 0.000, 14:05:52.189
185, -1943.54, -2039.00, -2036.40, -1755.08, 0.000, 0.000, 0.000, 14:05:52.189
186, -1623.34, -1704.95, -1726.02, -1523.80, 0.000, 0.000, 0.000, 14:05:52.189
187, -1255.29, -1348.35, -1452.67, -1278.61, 0.000, 0.000, 0.000, 14:05:52.218
188, -1714.64, -1844.93, -1876.34, -1598.86, 0.000, 0.000, 0.000, 14:05:52.218
189, -1954.97, -2070.60, -2030.80, -1751.81, 0.000, 0.000, 0.000, 14:05:52.218
190, -1624.10, -1758.49, -1741.79, -1522.87, 0.000, 0.000, 0.000, 14:05:52.218
191, -1256.98, -1356.25, -1456.30, -1280.04, 0.000, 0.000, 0.000, 14:05:52.218
192, -1713.84, -1883.85, -1884.45, -1600.36, 0.000, 0.000, 0.000, 14:05:52.218
193, -1952.83, -2134.24, -2036.43, -1756.41, 0.000, 0.000, 0.000, 14:05:52.233
194, -1622.97, -1763.43, -1747.01, -1528.69, 0.000, 0.000, 0.000, 14:05:52.234
195, -1252.06, -1363.78, -1470.93, -1282.91, 0.000, 0.000, 0.000, 14:05:52.247
196, -1718.96, -1819.23, -1883.73, -1605.09, 0.000, 0.000, 0.000, 14:05:52.247
197, -1952.88, -2100.05, -2019.97, -1753.46, 0.000, 0.000, 0.000, 14:05:52.249
198, -1611.92, -1744.38, -1750.58, -1525.84, 0.000, 0.000, 0.000, 14:05:52.249
199, -1242.41, -1331.87, -1463.19, -1273.47, 0.000, 0.000, 0.000, 14:05:52.262
200, -1717.90, -1859.05, -1894.53, -1606.84, 0.000, 0.000, 0.000, 14:05:52.262
0, -1950.38, -2105.17, -2044.86, -1756.82, 0.000, 0.000, 0.000, 14:05:52.270
1, -1617.81, -1699.63, -1740.47, -1529.59, 0.000, 0.000, 0.000, 14:05:52.278
2, -1256.71, -1353.12, -1459.19, -1279.47, 0.000, 0.000, 0.000, 14:05:52.278
3, -1718.04, -1889.57, -1883.20, -1610.27, 0.000, 0.000, 0.000, 14:05:52.292
4, -1957.40, -2063.19, -2022.18, -1753.13, 0.000, 0.000, 0.000, 14:05:52.292
5, -1626.93, -1749.22, -1748.18, -1523.27, 0.000, 0.000, 0.000, 14:05:52.293
6, -1256.63, -1351.33, -1464.48, -1284.22, 0.000, 0.000, 0.000, 14:05:52.293
7, -1725.75, -1874.72, -1890.99, -1606.72, 0.000, 0.000, 0.000, 14:05:52.307
8, -1951.33, -2097.26, -2040.03, -1748.74, 0.000, 0.000, 0.000, 14:05:52.307
9, -1612.61, -1746.77, -1728.43, -1523.75, 0.000, 0.000, 0.000, 14:05:52.323
10, -1256.06, -1347.25, -1451.33, -1283.56, 0.000, 0.000, 0.000, 14:05:52.323
11, -1726.78, -1826.86, -1870.28, -1606.24, 0.000, 0.000, 0.000, 14:05:52.339
12, -1950.87, -2073.91, -2044.38, -1754.88, 0.000, 0.000, 0.000, 14:05:52.339
13, -1620.36, -1741.07, -1771.04, -1521.28, 0.000, 0.000, 0.000, 14:05:52.353
14, -1249.00, -1366.07, -1464.24, -1280.90, 0.000, 0.000, 0.000, 14:05:52.353
15, -1726.66, -1837.68, -1847.69, -1607.35, 0.000, 0.000, 0.000, 14:05:52.369
16, -1955.78, -2109.45, -2037.45, -1758.07, 0.000, 0.000, 0.000, 14:05:52.369
17, -1612.82, -1744.40, -1703.43, -1521.19, 0.000, 0.000, 0.000, 14:05:52.382
18, -1261.25, -1348.85, -1482.99, -1285.93, 0.000, 0.000, 0.000, 14:05:52.382
19, -1724.90, -1885.05, -1875.91, -1612.23, 0.000, 0.000, 0.000, 14:05:52.384
20, -1952.35, -2090.84, -1994.68, -1753.41, 0.000, 0.000, 0.000, 14:05:52.384
21, -1617.56, -1679.09, -1780.45, -1522.92, 0.000, 0.000, 0.000, 14:05:52.384
22, -1256.15, -1325.23, -1465.61, -1284.75, 0.000, 0.000, 0.000, 14:05:52.384
23, -1719.27, -1847.02, -1921.42, -1611.91, 0.000, 0.000, 0.000, 14:05:52.385
24, -1950.23, -2056.26, -2071.40, -1755.13, 0.000, 0.000, 0.000, 14:05:52.385
25, -1613.18, -1727.57, -1753.34, -1522.17, 0.000, 0.000, 0.000, 14:05:52.398
26, -1249.74, -1344.18, -1444.87, -1278.91, 0.000, 0.000, 0.000, 14:05:52.398
27, -1725.24, -1841.94, -1891.49, -1610.05, 0.000, 0.000, 0.000, 14:05:52.412
28, -1939.60, -2053.00, -1981.39, -1748.75, 0.000, 0.000, 0.000, 14:05:52.412
29, -1610.95, -1740.40, -1706.62, -1517.13, 0.000, 0.000, 0.000, 14:05:52.413
30, -1257.33, -1346.59, -1476.89, -1282.84, 0.000, 0.000, 0.000, 14:05:52.413
31, -1727.50, -1851.07, -1884.02, -1611.38, 0.000, 0.000, 0.000, 14:05:52.428
32, -1943.67, -2092.48, -2058.78, -1751.23, 0.000, 0.000, 0.000, 14:05:52.428
33, -1613.37, -1750.79, -1735.65, -1519.13, 0.000, 0.000, 0.000, 14:05:52.443
34, -1249.43, -1360.18, -1436.33, -1280.90, 0.000, 0.000, 0.000, 14:05:52.443
35, -1734.40, -1888.38, -1899.55, -1618.15, 0.000, 0.000, 0.000, 14:05:52.443
36, -1960.83, -2125.25, -2016.14, -1760.14, 0.000, 0.000, 0.000, 14:05:52.443
37, -1617.73, -1736.59, -1780.23, -1522.94, 0.000, 0.000, 0.000, 14:05:52.457
38, -1256.81, -1343.68, -1455.73, -1279.87, 0.000, 0.000, 0.000, 14:05:52.457
39, -1732.04, -1814.90, -1888.27, -1611.34, 0.000, 0.000, 0.000, 14:05:52.473
40, -1941.02, -2079.28, -2040.59, -1750.96, 0.000, 0.000, 0.000, 14:05:52.473
41, -1619.47, -1696.98, -1749.75, -1520.38, 0.000, 0.000, 0.000, 14:05:52.474
42, -1253.08, -1376.10, -1436.76, -1283.10, 0.000, 0.000, 0.000, 14:05:52.474
43, -1736.07, -1902.91, -1934.61, -1620.34, 0.000, 0.000, 0.000, 14:05:52.517
44, -1948.97, -2091.63, -2080.81, -1752.24, 0.000, 0.000, 0.000, 14:05:52.518
45, -1615.88, -1712.15, -1701.03, -1515.82, 0.000, 0.000, 0.000, 14:05:52.518
46, -1249.80, -1335.54, -1468.42, -1286.01, 0.000, 0.000, 0.000, 14:05:52.518
47, -1734.83, -1860.64, -1893.95, -1619.78, 0.000, 0.000, 0.000, 14:05:52.520
48, -1943.47, -2095.87, -2045.47, -1754.30, 0.000, 0.000, 0.000, 14:05:52.520
49, -1603.12, -1706.81, -1705.84, -1518.91, 0.000, 0.000, 0.000, 14:05:52.520
50, -1262.12, -1379.79, -1489.52, -1282.57, 0.000, 0.000, 0.000, 14:05:52.520
51, -1735.91, -1881.75, -1929.20, -1622.01, 0.000, 0.000, 0.000, 14:05:52.521
52, -1955.52, -2099.12, -2028.42, -1749.00, 0.000, 0.000, 0.000, 14:05:52.521
53, -1607.49, -1718.58, -1721.10, -1513.62, 0.000, 0.000, 0.000, 14:05:52.532
54, -1246.45, -1358.41, -1454.03, -1276.43, 0.000, 0.000, 0.000, 14:05:52.533
55, -1737.17, -1839.33, -1851.43, -1615.17, 0.000, 0.000, 0.000, 14:05:52.548
56, -1948.53, -2072.26, -2013.21, -1749.46, 0.000, 0.000, 0.000, 14:05:52.548
57, -1610.07, -1703.21, -1736.21, -1513.48, 0.000, 0.000, 0.000, 14:05:52.563
58, -1261.74, -1357.38, -1487.04, -1283.59, 0.000, 0.000, 0.000, 14:05:52.563
59, -1739.88, -1909.66, -1863.86, -1616.66, 0.000, 0.000, 0.000, 14:05:52.563
60, -1950.55, -2114.60, -2049.27, -1754.07, 0.000, 0.000, 0.000, 14:05:52.563
61, -1608.26, -1754.50, -1718.75, -1521.20, 0.000, 0.000, 0.000, 14:05:52.578
62, -1257.10, -1373.35, -1425.23, -1286.96, 0.000, 0.000, 0.000, 14:05:52.578
63, -1733.83, -1877.06, -1868.38, -1618.21, 0.000, 0.000, 0.000, 14:05:52.592
64, -1944.81, -2042.52, -2040.22, -1750.37, 0.000, 0.000, 0.000, 14:05:52.592
65, -1595.59, -1722.06, -1733.17, -1514.89, 0.000, 0.000, 0.000, 14:05:52.593
66, -1250.32, -1381.68, -1478.93, -1286.74, 0.000, 0.000, 0.000, 14:05:52.593
67, -1749.75, -1891.72, -1885.70, -1627.03, 0.000, 0.000, 0.000, 14:05:52.607
68, -1937.25, -2053.80, -1971.65, -1749.11, 0.000, 0.000, 0.000, 14:05:52.607
69, -1589.67, -1656.53, -1738.62, -1513.51, 0.000, 0.000, 0.000, 14:05:52.623
70, -1254.60, -1330.05, -1457.42, -1285.39, 0.000, 0.000, 0.000, 14:05:52.623
71, -1737.48, -1910.86, -1930.14, -1624.16, 0.000, 0.000, 0.000, 14:05:52.623
72, -1948.09, -2110.92, -2031.23, -1752.48, 0.000, 0.000, 0.000, 14:05:52.623
73, -1603.73, -1720.57, -1729.66, -1513.02, 0.000, 0.000, 0.000, 14:05:52.638
74, -1253.59, -1377.79, -1490.62, -1286.51, 0.000, 0.000, 0.000, 14:05:52.638
75, -1743.63, -1884.45, -1916.87, -1620.98, 0.000, 0.000, 0.000, 14:05:52.669
76, -1934.58, -2026.06, -2007.15, -1747.88, 0.000, 0.000, 0.000, 14:05:52.669
77, -1612.15, -1705.24, -1740.27, -1509.46, 0.000, 0.000, 0.000, 14:05:52.669
78, -1254.86, -1370.78, -1472.11, -1279.87, 0.000, 0.000, 0.000, 14:05:52.669
79, -1749.22, -1848.99, -1920.42, -1627.38, 0.000, 0.000, 0.000, 14:05:52.669
80, -1941.45, -2079.20, -2037.87, -1749.43, 0.000, 0.000, 0.000, 14:05:52.669
81, -1597.59, -1713.88, -1689.77, -1507.49, 0.000, 0.000, 0.000, 14:05:52.670
82, -1247.56, -1357.93, -1450.46, -1283.74, 0.000, 0.000, 0.000, 14:05:52.670
83, -1736.96, -1894.18, -1923.06, -1626.52, 0.000, 0.000, 0.000, 14:05:52.683
84, -1956.42, -2062.27, -2041.82, -1751.14, 0.000, 0.000, 0.000, 14:05:52.683
85, -1598.33, -1708.97, -1685.37, -1510.08, 0.000, 0.000, 0.000, 14:05:52.697
86, -1243.30, -1335.25, -1473.97, -1284.75, 0.000, 0.000, 0.000, 14:05:52.697
87, -1745.61, -1905.61, -1902.74, -1631.17, 0.000, 0.000, 0.000, 14:05:52.713
88, -1941.19, -2091.87, -2043.70, -1752.45, 0.000, 0.000, 0.000, 14:05:52.713
89, -1597.31, -1670.70, -1766.12, -1511.60, 0.000, 0.000, 0.000, 14:05:52.713
90, -1259.48, -1366.61, -1464.15, -1287.88, 0.000, 0.000, 0.000, 14:05:52.713
91, -1744.69, -1878.35, -1870.76, -1627.50, 0.000, 0.000, 0.000, 14:05:52.728
92, -1941.74, -2100.13, -2018.29, -1745.40, 0.000, 0.000, 0.000, 14:05:52.728
93, -1596.49, -1727.78, -1727.67, -1505.72, 0.000, 0.000, 0.000, 14:05:52.743
94, -1252.85, -1363.39, -1470.04, -1281.40, 0.000, 0.000, 0.000, 14:05:52.743
95, -1751.77, -1846.71, -1947.80, -1619.77, 0.000, 0.000, 0.000, 14:05:52.743
96, -1942.66, -2062.09, -2067.56, -1745.74, 0.000, 0.000, 0.000, 14:05:52.743
97, -1597.61, -1696.63, -1702.74, -1501.64, 0.000, 0.000, 0.000, 14:05:52.773
98, -1258.54, -1367.46, -1442.80, -1281.54, 0.000, 0.000, 0.000, 14:05:52.773
99, -1758.41, -1881.79, -1900.36, -1632.81, 0.000, 0.000, 0.000, 14:05:52.773
100, -1947.02, -2095.49, -2041.89, -1748.11, 0.000, 0.000, 0.000, 14:05:52.773
