%OpenBCI Raw EEG Data
%
%Sample Rate = 200.0 Hz
%First Column = SampleIndex
%Last Column = Timestamp 
%Other Columns = EEG data in microvolts followed by Accel Data (in G) interleaved with Aux Data
0, -1895.07, -2197.09, -2365.04, -1956.78, 0.000, 0.000, 0.000, 14:10:10.192
1, -1829.51, -2124.26, -2290.94, -1886.54, 0.000, 0.000, 0.000, 14:10:10.206
2, -1578.50, -1871.32, -2125.83, -1708.98, 0.000, 0.000, 0.000, 14:10:10.206
3, -1634.60, -1943.29, -2180.26, -1772.21, 0.000, 0.000, 0.000, 14:10:10.221
4, -1900.84, -2195.62, -2346.76, -1966.49, 0.000, 0.000, 0.000, 14:10:10.221
5, -1801.27, -2080.98, -2261.28, -1848.60, 0.000, 0.000, 0.000, 14:10:10.222
6, -1577.33, -1814.95, -2087.06, -1708.66, 0.000, 0.000, 0.000, 14:10:10.222
7, -1619.35, -1893.78, -2143.32, -1772.76, 0.000, 0.000, 0.000, 14:10:10.236
8, -1900.67, -2181.10, -2331.83, -1975.15, 0.000, 0.000, 0.000, 14:10:10.236
9, -1846.07, -2121.96, -2286.32, -1923.61, 0.000, 0.000, 0.000, 14:10:10.252
10, -1559.08, -1796.19, -2070.33, -1669.81, 0.000, 0.000, 0.000, 14:10:10.252
11, -1618.58, -1867.36, -2120.34, -1763.83, 0.000, 0.000, 0.000, 14:10:10.252
12, -1915.06, -2185.10, -2329.30, -1991.91, 0.000, 0.000, 0.000, 14:10:10.253
13, -1841.07, -2106.34, -2259.14, -1918.27, 0.000, 0.000, 0.000, 14:10:10.266
14, -1581.80, -1838.58, -2076.59, -1711.78, 0.000, 0.000, 0.000, 14:10:10.266
15, -1635.11, -1891.88, -2153.25, -1775.25, 0.000, 0.000, 0.000, 14:10:10.281
16, -1904.06, -2166.18, -2299.43, -1982.96, 0.000, 0.000, 0.000, 14:10:10.281
17, -1822.77, -2060.87, -2225.57, -1885.56, 0.000, 0.000, 0.000, 14:10:10.282
18, -1594.95, -1823.57, -2058.94, -1727.65, 0.000, 0.000, 0.000, 14:10:10.282
19, -1621.69, -1896.30, -2111.53, -1777.22, 0.000, 0.000, 0.000, 14:10:10.296
20, -1907.67, -2136.72, -2314.41, -1980.42, 0.000, 0.000, 0.000, 14:10:10.296
21, -1851.39, -2062.38, -2257.11, -1917.33, 0.000, 0.000, 0.000, 14:10:10.311
22, -1615.71, -1841.65, -2101.60, -1707.96, 0.000, 0.000, 0.000, 14:10:10.311
23, -1654.40, -1937.34, -2123.34, -1799.70, 0.000, 0.000, 0.000, 14:10:10.311
24, -1906.39, -2133.95, -2308.14, -1971.90, 0.000, 0.000, 0.000, 14:10:10.311
25, -1844.31, -2051.36, -2235.91, -1901.26, 0.000, 0.000, 0.000, 14:10:10.326
26, -1578.66, -1791.79, -2057.08, -1696.56, 0.000, 0.000, 0.000, 14:10:10.326
27, -1630.45, -1847.30, -2120.59, -1777.47, 0.000, 0.000, 0.000, 14:10:10.340
28, -1914.04, -2183.43, -2309.72, -1982.34, 0.000, 0.000, 0.000, 14:10:10.340
29, -1881.02, -2085.19, -2264.41, -1921.66, 0.000, 0.000, 0.000, 14:10:10.349
30, -1575.24, -1770.90, -2045.93, -1704.64, 0.000, 0.000, 0.000, 14:10:10.349
31, -1649.94, -1863.24, -2126.71, -1806.51, 0.000, 0.000, 0.000, 14:10:10.356
32, -1921.98, -2167.90, -2324.88, -1984.86, 0.000, 0.000, 0.000, 14:10:10.356
33, -1848.33, -2058.01, -2246.03, -1913.95, 0.000, 0.000, 0.000, 14:10:10.371
34, -1589.60, -1760.98, -2048.65, -1714.27, 0.000, 0.000, 0.000, 14:10:10.371
35, -1629.31, -1818.23, -2108.77, -1800.62, 0.000, 0.000, 0.000, 14:10:10.371
36, -1913.76, -2120.40, -2300.42, -1975.44, 0.000, 0.000, 0.000, 14:10:10.372
37, -1833.44, -2040.07, -2230.19, -1888.36, 0.000, 0.000, 0.000, 14:10:10.401
38, -1607.70, -1771.37, -2067.09, -1703.99, 0.000, 0.000, 0.000, 14:10:10.401
39, -1662.26, -1848.48, -2111.06, -1797.09, 0.000, 0.000, 0.000, 14:10:10.402
40, -1932.44, -2121.43, -2288.43, -2002.54, 0.000, 0.000, 0.000, 14:10:10.402
41, -1855.83, -2017.34, -2232.41, -1907.80, 0.000, 0.000, 0.000, 14:10:10.402
42, -1611.86, -1769.68, -2044.50, -1710.68, 0.000, 0.000, 0.000, 14:10:10.402
43, -1660.01, -1800.62, -2099.05, -1777.80, 0.000, 0.000, 0.000, 14:10:10.417
44, -1952.99, -2108.61, -2300.00, -2006.23, 0.000, 0.000, 0.000, 14:10:10.417
45, -1869.06, -2021.14, -2244.58, -1914.63, 0.000, 0.000, 0.000, 14:10:10.430
46, -1616.96, -1763.00, -2048.27, -1717.46, 0.000, 0.000, 0.000, 14:10:10.430
47, -1655.36, -1821.02, -2082.34, -1776.53, 0.000, 0.000, 0.000, 14:10:10.431
48, -1948.57, -2183.02, -2327.19, -2020.84, 0.000, 0.000, 0.000, 14:10:10.431
49, -1864.36, -2037.86, -2252.00, -1896.11, 0.000, 0.000, 0.000, 14:10:10.446
50, -1602.74, -1788.56, -2063.39, -1734.11, 0.000, 0.000, 0.000, 14:10:10.446
51, -1674.06, -1886.82, -2133.92, -1782.39, 0.000, 0.000, 0.000, 14:10:10.461
52, -1891.10, -2065.30, -2282.36, -1973.91, 0.000, 0.000, 0.000, 14:10:10.461
53, -1820.83, -2003.11, -2211.94, -1871.41, 0.000, 0.000, 0.000, 14:10:10.461
54, -1586.45, -1786.74, -2052.92, -1744.41, 0.000, 0.000, 0.000, 14:10:10.461
55, -1681.73, -1878.08, -2149.82, -1794.19, 0.000, 0.000, 0.000, 14:10:10.476
56, -1943.50, -2107.74, -2310.61, -1968.21, 0.000, 0.000, 0.000, 14:10:10.476
57, -1858.51, -2008.86, -2215.49, -1884.03, 0.000, 0.000, 0.000, 14:10:10.491
58, -1628.11, -1730.27, -2055.71, -1679.89, 0.000, 0.000, 0.000, 14:10:10.491
59, -1761.62, -1862.34, -2160.95, -1794.77, 0.000, 0.000, 0.000, 14:10:10.491
60, -2009.75, -2006.70, -2297.73, -1950.99, 0.000, 0.000, 0.000, 14:10:10.491
61, -1979.63, -1922.87, -2241.43, -1875.43, 0.000, 0.000, 0.000, 14:10:10.506
62, -1733.75, -1613.84, -2043.43, -1718.68, 0.000, 0.000, 0.000, 14:10:10.506
63, -1831.09, -1730.23, -2136.18, -1786.06, 0.000, 0.000, 0.000, 14:10:10.521
64, -2147.21, -2024.64, -2326.44, -1968.44, 0.000, 0.000, 0.000, 14:10:10.521
65, -2098.83, -1913.69, -2250.93, -1876.30, 0.000, 0.000, 0.000, 14:10:10.522
66, -1845.74, -1610.00, -2063.07, -1739.37, 0.000, 0.000, 0.000, 14:10:10.522
67, -1926.46, -1668.26, -2137.22, -1785.70, 0.000, 0.000, 0.000, 14:10:10.537
68, -2189.22, -1924.44, -2307.28, -1977.63, 0.000, 0.000, 0.000, 14:10:10.537
69, -2113.51, -1833.26, -2242.93, -1907.14, 0.000, 0.000, 0.000, 14:10:10.551
70, -1851.71, -1606.01, -2043.62, -1690.35, 0.000, 0.000, 0.000, 14:10:10.551
71, -1955.00, -1691.11, -2148.79, -1855.95, 0.000, 0.000, 0.000, 14:10:10.551
72, -2210.02, -2014.92, -2335.91, -1981.48, 0.000, 0.000, 0.000, 14:10:10.551
73, -2085.40, -1831.20, -2219.35, -1896.89, 0.000, 0.000, 0.000, 14:10:10.569
74, -1821.57, -1585.37, -2029.19, -1667.51, 0.000, 0.000, 0.000, 14:10:10.569
75, -1896.26, -1696.01, -2120.50, -1811.58, 0.000, 0.000, 0.000, 14:10:10.580
76, -2137.68, -1982.86, -2293.19, -1983.02, 0.000, 0.000, 0.000, 14:10:10.580
77, -2023.75, -1906.39, -2205.43, -1893.84, 0.000, 0.000, 0.000, 14:10:10.582
78, -1760.51, -1607.56, -2018.90, -1695.93, 0.000, 0.000, 0.000, 14:10:10.582
79, -1830.86, -1695.27, -2131.09, -1787.59, 0.000, 0.000, 0.000, 14:10:10.596
80, -2072.00, -1988.06, -2311.50, -1989.51, 0.000, 0.000, 0.000, 14:10:10.596
81, -1966.76, -1908.88, -2226.18, -1882.96, 0.000, 0.000, 0.000, 14:10:10.611
82, -1692.87, -1685.15, -2019.57, -1675.15, 0.000, 0.000, 0.000, 14:10:10.611
83, -1807.69, -1757.87, -2156.58, -1805.82, 0.000, 0.000, 0.000, 14:10:10.611
84, -2044.94, -2028.96, -2335.46, -1977.06, 0.000, 0.000, 0.000, 14:10:10.611
85, -1920.48, -1921.04, -2207.32, -1847.53, 0.000, 0.000, 0.000, 14:10:10.626
86, -1649.80, -1643.26, -2006.46, -1719.73, 0.000, 0.000, 0.000, 14:10:10.626
87, -1766.05, -1802.21, -2164.90, -1807.62, 0.000, 0.000, 0.000, 14:10:10.656
88, -2038.48, -2088.75, -2350.39, -1994.40, 0.000, 0.000, 0.000, 14:10:10.656
89, -1933.12, -1999.48, -2240.88, -1909.99, 0.000, 0.000, 0.000, 14:10:10.657
90, -1675.11, -1756.39, -2064.49, -1700.57, 0.000, 0.000, 0.000, 14:10:10.657
91, -1783.77, -1872.87, -2176.15, -1834.84, 0.000, 0.000, 0.000, 14:10:10.657
92, -2027.94, -2162.37, -2346.52, -1982.31, 0.000, 0.000, 0.000, 14:10:10.657
93, -1916.44, -2020.93, -2261.54, -1902.79, 0.000, 0.000, 0.000, 14:10:10.658
94, -1613.36, -1717.52, -2048.92, -1687.70, 0.000, 0.000, 0.000, 14:10:10.658
95, -1703.10, -1834.63, -2132.91, -1766.14, 0.000, 0.000, 0.000, 14:10:10.671
96, -2004.04, -2176.72, -2346.52, -2003.82, 0.000, 0.000, 0.000, 14:10:10.671
97, -1874.03, -1967.23, -2227.45, -1885.69, 0.000, 0.000, 0.000, 14:10:10.686
98, -1600.83, -1693.05, -2038.72, -1716.34, 0.000, 0.000, 0.000, 14:10:10.686
99, -1734.39, -1906.04, -2170.67, -1808.07, 0.000, 0.000, 0.000, 14:10:10.701
100, -1973.33, -2166.30, -2334.31, -1947.76, 0.000, 0.000, 0.000, 14:10:10.701
101, -1861.41, -2008.44, -2235.79, -1906.14, 0.000, 0.000, 0.000, 14:10:10.702
102, -1583.19, -1707.15, -2049.29, -1684.64, 0.000, 0.000, 0.000, 14:10:10.702
103, -1723.25, -1886.70, -2165.25, -1820.33, 0.000, 0.000, 0.000, 14:10:10.717
104, -1986.33, -2174.25, -2341.52, -2032.51, 0.000, 0.000, 0.000, 14:10:10.717
105, -1861.82, -2072.97, -2245.12, -1885.49, 0.000, 0.000, 0.000, 14:10:10.731
106, -1583.05, -1704.97, -2028.17, -1673.30, 0.000, 0.000, 0.000, 14:10:10.731
107, -1721.39, -1885.76, -2171.89, -1805.76, 0.000, 0.000, 0.000, 14:10:10.732
108, -1981.72, -2137.79, -2347.50, -2021.18, 0.000, 0.000, 0.000, 14:10:10.732
109, -1883.80, -2035.45, -2266.81, -1891.49, 0.000, 0.000, 0.000, 14:10:10.761
110, -1579.64, -1741.67, -2037.96, -1693.01, 0.000, 0.000, 0.000, 14:10:10.761
111, -1690.32, -1859.60, -2146.18, -1754.23, 0.000, 0.000, 0.000, 14:10:10.761
112, -1997.86, -2177.42, -2360.48, -2061.36, 0.000, 0.000, 0.000, 14:10:10.761
113, -1860.07, -2025.68, -2263.11, -1887.13, 0.000, 0.000, 0.000, 14:10:10.762
114, -1577.58, -1734.18, -2023.17, -1658.96, 0.000, 0.000, 0.000, 14:10:10.762
115, -1713.69, -1883.30, -2160.74, -1783.11, 0.000, 0.000, 0.000, 14:10:10.776
116, -1991.39, -2149.78, -2358.27, -2026.64, 0.000, 0.000, 0.000, 14:10:10.776
117, -1857.30, -2025.67, -2244.39, -1893.12, 0.000, 0.000, 0.000, 14:10:10.790
118, -1573.03, -1755.99, -2039.59, -1693.83, 0.000, 0.000, 0.000, 14:10:10.790
119, -1684.76, -1869.79, -2145.87, -1781.47, 0.000, 0.000, 0.000, 14:10:10.791
120, -1996.81, -2171.74, -2381.39, -2020.04, 0.000, 0.000, 0.000, 14:10:10.791
121, -1845.56, -1995.87, -2232.41, -1884.98, 0.000, 0.000, 0.000, 14:10:10.805
122, -1580.09, -1733.74, -2034.22, -1646.69, 0.000, 0.000, 0.000, 14:10:10.805
123, -1699.58, -1867.71, -2148.99, -1827.55, 0.000, 0.000, 0.000, 14:10:10.822
124, -1985.86, -2161.33, -2360.74, -2029.66, 0.000, 0.000, 0.000, 14:10:10.822
125, -1855.91, -2002.22, -2247.59, -1875.59, 0.000, 0.000, 0.000, 14:10:10.822
126, -1578.83, -1725.01, -2031.59, -1686.51, 0.000, 0.000, 0.000, 14:10:10.822
127, -1700.25, -1836.88, -2146.94, -1800.26, 0.000, 0.000, 0.000, 14:10:10.836
128, -1986.67, -2153.70, -2368.48, -2017.30, 0.000, 0.000, 0.000, 14:10:10.836
129, -1853.95, -2008.44, -2228.14, -1904.10, 0.000, 0.000, 0.000, 14:10:10.852
130, -1554.72, -1706.80, -2004.82, -1659.23, 0.000, 0.000, 0.000, 14:10:10.853
131, -1699.91, -1864.73, -2145.91, -1805.23, 0.000, 0.000, 0.000, 14:10:10.854
132, -1990.38, -2169.47, -2370.76, -2027.61, 0.000, 0.000, 0.000, 14:10:10.854
133, -1853.06, -2000.33, -2241.52, -1894.71, 0.000, 0.000, 0.000, 14:10:10.866
134, -1560.54, -1710.90, -2017.32, -1639.63, 0.000, 0.000, 0.000, 14:10:10.866
135, -1699.83, -1865.42, -2142.05, -1833.52, 0.000, 0.000, 0.000, 14:10:10.881
136, -2008.45, -2152.23, -2374.85, -2038.04, 0.000, 0.000, 0.000, 14:10:10.881
137, -1815.41, -1952.96, -2201.45, -1874.09, 0.000, 0.000, 0.000, 14:10:10.882
138, -1551.60, -1678.43, -2000.34, -1665.05, 0.000, 0.000, 0.000, 14:10:10.882
139, -1709.51, -1876.01, -2149.24, -1831.59, 0.000, 0.000, 0.000, 14:10:10.895
140, -1971.20, -2149.35, -2343.10, -2013.43, 0.000, 0.000, 0.000, 14:10:10.896
141, -1825.12, -1984.10, -2216.26, -1898.24, 0.000, 0.000, 0.000, 14:10:10.911
142, -1527.84, -1663.71, -1975.53, -1660.30, 0.000, 0.000, 0.000, 14:10:10.911
143, -1711.28, -1908.44, -2150.84, -1823.91, 0.000, 0.000, 0.000, 14:10:10.911
144, -1976.51, -2124.52, -2352.38, -2012.69, 0.000, 0.000, 0.000, 14:10:10.911
145, -1823.25, -1983.11, -2211.72, -1893.73, 0.000, 0.000, 0.000, 14:10:10.926
146, -1531.15, -1711.92, -2000.54, -1655.31, 0.000, 0.000, 0.000, 14:10:10.926
147, -1711.90, -1905.95, -2185.41, -1840.95, 0.000, 0.000, 0.000, 14:10:10.941
148, -1943.91, -2175.00, -2354.00, -2055.99, 0.000, 0.000, 0.000, 14:10:10.941
149, -1746.22, -2045.70, -2204.85, -1883.36, 0.000, 0.000, 0.000, 14:10:10.941
150, -1372.66, -1726.17, -1925.21, -1656.53, 0.000, 0.000, 0.000, 14:10:10.941
151, -1527.20, -1948.18, -2092.67, -1825.52, 0.000, 0.000, 0.000, 14:10:10.956
152, -1774.94, -2254.44, -2304.81, -2046.14, 0.000, 0.000, 0.000, 14:10:10.956
153, -1574.70, -2087.80, -2141.39, -1905.32, 0.000, 0.000, 0.000, 14:10:10.971
154, -1260.77, -1805.41, -1918.63, -1699.03, 0.000, 0.000, 0.000, 14:10:10.971
155, -1445.84, -2007.07, -2089.78, -1869.56, 0.000, 0.000, 0.000, 14:10:10.971
156, -1696.53, -2282.98, -2291.33, -2056.16, 0.000, 0.000, 0.000, 14:10:10.972
157, -1522.87, -2095.72, -2133.37, -1934.94, 0.000, 0.000, 0.000, 14:10:10.987
158, -1264.25, -1812.75, -1923.28, -1732.48, 0.000, 0.000, 0.000, 14:10:10.987
159, -1438.64, -2001.46, -2081.69, -1877.43, 0.000, 0.000, 0.000, 14:10:11.001
160, -1727.08, -2287.32, -2314.64, -2068.69, 0.000, 0.000, 0.000, 14:10:11.001
161, -1609.84, -2119.78, -2174.17, -1947.59, 0.000, 0.000, 0.000, 14:10:11.002
162, -1304.83, -1780.80, -1917.92, -1688.98, 0.000, 0.000, 0.000, 14:10:11.002
163, -1522.93, -1988.80, -2116.21, -1870.49, 0.000, 0.000, 0.000, 14:10:11.016
164, -1846.76, -2279.60, -2348.83, -2089.35, 0.000, 0.000, 0.000, 14:10:11.016
165, -1713.07, -2083.40, -2209.16, -1939.79, 0.000, 0.000, 0.000, 14:10:11.031
166, -1401.27, -1712.56, -1950.16, -1682.36, 0.000, 0.000, 0.000, 14:10:11.031
167, -1638.65, -1936.73, -2145.35, -1870.36, 0.000, 0.000, 0.000, 14:10:11.046
168, -1925.29, -2234.65, -2347.94, -2070.43, 0.000, 0.000, 0.000, 14:10:11.046
169, -1786.01, -2042.03, -2213.33, -1939.57, 0.000, 0.000, 0.000, 14:10:11.046
170, -1513.51, -1718.73, -1988.98, -1690.11, 0.000, 0.000, 0.000, 14:10:11.047
171, -1714.11, -1912.17, -2160.43, -1859.51, 0.000, 0.000, 0.000, 14:10:11.061
172, -2007.13, -2194.40, -2367.75, -2077.00, 0.000, 0.000, 0.000, 14:10:11.061
173, -1842.33, -2007.45, -2217.03, -1903.17, 0.000, 0.000, 0.000, 14:10:11.062
174, -1559.08, -1669.55, -1984.16, -1668.11, 0.000, 0.000, 0.000, 14:10:11.062
175, -1751.02, -1870.95, -2152.20, -1858.43, 0.000, 0.000, 0.000, 14:10:11.076
176, -2044.98, -2165.96, -2383.29, -2050.88, 0.000, 0.000, 0.000, 14:10:11.076
177, -1891.76, -1987.56, -2230.57, -1898.61, 0.000, 0.000, 0.000, 14:10:11.090
178, -1591.48, -1660.22, -1981.87, -1662.97, 0.000, 0.000, 0.000, 14:10:11.090
179, -1785.89, -1880.60, -2168.67, -1846.54, 0.000, 0.000, 0.000, 14:10:11.106
180, -2061.29, -2157.40, -2384.66, -2063.20, 0.000, 0.000, 0.000, 14:10:11.106
181, -1886.52, -1968.62, -2227.32, -1897.47, 0.000, 0.000, 0.000, 14:10:11.107
182, -1586.80, -1654.89, -1981.64, -1669.32, 0.000, 0.000, 0.000, 14:10:11.107
183, -1785.28, -1880.43, -2174.32, -1842.52, 0.000, 0.000, 0.000, 14:10:11.121
184, -2060.65, -2159.96, -2383.58, -2047.43, 0.000, 0.000, 0.000, 14:10:11.121
185, -1879.26, -1950.61, -2224.33, -1889.55, 0.000, 0.000, 0.000, 14:10:11.122
186, -1588.31, -1657.46, -1995.29, -1656.54, 0.000, 0.000, 0.000, 14:10:11.122
187, -1778.97, -1872.10, -2179.96, -1839.57, 0.000, 0.000, 0.000, 14:10:11.136
188, -2054.66, -2161.81, -2380.87, -2039.98, 0.000, 0.000, 0.000, 14:10:11.136
189, -1869.22, -1957.54, -2212.04, -1884.02, 0.000, 0.000, 0.000, 14:10:11.151
190, -1580.21, -1667.24, -1978.19, -1655.79, 0.000, 0.000, 0.000, 14:10:11.151
191, -1770.57, -1877.99, -2164.46, -1842.67, 0.000, 0.000, 0.000, 14:10:11.152
192, -2041.64, -2139.90, -2378.59, -2028.27, 0.000, 0.000, 0.000, 14:10:11.152
193, -1860.02, -1957.48, -2214.25, -1879.73, 0.000, 0.000, 0.000, 14:10:11.166
194, -1561.10, -1642.01, -1976.29, -1627.47, 0.000, 0.000, 0.000, 14:10:11.167
195, -1749.25, -1862.89, -2158.27, -1838.43, 0.000, 0.000, 0.000, 14:10:11.181
196, -2028.10, -2160.07, -2396.51, -2037.33, 0.000, 0.000, 0.000, 14:10:11.181
197, -1848.86, -1974.35, -2214.65, -1876.04, 0.000, 0.000, 0.000, 14:10:11.182
198, -1550.70, -1671.65, -1974.07, -1642.54, 0.000, 0.000, 0.000, 14:10:11.182
199, -1737.94, -1870.05, -2157.46, -1829.81, 0.000, 0.000, 0.000, 14:10:11.196
200, -2039.93, -2183.66, -2405.76, -2050.86, 0.000, 0.000, 0.000, 14:10:11.196
0, -1848.74, -1985.54, -2225.15, -1893.37, 0.000, 0.000, 0.000, 14:10:11.196
1, -1537.07, -1664.28, -1961.90, -1644.02, 0.000, 0.000, 0.000, 14:10:11.210
2, -1761.99, -1903.83, -2188.02, -1845.39, 0.000, 0.000, 0.000, 14:10:11.211
3, -2022.09, -2183.97, -2394.81, -2028.43, 0.000, 0.000, 0.000, 14:10:11.226
4, -1859.54, -2004.26, -2230.51, -1901.77, 0.000, 0.000, 0.000, 14:10:11.226
5, -1546.02, -1704.79, -1997.51, -1662.01, 0.000, 0.000, 0.000, 14:10:11.226
6, -1741.18, -1917.47, -2172.67, -1838.01, 0.000, 0.000, 0.000, 14:10:11.226
7, -2000.39, -2171.78, -2376.62, -2043.07, 0.000, 0.000, 0.000, 14:10:11.256
8, -1812.10, -1957.95, -2195.50, -1862.32, 0.000, 0.000, 0.000, 14:10:11.256
9, -1522.01, -1658.35, -1963.71, -1633.78, 0.000, 0.000, 0.000, 14:10:11.256
10, -1744.35, -1888.29, -2180.61, -1837.29, 0.000, 0.000, 0.000, 14:10:11.256
11, -2017.96, -2179.74, -2402.30, -2040.28, 0.000, 0.000, 0.000, 14:10:11.257
12, -1808.78, -1960.70, -2204.45, -1867.83, 0.000, 0.000, 0.000, 14:10:11.257
13, -1526.24, -1662.68, -1971.98, -1636.26, 0.000, 0.000, 0.000, 14:10:11.271
14, -1745.76, -1912.88, -2191.61, -1847.35, 0.000, 0.000, 0.000, 14:10:11.271
15, -1994.33, -2174.05, -2370.33, -2032.25, 0.000, 0.000, 0.000, 14:10:11.286
16, -1824.61, -1981.00, -2214.15, -1876.90, 0.000, 0.000, 0.000, 14:10:11.286
17, -1529.74, -1677.24, -1973.98, -1637.96, 0.000, 0.000, 0.000, 14:10:11.287
18, -1734.49, -1907.97, -2188.42, -1841.09, 0.000, 0.000, 0.000, 14:10:11.287
19, -2000.92, -2178.11, -2387.38, -2042.50, 0.000, 0.000, 0.000, 14:10:11.301
20, -1818.58, -1977.03, -2220.92, -1858.44, 0.000, 0.000, 0.000, 14:10:11.301
21, -1520.59, -1679.32, -1965.16, -1636.26, 0.000, 0.000, 0.000, 14:10:11.316
22, -1718.01, -1906.28, -2161.10, -1832.11, 0.000, 0.000, 0.000, 14:10:11.317
23, -1997.93, -2162.41, -2399.29, -2062.75, 0.000, 0.000, 0.000, 14:10:11.317
24, -1817.86, -1989.05, -2225.67, -1876.45, 0.000, 0.000, 0.000, 14:10:11.317
25, -1525.99, -1675.95, -1976.53, -1630.65, 0.000, 0.000, 0.000, 14:10:11.331
26, -1720.84, -1899.97, -2168.61, -1838.39, 0.000, 0.000, 0.000, 14:10:11.331
27, -1993.72, -2181.44, -2388.07, -2042.56, 0.000, 0.000, 0.000, 14:10:11.345
28, -1810.10, -1980.54, -2216.78, -1867.37, 0.000, 0.000, 0.000, 14:10:11.346
29, -1501.74, -1658.19, -1951.72, -1601.58, 0.000, 0.000, 0.000, 14:10:11.346
30, -1717.09, -1870.32, -2176.88, -1872.07, 0.000, 0.000, 0.000, 14:10:11.346
31, -1981.44, -2176.32, -2382.33, -2038.35, 0.000, 0.000, 0.000, 14:10:11.361
32, -1805.71, -1990.28, -2212.04, -1869.61, 0.000, 0.000, 0.000, 14:10:11.361
33, -1490.30, -1645.49, -1952.19, -1633.65, 0.000, 0.000, 0.000, 14:10:11.376
34, -1709.08, -1887.20, -2176.23, -1822.46, 0.000, 0.000, 0.000, 14:10:11.376
35, -1981.94, -2150.80, -2375.82, -2016.64, 0.000, 0.000, 0.000, 14:10:11.376
36, -1791.70, -1952.72, -2196.82, -1858.51, 0.000, 0.000, 0.000, 14:10:11.376
37, -1515.52, -1680.46, -1961.80, -1661.58, 0.000, 0.000, 0.000, 14:10:11.391
38, -1732.61, -1906.90, -2182.91, -1860.73, 0.000, 0.000, 0.000, 14:10:11.391
39, -1989.00, -2177.89, -2404.10, -2026.82, 0.000, 0.000, 0.000, 14:10:11.406
40, -1794.36, -1989.57, -2220.91, -1854.05, 0.000, 0.000, 0.000, 14:10:11.406
41, -1517.01, -1693.93, -1995.87, -1642.84, 0.000, 0.000, 0.000, 14:10:11.407
42, -1723.77, -1925.28, -2190.34, -1835.87, 0.000, 0.000, 0.000, 14:10:11.407
43, -1959.06, -2143.74, -2377.68, -2010.97, 0.000, 0.000, 0.000, 14:10:11.421
44, -1805.96, -1996.75, -2237.98, -1865.51, 0.000, 0.000, 0.000, 14:10:11.421
45, -1498.71, -1671.35, -1958.82, -1619.39, 0.000, 0.000, 0.000, 14:10:11.436
46, -1719.70, -1949.58, -2193.18, -1835.95, 0.000, 0.000, 0.000, 14:10:11.436
47, -1976.83, -2183.69, -2394.56, -2027.16, 0.000, 0.000, 0.000, 14:10:11.437
48, -1815.68, -2008.38, -2224.30, -1893.98, 0.000, 0.000, 0.000, 14:10:11.437
49, -1513.61, -1673.92, -1972.96, -1652.47, 0.000, 0.000, 0.000, 14:10:11.452
50, -1722.47, -1919.53, -2176.40, -1838.33, 0.000, 0.000, 0.000, 14:10:11.452
51, -1984.42, -2208.85, -2389.29, -2012.67, 0.000, 0.000, 0.000, 14:10:11.466
52, -1804.66, -1986.72, -2214.10, -1871.31, 0.000, 0.000, 0.000, 14:10:11.466
53, -1515.20, -1668.76, -1981.42, -1643.16, 0.000, 0.000, 0.000, 14:10:11.467
54, -1735.63, -1928.83, -2198.90, -1838.20, 0.000, 0.000, 0.000, 14:10:11.467
55, -1984.25, -2180.44, -2371.99, -2028.71, 0.000, 0.000, 0.000, 14:10:11.481
56, -1815.11, -1991.72, -2213.45, -1877.96, 0.000, 0.000, 0.000, 14:10:11.481
57, -1510.82, -1659.70, -1971.14, -1643.14, 0.000, 0.000, 0.000, 14:10:11.496
58, -1736.03, -1929.92, -2188.34, -1840.62, 0.000, 0.000, 0.000, 14:10:11.496
59, -1975.11, -2172.84, -2367.64, -2020.25, 0.000, 0.000, 0.000, 14:10:11.496
60, -1825.30, -1997.67, -2236.16, -1866.53, 0.000, 0.000, 0.000, 14:10:11.496
61, -1523.45, -1694.23, -1981.18, -1658.51, 0.000, 0.000, 0.000, 14:10:11.511
62, -1732.82, -1932.12, -2187.33, -1847.19, 0.000, 0.000, 0.000, 14:10:11.511
63, -1959.52, -2158.43, -2347.20, -2000.96, 0.000, 0.000, 0.000, 14:10:11.541
64, -1813.25, -1993.88, -2222.37, -1877.63, 0.000, 0.000, 0.000, 14:10:11.541
65, -1524.00, -1713.92, -1986.93, -1670.85, 0.000, 0.000, 0.000, 14:10:11.542
66, -1720.01, -1952.52, -2198.44, -1841.59, 0.000, 0.000, 0.000, 14:10:11.542
67, -1973.51, -2193.86, -2371.47, -2021.99, 0.000, 0.000, 0.000, 14:10:11.542
68, -1783.71, -1988.39, -2203.80, -1876.38, 0.000, 0.000, 0.000, 14:10:11.542
69, -1480.61, -1701.85, -1962.52, -1655.75, 0.000, 0.000, 0.000, 14:10:11.551
70, -1673.02, -1924.47, -2170.44, -1820.24, 0.000, 0.000, 0.000, 14:10:11.551
71, -1896.76, -2219.80, -2374.10, -2007.65, 0.000, 0.000, 0.000, 14:10:11.556
72, -1710.96, -2040.93, -2199.40, -1888.43, 0.000, 0.000, 0.000, 14:10:11.556
73, -1404.68, -1770.92, -1991.28, -1642.45, 0.000, 0.000, 0.000, 14:10:11.571
74, -1568.98, -1997.36, -2171.91, -1815.07, 0.000, 0.000, 0.000, 14:10:11.571
75, -1797.21, -2254.20, -2370.75, -2000.99, 0.000, 0.000, 0.000, 14:10:11.586
76, -1602.66, -2111.96, -2200.28, -1853.28, 0.000, 0.000, 0.000, 14:10:11.586
77, -1315.65, -1773.67, -1972.97, -1644.71, 0.000, 0.000, 0.000, 14:10:11.587
78, -1516.65, -2038.30, -2192.37, -1822.17, 0.000, 0.000, 0.000, 14:10:11.587
79, -1775.90, -2311.79, -2390.21, -1983.05, 0.000, 0.000, 0.000, 14:10:11.617
80, -1585.75, -2089.05, -2194.00, -1850.02, 0.000, 0.000, 0.000, 14:10:11.617
81, -1306.06, -1777.43, -1962.45, -1612.79, 0.000, 0.000, 0.000, 14:10:11.617
82, -1577.22, -2047.29, -2212.52, -1843.83, 0.000, 0.000, 0.000, 14:10:11.617
83, -1818.41, -2254.42, -2355.91, -2006.23, 0.000, 0.000, 0.000, 14:10:11.617
84, -1693.73, -2050.69, -2225.93, -1847.51, 0.000, 0.000, 0.000, 14:10:11.617
85, -1407.56, -1721.42, -1947.74, -1618.96, 0.000, 0.000, 0.000, 14:10:11.631
86, -1669.66, -1958.21, -2187.91, -1860.28, 0.000, 0.000, 0.000, 14:10:11.631
87, -1965.56, -2230.70, -2411.01, -2055.77, 0.000, 0.000, 0.000, 14:10:11.646
88, -1794.75, -1990.06, -2206.73, -1846.27, 0.000, 0.000, 0.000, 14:10:11.646
89, -1534.15, -1664.77, -1981.62, -1639.99, 0.000, 0.000, 0.000, 14:10:11.646
90, -1755.11, -1882.00, -2161.57, -1831.91, 0.000, 0.000, 0.000, 14:10:11.646
91, -2065.35, -2164.78, -2387.63, -2075.67, 0.000, 0.000, 0.000, 14:10:11.661
92, -1899.11, -1937.90, -2210.99, -1889.14, 0.000, 0.000, 0.000, 14:10:11.661
93, -1586.59, -1609.51, -1964.32, -1646.72, 0.000, 0.000, 0.000, 14:10:11.676
94, -1831.20, -1852.63, -2205.80, -1862.73, 0.000, 0.000, 0.000, 14:10:11.676
95, -2088.55, -2127.31, -2384.06, -2043.12, 0.000, 0.000, 0.000, 14:10:11.677
96, -1912.92, -1884.35, -2205.85, -1861.22, 0.000, 0.000, 0.000, 14:10:11.677
97, -1635.30, -1610.13, -1979.79, -1651.24, 0.000, 0.000, 0.000, 14:10:11.691
98, -1870.68, -1886.36, -2222.04, -1871.37, 0.000, 0.000, 0.000, 14:10:11.691
99, -2111.01, -2143.86, -2393.49, -2029.83, 0.000, 0.000, 0.000, 14:10:11.706
100, -1934.22, -1945.98, -2223.63, -1878.70, 0.000, 0.000, 0.000, 14:10:11.706
101, -1612.80, -1611.92, -1965.37, -1647.78, 0.000, 0.000, 0.000, 14:10:11.707
102, -1859.62, -1887.97, -2228.23, -1862.19, 0.000, 0.000, 0.000, 14:10:11.707
103, -2093.10, -2093.11, -2374.30, -2040.43, 0.000, 0.000, 0.000, 14:10:11.721
104, -1920.92, -1922.81, -2227.92, -1882.35, 0.000, 0.000, 0.000, 14:10:11.721
105, -1611.93, -1589.39, -1978.00, -1662.23, 0.000, 0.000, 0.000, 14:10:11.736
106, -1861.72, -1893.88, -2217.88, -1880.55, 0.000, 0.000, 0.000, 14:10:11.737
107, -2077.06, -2129.40, -2374.93, -1990.83, 0.000, 0.000, 0.000, 14:10:11.738
108, -1883.39, -1939.67, -2207.23, -1865.11, 0.000, 0.000, 0.000, 14:10:11.738
109, -1590.18, -1592.13, -1954.55, -1618.80, 0.000, 0.000, 0.000, 14:10:11.751
110, -1809.47, -1878.02, -2196.34, -1907.29, 0.000, 0.000, 0.000, 14:10:11.751
111, -2113.50, -2188.70, -2416.66, -2033.34, 0.000, 0.000, 0.000, 14:10:11.766
112, -1876.51, -1924.83, -2214.79, -1845.43, 0.000, 0.000, 0.000, 14:10:11.766
113, -1579.19, -1619.73, -1983.32, -1672.44, 0.000, 0.000, 0.000, 14:10:11.767
114, -1808.30, -1897.98, -2172.18, -1836.97, 0.000, 0.000, 0.000, 14:10:11.767
115, -2053.61, -2137.39, -2388.51, -1983.24, 0.000, 0.000, 0.000, 14:10:11.781
116, -1847.81, -1912.80, -2182.44, -1941.94, 0.000, 0.000, 0.000, 14:10:11.781
117, -1574.37, -1670.50, -1978.95, -1629.16, 0.000, 0.000, 0.000, 14:10:11.826
118, -1800.69, -1911.72, -2196.99, -1883.28, 0.000, 0.000, 0.000, 14:10:11.826
119, -2030.54, -2146.51, -2388.00, -1943.67, 0.000, 0.000, 0.000, 14:10:11.827
120, -1868.94, -1960.69, -2220.16, -1862.72, 0.000, 0.000, 0.000, 14:10:11.827
121, -1559.50, -1635.29, -1972.77, -1663.45, 0.000, 0.000, 0.000, 14:10:11.827
122, -1787.04, -1916.66, -2206.91, -1860.99, 0.000, 0.000, 0.000, 14:10:11.827
123, -2035.18, -2157.95, -2375.33, -2053.89, 0.000, 0.000, 0.000, 14:10:11.828
124, -1870.97, -1980.77, -2216.45, -1853.38, 0.000, 0.000, 0.000, 14:10:11.828
125, -1534.83, -1621.45, -1989.04, -1625.83, 0.000, 0.000, 0.000, 14:10:11.836
126, -1813.57, -1929.99, -2207.86, -1838.96, 0.000, 0.000, 0.000, 14:10:11.836
127, -2025.76, -2177.30, -2388.85, -2044.08, 0.000, 0.000, 0.000, 14:10:11.841
128, -1841.14, -1963.65, -2188.16, -1860.04, 0.000, 0.000, 0.000, 14:10:11.841
129, -1519.31, -1623.44, -1937.87, -1681.79, 0.000, 0.000, 0.000, 14:10:11.856
130, -1767.08, -1992.44, -2236.33, -1865.45, 0.000, 0.000, 0.000, 14:10:11.856
131, -1979.92, -2240.77, -2387.91, -2035.27, 0.000, 0.000, 0.000, 14:10:11.856
132, -1710.71, -1963.19, -2129.95, -1817.61, 0.000, 0.000, 0.000, 14:10:11.856
133, -1432.75, -1695.71, -1958.04, -1666.77, 0.000, 0.000, 0.000, 14:10:11.871
134, -1689.59, -2037.95, -2202.50, -1905.79, 0.000, 0.000, 0.000, 14:10:11.871
135, -1968.51, -2360.23, -2417.39, -2033.04, 0.000, 0.000, 0.000, 14:10:11.886
136, -1737.93, -2082.93, -2196.70, -1890.28, 0.000, 0.000, 0.000, 14:10:11.886
137, -1414.72, -1757.47, -1959.71, -1640.74, 0.000, 0.000, 0.000, 14:10:11.887
138, -1673.75, -2059.79, -2183.57, -1869.72, 0.000, 0.000, 0.000, 14:10:11.887
139, -1931.11, -2338.34, -2378.14, -2047.25, 0.000, 0.000, 0.000, 14:10:11.901
140, -1764.61, -2139.28, -2222.68, -1879.95, 0.000, 0.000, 0.000, 14:10:11.901
141, -1416.49, -1755.26, -1913.33, -1667.44, 0.000, 0.000, 0.000, 14:10:11.916
142, -1689.20, -2053.67, -2193.17, -1862.88, 0.000, 0.000, 0.000, 14:10:11.917
143, -1964.69, -2338.14, -2377.99, -2044.09, 0.000, 0.000, 0.000, 14:10:11.917
144, -1740.91, -2084.93, -2181.72, -1852.01, 0.000, 0.000, 0.000, 14:10:11.917
145, -1461.34, -1718.32, -1964.61, -1640.07, 0.000, 0.000, 0.000, 14:10:11.932
146, -1723.22, -2049.15, -2203.28, -1868.94, 0.000, 0.000, 0.000, 14:10:11.932
147, -1966.72, -2264.69, -2351.42, -2006.24, 0.000, 0.000, 0.000, 14:10:11.946
148, -1806.99, -2058.21, -2224.63, -1858.92, 0.000, 0.000, 0.000, 14:10:11.946
149, -1515.01, -1735.86, -1969.61, -1651.84, 0.000, 0.000, 0.000, 14:10:11.946
150, -1732.77, -1961.72, -2179.86, -1819.46, 0.000, 0.000, 0.000, 14:10:11.946
151, -2002.35, -2239.37, -2360.10, -2021.00, 0.000, 0.000, 0.000, 14:10:11.961
152, -1842.71, -2078.65, -2249.14, -1878.28, 0.000, 0.000, 0.000, 14:10:11.961
153, -1533.31, -1686.71, -1973.89, -1644.77, 0.000, 0.000, 0.000, 14:10:11.975
154, -1792.62, -2013.40, -2228.97, -1857.14, 0.000, 0.000, 0.000, 14:10:11.976
155, -2004.36, -2237.20, -2372.05, -2021.32, 0.000, 0.000, 0.000, 14:10:11.976
156, -1808.70, -1965.02, -2169.70, -1859.97, 0.000, 0.000, 0.000, 14:10:11.976
157, -1550.64, -1732.74, -1993.73, -1654.09, 0.000, 0.000, 0.000, 14:10:11.991
158, -1789.10, -1996.50, -2215.69, -1891.89, 0.000, 0.000, 0.000, 14:10:11.991
159, -2019.91, -2220.58, -2372.68, -2030.79, 0.000, 0.000, 0.000, 14:10:12.020
160, -1848.41, -2009.64, -2212.49, -1865.76, 0.000, 0.000, 0.000, 14:10:12.020
161, -1532.71, -1659.70, -1962.19, -1641.60, 0.000, 0.000, 0.000, 14:10:12.021
162, -1752.43, -1950.22, -2199.32, -1858.88, 0.000, 0.000, 0.000, 14:10:12.021
163, -2023.54, -2212.62, -2373.55, -2032.38, 0.000, 0.000, 0.000, 14:10:12.022
164, -1804.39, -1966.23, -2171.27, -1849.41, 0.000, 0.000, 0.000, 14:10:12.022
165, -1526.61, -1718.58, -1990.70, -1668.61, 0.000, 0.000, 0.000, 14:10:12.022
166, -1756.37, -2020.42, -2225.60, -1870.12, 0.000, 0.000, 0.000, 14:10:12.022
167, -1987.16, -2244.56, -2376.14, -2020.60, 0.000, 0.000, 0.000, 14:10:12.036
168, -1780.62, -2002.83, -2192.99, -1836.94, 0.000, 0.000, 0.000, 14:10:12.037
169, -1478.83, -1676.37, -1949.87, -1632.21, 0.000, 0.000, 0.000, 14:10:12.052
170, -1732.88, -2021.34, -2218.34, -1872.66, 0.000, 0.000, 0.000, 14:10:12.052
171, -1962.88, -2268.55, -2369.94, -2032.34, 0.000, 0.000, 0.000, 14:10:12.066
172, -1775.24, -1986.91, -2197.11, -1826.47, 0.000, 0.000, 0.000, 14:10:12.067
173, -1481.75, -1685.24, -1954.57, -1650.75, 0.000, 0.000, 0.000, 14:10:12.067
174, -1733.39, -1980.80, -2197.32, -1860.33, 0.000, 0.000, 0.000, 14:10:12.067
175, -1999.18, -2241.58, -2390.80, -2032.71, 0.000, 0.000, 0.000, 14:10:12.081
176, -1794.91, -1990.54, -2185.96, -1836.46, 0.000, 0.000, 0.000, 14:10:12.082
177, -1487.17, -1656.51, -1942.28, -1634.01, 0.000, 0.000, 0.000, 14:10:12.097
178, -1740.18, -1934.46, -2197.45, -1845.69, 0.000, 0.000, 0.000, 14:10:12.097
179, -2007.99, -2246.32, -2393.29, -2052.07, 0.000, 0.000, 0.000, 14:10:12.097
180, -1808.50, -2007.37, -2205.86, -1864.10, 0.000, 0.000, 0.000, 14:10:12.097
181, -1506.46, -1664.09, -1954.62, -1628.22, 0.000, 0.000, 0.000, 14:10:12.111
182, -1728.85, -1938.51, -2178.09, -1850.61, 0.000, 0.000, 0.000, 14:10:12.111
183, -1987.91, -2212.15, -2374.68, -1997.65, 0.000, 0.000, 0.000, 14:10:12.126
184, -1798.65, -1980.73, -2197.48, -1858.03, 0.000, 0.000, 0.000, 14:10:12.126
185, -1525.73, -1689.48, -1988.02, -1661.40, 0.000, 0.000, 0.000, 14:10:12.141
186, -1751.61, -1959.36, -2200.92, -1859.66, 0.000, 0.000, 0.000, 14:10:12.141
187, -1974.06, -2176.70, -2357.69, -2005.14, 0.000, 0.000, 0.000, 14:10:12.156
188, -1811.49, -1983.71, -2192.73, -1866.54, 0.000, 0.000, 0.000, 14:10:12.156
189, -1502.67, -1649.59, -1968.18, -1638.88, 0.000, 0.000, 0.000, 14:10:12.157
190, -1752.00, -1948.11, -2211.80, -1852.25, 0.000, 0.000, 0.000, 14:10:12.157
191, -2005.97, -2226.64, -2396.17, -2034.24, 0.000, 0.000, 0.000, 14:10:12.158
192, -1801.33, -1980.86, -2209.20, -1855.18, 0.000, 0.000, 0.000, 14:10:12.158
193, -1500.84, -1671.53, -1967.05, -1656.49, 0.000, 0.000, 0.000, 14:10:12.171
194, -1736.34, -1938.13, -2198.83, -1852.83, 0.000, 0.000, 0.000, 14:10:12.171
195, -1984.13, -2180.44, -2371.84, -2016.32, 0.000, 0.000, 0.000, 14:10:12.186
196, -1814.80, -1995.80, -2210.54, -1868.76, 0.000, 0.000, 0.000, 14:10:12.186
197, -1511.37, -1679.59, -1967.98, -1646.11, 0.000, 0.000, 0.000, 14:10:12.187
198, -1744.08, -1966.23, -2200.35, -1871.35, 0.000, 0.000, 0.000, 14:10:12.187
199, -1992.86, -2232.57, -2383.30, -2037.86, 0.000, 0.000, 0.000, 14:10:12.201
200, -1792.28, -1986.47, -2199.31, -1856.22, 0.000, 0.000, 0.000, 14:10:12.201
0, -1481.54, -1627.45, -1957.62, -1639.78, 0.000, 0.000, 0.000, 14:10:12.201
1, -1755.82, -1962.74, -2210.23, -1865.73, 0.000, 0.000, 0.000, 14:10:12.223
2, -1971.54, -2167.43, -2351.33, -2010.22, 0.000, 0.000, 0.000, 14:10:12.223
3, -1788.83, -1992.36, -2197.42, -1854.19, 0.000, 0.000, 0.000, 14:10:12.231
4, -1492.77, -1657.96, -1982.06, -1665.79, 0.000, 0.000, 0.000, 14:10:12.231
5, -1764.64, -1977.60, -2239.26, -1898.98, 0.000, 0.000, 0.000, 14:10:12.232
6, -2006.01, -2193.75, -2384.28, -2032.10, 0.000, 0.000, 0.000, 14:10:12.232
7, -1809.76, -1951.90, -2201.82, -1853.18, 0.000, 0.000, 0.000, 14:10:12.246
8, -1503.44, -1604.11, -1960.03, -1639.86, 0.000, 0.000, 0.000, 14:10:12.246
9, -1763.79, -1872.96, -2200.62, -1861.47, 0.000, 0.000, 0.000, 14:10:12.261
10, -2031.03, -2110.30, -2394.14, -2003.02, 0.000, 0.000, 0.000, 14:10:12.261
11, -1853.92, -1893.40, -2220.70, -1853.31, 0.000, 0.000, 0.000, 14:10:12.262
12, -1546.80, -1540.78, -1964.89, -1638.97, 0.000, 0.000, 0.000, 14:10:12.262
13, -1821.31, -1833.77, -2225.90, -1862.10, 0.000, 0.000, 0.000, 14:10:12.276
14, -2050.14, -2046.60, -2381.74, -2001.34, 0.000, 0.000, 0.000, 14:10:12.276
15, -1870.78, -1801.51, -2212.06, -1852.57, 0.000, 0.000, 0.000, 14:10:12.291
16, -1568.92, -1489.47, -1968.52, -1621.73, 0.000, 0.000, 0.000, 14:10:12.291
17, -1836.14, -1782.30, -2219.61, -1861.30, 0.000, 0.000, 0.000, 14:10:12.291
18, -2079.60, -2034.69, -2393.21, -2013.73, 0.000, 0.000, 0.000, 14:10:12.291
19, -1881.34, -1811.71, -2207.23, -1849.89, 0.000, 0.000, 0.000, 14:10:12.306
20, -1557.83, -1463.18, -1958.76, -1612.59, 0.000, 0.000, 0.000, 14:10:12.306
21, -1824.50, -1786.65, -2213.11, -1849.99, 0.000, 0.000, 0.000, 14:10:12.321
22, -2082.57, -2046.05, -2397.15, -2015.80, 0.000, 0.000, 0.000, 14:10:12.321
23, -1865.09, -1812.98, -2195.19, -1844.22, 0.000, 0.000, 0.000, 14:10:12.321
24, -1551.34, -1496.43, -1955.55, -1622.17, 0.000, 0.000, 0.000, 14:10:12.321
25, -1816.48, -1845.43, -2218.88, -1864.81, 0.000, 0.000, 0.000, 14:10:12.337
26, -2055.33, -2098.56, -2393.38, -2020.91, 0.000, 0.000, 0.000, 14:10:12.337
27, -1852.28, -1883.36, -2210.14, -1862.36, 0.000, 0.000, 0.000, 14:10:12.351
28, -1529.69, -1566.26, -1953.37, -1628.48, 0.000, 0.000, 0.000, 14:10:12.351
29, -1813.21, -1926.90, -2250.64, -1891.53, 0.000, 0.000, 0.000, 14:10:12.352
30, -2047.86, -2165.41, -2408.86, -2023.05, 0.000, 0.000, 0.000, 14:10:12.352
31, -1826.84, -1942.46, -2198.34, -1867.15, 0.000, 0.000, 0.000, 14:10:12.366
32, -1488.35, -1559.61, -1929.47, -1614.00, 0.000, 0.000, 0.000, 14:10:12.366
33, -1791.06, -1909.47, -2219.74, -1867.53, 0.000, 0.000, 0.000, 14:10:12.381
34, -2045.55, -2173.18, -2416.70, -2034.47, 0.000, 0.000, 0.000, 14:10:12.381
35, -1819.26, -1923.10, -2205.26, -1868.26, 0.000, 0.000, 0.000, 14:10:12.382
36, -1484.64, -1568.94, -1921.17, -1612.20, 0.000, 0.000, 0.000, 14:10:12.382
37, -1788.90, -1938.69, -2224.25, -1878.42, 0.000, 0.000, 0.000, 14:10:12.396
38, -2034.63, -2189.95, -2409.84, -2051.18, 0.000, 0.000, 0.000, 14:10:12.396
39, -1802.34, -1948.40, -2185.10, -1856.05, 0.000, 0.000, 0.000, 14:10:12.410
40, -1474.15, -1582.31, -1925.87, -1614.35, 0.000, 0.000, 0.000, 14:10:12.411
41, -1769.77, -1929.91, -2220.85, -1881.28, 0.000, 0.000, 0.000, 14:10:12.411
42, -2025.04, -2194.09, -2406.43, -2034.92, 0.000, 0.000, 0.000, 14:10:12.411
43, -1800.97, -1939.49, -2193.60, -1861.30, 0.000, 0.000, 0.000, 14:10:12.426
44, -1479.67, -1609.79, -1931.23, -1616.58, 0.000, 0.000, 0.000, 14:10:12.426
45, -1781.53, -1954.63, -2223.73, -1891.85, 0.000, 0.000, 0.000, 14:10:12.441
46, -2030.99, -2219.17, -2411.16, -2055.75, 0.000, 0.000, 0.000, 14:10:12.441
47, -1791.18, -1941.83, -2187.74, -1834.18, 0.000, 0.000, 0.000, 14:10:12.442
48, -1479.98, -1615.38, -1929.64, -1620.12, 0.000, 0.000, 0.000, 14:10:12.442
49, -1784.53, -1961.90, -2228.84, -1896.40, 0.000, 0.000, 0.000, 14:10:12.455
50, -2047.65, -2235.93, -2419.25, -2062.03, 0.000, 0.000, 0.000, 14:10:12.455
51, -1811.18, -1958.20, -2198.63, -1854.03, 0.000, 0.000, 0.000, 14:10:12.470
52, -1489.27, -1637.01, -1948.98, -1621.90, 0.000, 0.000, 0.000, 14:10:12.471
53, -1792.55, -1991.90, -2243.93, -1889.03, 0.000, 0.000, 0.000, 14:10:12.471
54, -2036.23, -2237.42, -2421.60, -2042.96, 0.000, 0.000, 0.000, 14:10:12.471
55, -1802.96, -1970.72, -2193.42, -1842.56, 0.000, 0.000, 0.000, 14:10:12.492
56, -1488.15, -1640.08, -1937.61, -1620.52, 0.000, 0.000, 0.000, 14:10:12.492
57, -1783.69, -1974.92, -2231.61, -1891.21, 0.000, 0.000, 0.000, 14:10:12.501
58, -2034.86, -2231.03, -2412.29, -2048.19, 0.000, 0.000, 0.000, 14:10:12.501
59, -1798.91, -1973.39, -2196.01, -1841.18, 0.000, 0.000, 0.000, 14:10:12.502
60, -1472.94, -1610.65, -1927.93, -1627.75, 0.000, 0.000, 0.000, 14:10:12.502
61, -1774.98, -1979.70, -2225.92, -1875.64, 0.000, 0.000, 0.000, 14:10:12.516
62, -2012.93, -2247.76, -2403.92, -2046.49, 0.000, 0.000, 0.000, 14:10:12.517
63, -1793.97, -2012.45, -2193.83, -1855.20, 0.000, 0.000, 0.000, 14:10:12.531
64, -1456.87, -1631.13, -1927.77, -1622.68, 0.000, 0.000, 0.000, 14:10:12.531
65, -1742.95, -1990.62, -2214.11, -1883.99, 0.000, 0.000, 0.000, 14:10:12.531
66, -1970.12, -2230.78, -2395.42, -2035.89, 0.000, 0.000, 0.000, 14:10:12.531
67, -1713.10, -1993.88, -2171.23, -1837.13, 0.000, 0.000, 0.000, 14:10:12.546
68, -1356.43, -1675.67, -1903.24, -1598.95, 0.000, 0.000, 0.000, 14:10:12.546
69, -1640.70, -2049.79, -2228.54, -1869.36, 0.000, 0.000, 0.000, 14:10:12.561
70, -1821.08, -2322.22, -2383.33, -2038.90, 0.000, 0.000, 0.000, 14:10:12.561
71, -1556.74, -2094.56, -2167.06, -1837.57, 0.000, 0.000, 0.000, 14:10:12.562
72, -1218.18, -1744.33, -1919.69, -1597.89, 0.000, 0.000, 0.000, 14:10:12.562
73, -1524.20, -2131.19, -2222.55, -1870.08, 0.000, 0.000, 0.000, 14:10:12.576
74, -1772.62, -2369.26, -2394.21, -2026.30, 0.000, 0.000, 0.000, 14:10:12.576
75, -1546.24, -2101.00, -2172.18, -1835.91, 0.000, 0.000, 0.000, 14:10:12.591
76, -1237.35, -1737.18, -1909.58, -1584.83, 0.000, 0.000, 0.000, 14:10:12.591
77, -1606.32, -2105.34, -2226.32, -1879.30, 0.000, 0.000, 0.000, 14:10:12.591
78, -1870.97, -2322.73, -2395.91, -2039.21, 0.000, 0.000, 0.000, 14:10:12.592
79, -1671.55, -2032.46, -2177.85, -1849.09, 0.000, 0.000, 0.000, 14:10:12.605
80, -1400.18, -1664.93, -1932.38, -1609.64, 0.000, 0.000, 0.000, 14:10:12.605
81, -1753.36, -2019.21, -2238.16, -1887.06, 0.000, 0.000, 0.000, 14:10:12.621
82, -2025.01, -2234.86, -2413.70, -2061.12, 0.000, 0.000, 0.000, 14:10:12.621
83, -1812.85, -1944.49, -2187.71, -1867.58, 0.000, 0.000, 0.000, 14:10:12.622
84, -1491.52, -1561.80, -1913.83, -1620.15, 0.000, 0.000, 0.000, 14:10:12.622
85, -1852.48, -1941.61, -2248.60, -1905.36, 0.000, 0.000, 0.000, 14:10:12.637
86, -2108.59, -2205.79, -2417.54, -2053.34, 0.000, 0.000, 0.000, 14:10:12.637
87, -1873.15, -1905.52, -2179.15, -1857.35, 0.000, 0.000, 0.000, 14:10:12.651
88, -1557.76, -1542.03, -1936.59, -1619.20, 0.000, 0.000, 0.000, 14:10:12.651
89, -1902.30, -1961.76, -2264.83, -1926.72, 0.000, 0.000, 0.000, 14:10:12.651
90, -2133.36, -2184.74, -2419.56, -2062.93, 0.000, 0.000, 0.000, 14:10:12.651
91, -1892.51, -1887.39, -2181.37, -1847.68, 0.000, 0.000, 0.000, 14:10:12.667
92, -1560.94, -1533.68, -1917.07, -1616.51, 0.000, 0.000, 0.000, 14:10:12.667
93, -1897.91, -1936.95, -2246.49, -1903.18, 0.000, 0.000, 0.000, 14:10:12.681
94, -2136.52, -2181.77, -2420.79, -2083.19, 0.000, 0.000, 0.000, 14:10:12.681
95, -1896.57, -1915.94, -2195.90, -1846.03, 0.000, 0.000, 0.000, 14:10:12.681
96, -1555.87, -1548.83, -1930.89, -1612.35, 0.000, 0.000, 0.000, 14:10:12.681
97, -1883.98, -1955.02, -2256.07, -1917.64, 0.000, 0.000, 0.000, 14:10:12.695
98, -2112.98, -2181.32, -2417.96, -2055.16, 0.000, 0.000, 0.000, 14:10:12.696
99, -1866.59, -1906.06, -2179.08, -1852.14, 0.000, 0.000, 0.000, 14:10:12.711
100, -1543.32, -1567.26, -1931.66, -1616.66, 0.000, 0.000, 0.000, 14:10:12.711
101, -1871.95, -1970.65, -2256.00, -1900.89, 0.000, 0.000, 0.000, 14:10:12.712
102, -2097.04, -2178.27, -2421.77, -2046.79, 0.000, 0.000, 0.000, 14:10:12.712
103, -1855.18, -1924.50, -2189.41, -1855.40, 0.000, 0.000, 0.000, 14:10:12.726
104, -1530.27, -1565.65, -1937.34, -1619.74, 0.000, 0.000, 0.000, 14:10:12.726
105, -1856.59, -1956.37, -2248.06, -1902.14, 0.000, 0.000, 0.000, 14:10:12.741
106, -2088.00, -2208.98, -2408.10, -2045.97, 0.000, 0.000, 0.000, 14:10:12.741
107, -1846.03, -1934.61, -2201.06, -1853.83, 0.000, 0.000, 0.000, 14:10:12.742
108, -1515.86, -1593.17, -1942.88, -1614.15, 0.000, 0.000, 0.000, 14:10:12.742
109, -1842.48, -1979.27, -2243.97, -1914.74, 0.000, 0.000, 0.000, 14:10:12.762
110, -2059.64, -2192.99, -2399.06, -2058.05, 0.000, 0.000, 0.000, 14:10:12.762
111, -1824.75, -1935.98, -2191.51, -1847.01, 0.000, 0.000, 0.000, 14:10:12.770
112, -1495.87, -1596.99, -1933.60, -1615.66, 0.000, 0.000, 0.000, 14:10:12.770
113, -1831.44, -1987.23, -2267.34, -1907.59, 0.000, 0.000, 0.000, 14:10:12.771
114, -2055.36, -2216.00, -2407.76, -2057.40, 0.000, 0.000, 0.000, 14:10:12.771
115, -1807.51, -1937.24, -2171.16, -1848.11, 0.000, 0.000, 0.000, 14:10:12.787
116, -1487.22, -1608.70, -1930.96, -1623.63, 0.000, 0.000, 0.000, 14:10:12.787
117, -1819.14, -2004.84, -2243.76, -1909.07, 0.000, 0.000, 0.000, 14:10:12.801
118, -2047.91, -2216.02, -2412.69, -2041.79, 0.000, 0.000, 0.000, 14:10:12.801
119, -1795.69, -1926.90, -2178.99, -1840.79, 0.000, 0.000, 0.000, 14:10:12.802
120, -1487.44, -1607.52, -1944.70, -1626.70, 0.000, 0.000, 0.000, 14:10:12.802
121, -1818.38, -1997.78, -2258.40, -1906.71, 0.000, 0.000, 0.000, 14:10:12.817
122, -2027.99, -2220.15, -2401.40, -2030.09, 0.000, 0.000, 0.000, 14:10:12.817
123, -1787.25, -1929.38, -2168.67, -1848.28, 0.000, 0.000, 0.000, 14:10:12.831
124, -1471.70, -1599.48, -1925.87, -1606.89, 0.000, 0.000, 0.000, 14:10:12.831
125, -1795.69, -1978.82, -2242.14, -1894.40, 0.000, 0.000, 0.000, 14:10:12.832
126, -2033.04, -2221.56, -2409.13, -2045.81, 0.000, 0.000, 0.000, 14:10:12.832
127, -1775.54, -1927.99, -2177.33, -1837.45, 0.000, 0.000, 0.000, 14:10:12.846
128, -1463.10, -1597.11, -1923.94, -1608.05, 0.000, 0.000, 0.000, 14:10:12.846
129, -1795.27, -1998.22, -2250.21, -1905.89, 0.000, 0.000, 0.000, 14:10:12.861
130, -2016.43, -2220.00, -2397.33, -2040.38, 0.000, 0.000, 0.000, 14:10:12.861
131, -1782.81, -1951.62, -2181.64, -1846.96, 0.000, 0.000, 0.000, 14:10:12.862
132, -1461.39, -1590.95, -1933.34, -1613.71, 0.000, 0.000, 0.000, 14:10:12.862
133, -1788.63, -1977.92, -2244.97, -1906.09, 0.000, 0.000, 0.000, 14:10:12.876
134, -2017.38, -2204.51, -2389.49, -2037.24, 0.000, 0.000, 0.000, 14:10:12.876
135, -1793.91, -1948.62, -2192.81, -1846.40, 0.000, 0.000, 0.000, 14:10:12.891
136, -1473.12, -1619.27, -1937.66, -1614.68, 0.000, 0.000, 0.000, 14:10:12.891
137, -1813.40, -2009.23, -2265.22, -1906.36, 0.000, 0.000, 0.000, 14:10:12.891
138, -2028.79, -2241.06, -2415.00, -2046.43, 0.000, 0.000, 0.000, 14:10:12.891
139, -1784.10, -1958.90, -2187.93, -1839.59, 0.000, 0.000, 0.000, 14:10:12.906
140, -1461.24, -1615.76, -1928.75, -1625.86, 0.000, 0.000, 0.000, 14:10:12.906
141, -1803.23, -2012.05, -2260.55, -1893.39, 0.000, 0.000, 0.000, 14:10:12.921
142, -2014.24, -2223.30, -2392.57, -2048.35, 0.000, 0.000, 0.000, 14:10:12.921
143, -1757.91, -1913.82, -2164.13, -1843.05, 0.000, 0.000, 0.000, 14:10:12.922
144, -1452.00, -1587.44, -1918.82, -1608.32, 0.000, 0.000, 0.000, 14:10:12.922
145, -1808.54, -1980.92, -2252.99, -1905.32, 0.000, 0.000, 0.000, 14:10:12.937
146, -2012.28, -2198.43, -2402.73, -2041.51, 0.000, 0.000, 0.000, 14:10:12.937
147, -1769.24, -1931.96, -2168.83, -1834.54, 0.000, 0.000, 0.000, 14:10:12.951
148, -1452.62, -1603.95, -1928.02, -1612.29, 0.000, 0.000, 0.000, 14:10:12.951
149, -1800.70, -2007.53, -2251.03, -1907.18, 0.000, 0.000, 0.000, 14:10:12.951
150, -2018.46, -2220.00, -2409.03, -2043.96, 0.000, 0.000, 0.000, 14:10:12.951
151, -1765.62, -1925.46, -2165.91, -1825.46, 0.000, 0.000, 0.000, 14:10:12.967
152, -1453.47, -1589.41, -1911.57, -1604.45, 0.000, 0.000, 0.000, 14:10:12.967
153, -1811.77, -1996.75, -2260.40, -1916.29, 0.000, 0.000, 0.000, 14:10:12.982
154, -2031.65, -2228.29, -2413.15, -2056.14, 0.000, 0.000, 0.000, 14:10:12.982
155, -1773.97, -1938.59, -2164.71, -1825.28, 0.000, 0.000, 0.000, 14:10:12.982
156, -1450.97, -1590.19, -1917.08, -1616.51, 0.000, 0.000, 0.000, 14:10:12.982
157, -1809.01, -2001.12, -2262.33, -1910.04, 0.000, 0.000, 0.000, 14:10:12.996
158, -2024.34, -2220.18, -2402.01, -2048.49, 0.000, 0.000, 0.000, 14:10:12.996
159, -1783.24, -1963.03, -2181.17, -1852.78, 0.000, 0.000, 0.000, 14:10:13.010
160, -1453.03, -1590.26, -1915.05, -1591.47, 0.000, 0.000, 0.000, 14:10:13.010
161, -1816.17, -2010.93, -2262.90, -1919.35, 0.000, 0.000, 0.000, 14:10:13.011
162, -2035.37, -2232.07, -2413.22, -2054.84, 0.000, 0.000, 0.000, 14:10:13.011
163, -1770.97, -1933.30, -2166.39, -1838.95, 0.000, 0.000, 0.000, 14:10:13.026
164, -1465.14, -1612.27, -1916.72, -1614.79, 0.000, 0.000, 0.000, 14:10:13.026
165, -1820.03, -2004.86, -2251.09, -1921.43, 0.000, 0.000, 0.000, 14:10:13.041
166, -2030.13, -2228.94, -2407.52, -2052.52, 0.000, 0.000, 0.000, 14:10:13.041
167, -1773.59, -1939.49, -2166.62, -1830.87, 0.000, 0.000, 0.000, 14:10:13.042
168, -1470.12, -1613.68, -1923.95, -1616.41, 0.000, 0.000, 0.000, 14:10:13.042
169, -1832.98, -2032.19, -2274.85, -1938.26, 0.000, 0.000, 0.000, 14:10:13.056
170, -2061.26, -2264.71, -2427.71, -2073.61, 0.000, 0.000, 0.000, 14:10:13.056
171, -1735.36, -1935.36, -2141.29, -1814.65, 0.000, 0.000, 0.000, 14:10:13.071
172, -1421.99, -1634.05, -1908.29, -1613.60, 0.000, 0.000, 0.000, 14:10:13.071
173, -1781.33, -2077.05, -2269.28, -1943.25, 0.000, 0.000, 0.000, 14:10:13.071
174, -1978.11, -2295.54, -2413.46, -2063.75, 0.000, 0.000, 0.000, 14:10:13.071
175, -1683.82, -2001.37, -2145.99, -1841.72, 0.000, 0.000, 0.000, 14:10:13.086
176, -1377.24, -1696.70, -1915.43, -1630.17, 0.000, 0.000, 0.000, 14:10:13.087
177, -1729.02, -2107.06, -2262.63, -1926.95, 0.000, 0.000, 0.000, 14:10:13.101
178, -1949.82, -2330.32, -2409.72, -2064.45, 0.000, 0.000, 0.000, 14:10:13.101
179, -1700.37, -2041.36, -2172.65, -1840.43, 0.000, 0.000, 0.000, 14:10:13.102
180, -1397.46, -1693.79, -1924.14, -1609.48, 0.000, 0.000, 0.000, 14:10:13.102
181, -1782.93, -2102.31, -2276.31, -1923.65, 0.000, 0.000, 0.000, 14:10:13.117
182, -2009.15, -2294.74, -2416.45, -2058.84, 0.000, 0.000, 0.000, 14:10:13.117
183, -1753.26, -1989.66, -2161.15, -1832.23, 0.000, 0.000, 0.000, 14:10:13.131
184, -1446.53, -1647.50, -1918.99, -1608.56, 0.000, 0.000, 0.000, 14:10:13.132
185, -1818.50, -2052.30, -2265.94, -1926.40, 0.000, 0.000, 0.000, 14:10:13.132
186, -2023.25, -2253.85, -2407.91, -2051.79, 0.000, 0.000, 0.000, 14:10:13.132
187, -1772.17, -1961.65, -2156.91, -1836.06, 0.000, 0.000, 0.000, 14:10:13.146
188, -1454.17, -1625.94, -1909.81, -1607.82, 0.000, 0.000, 0.000, 14:10:13.146
189, -1819.78, -2035.75, -2269.75, -1920.83, 0.000, 0.000, 0.000, 14:10:13.161
190, -2043.79, -2246.25, -2416.11, -2049.93, 0.000, 0.000, 0.000, 14:10:13.161
191, -1776.23, -1953.39, -2159.86, -1839.46, 0.000, 0.000, 0.000, 14:10:13.175
192, -1461.72, -1611.85, -1917.44, -1602.16, 0.000, 0.000, 0.000, 14:10:13.176
193, -1837.25, -2036.33, -2280.82, -1923.34, 0.000, 0.000, 0.000, 14:10:13.176
194, -2032.46, -2228.80, -2408.40, -2043.72, 0.000, 0.000, 0.000, 14:10:13.176
195, -1774.61, -1921.01, -2158.66, -1815.60, 0.000, 0.000, 0.000, 14:10:13.191
196, -1464.71, -1594.00, -1915.62, -1610.08, 0.000, 0.000, 0.000, 14:10:13.191
197, -1832.93, -2030.50, -2276.45, -1921.73, 0.000, 0.000, 0.000, 14:10:13.192
198, -2027.82, -2223.22, -2403.37, -2053.05, 0.000, 0.000, 0.000, 14:10:13.192
199, -1774.56, -1934.61, -2166.35, -1821.63, 0.000, 0.000, 0.000, 14:10:13.206
200, -1455.84, -1600.69, -1913.59, -1603.60, 0.000, 0.000, 0.000, 14:10:13.206
0, -1825.66, -2015.43, -2265.13, -1905.67, 0.000, 0.000, 0.000, 14:10:13.221
1, -2031.23, -2212.30, -2397.38, -2037.54, 0.000, 0.000, 0.000, 14:10:13.222
2, -1765.15, -1920.45, -2148.05, -1825.99, 0.000, 0.000, 0.000, 14:10:13.222
3, -1455.75, -1591.38, -1908.94, -1595.22, 0.000, 0.000, 0.000, 14:10:13.223
4, -1830.64, -2036.12, -2271.37, -1926.94, 0.000, 0.000, 0.000, 14:10:13.223
5, -2028.19, -2229.57, -2399.72, -2047.65, 0.000, 0.000, 0.000, 14:10:13.237
6, -1763.45, -1923.56, -2149.46, -1816.64, 0.000, 0.000, 0.000, 14:10:13.237
7, -1456.85, -1597.96, -1914.32, -1598.16, 0.000, 0.000, 0.000, 14:10:13.252
8, -1828.38, -2030.78, -2273.53, -1930.33, 0.000, 0.000, 0.000, 14:10:13.252
9, -2023.43, -2216.52, -2407.78, -2050.19, 0.000, 0.000, 0.000, 14:10:13.266
10, -1761.32, -1908.22, -2151.10, -1814.32, 0.000, 0.000, 0.000, 14:10:13.267
11, -1443.06, -1578.58, -1900.46, -1598.55, 0.000, 0.000, 0.000, 14:10:13.267
12, -1831.92, -2025.23, -2277.07, -1931.04, 0.000, 0.000, 0.000, 14:10:13.268
13, -2029.44, -2219.97, -2411.31, -2048.27, 0.000, 0.000, 0.000, 14:10:13.282
14, -1754.05, -1918.14, -2154.44, -1814.06, 0.000, 0.000, 0.000, 14:10:13.284
15, -1441.79, -1582.88, -1902.63, -1601.25, 0.000, 0.000, 0.000, 14:10:13.296
16, -1830.00, -2031.44, -2276.00, -1924.13, 0.000, 0.000, 0.000, 14:10:13.296
17, -2029.05, -2226.60, -2397.80, -2054.78, 0.000, 0.000, 0.000, 14:10:13.297
18, -1746.30, -1903.29, -2128.72, -1814.39, 0.000, 0.000, 0.000, 14:10:13.297
19, -1432.87, -1576.71, -1892.34, -1582.83, 0.000, 0.000, 0.000, 14:10:13.310
20, -1835.35, -2030.85, -2275.23, -1932.17, 0.000, 0.000, 0.000, 14:10:13.311
21, -2040.24, -2237.71, -2430.30, -2061.81, 0.000, 0.000, 0.000, 14:10:13.325
22, -1761.84, -1932.83, -2159.56, -1821.87, 0.000, 0.000, 0.000, 14:10:13.325
23, -1446.48, -1589.94, -1903.55, -1597.00, 0.000, 0.000, 0.000, 14:10:13.326
24, -1844.73, -2037.75, -2286.12, -1945.34, 0.000, 0.000, 0.000, 14:10:13.326
25, -2043.94, -2243.73, -2422.29, -2066.08, 0.000, 0.000, 0.000, 14:10:13.341
26, -1748.02, -1903.21, -2149.31, -1782.13, 0.000, 0.000, 0.000, 14:10:13.341
27, -1485.50, -1583.61, -1939.04, -1580.95, 0.000, 0.000, 0.000, 14:10:13.371
28, -1877.67, -2012.93, -2312.59, -1903.37, 0.000, 0.000, 0.000, 14:10:13.371
29, -2067.17, -2185.95, -2443.75, -2009.93, 0.000, 0.000, 0.000, 14:10:13.371
30, -1803.94, -1863.91, -2190.54, -1768.91, 0.000, 0.000, 0.000, 14:10:13.371
31, -1492.01, -1518.68, -1931.82, -1535.58, 0.000, 0.000, 0.000, 14:10:13.372
32, -1890.34, -1965.61, -2316.15, -1882.02, 0.000, 0.000, 0.000, 14:10:13.372
33, -2085.97, -2155.71, -2449.39, -1996.69, 0.000, 0.000, 0.000, 14:10:13.373
34, -1821.45, -1855.91, -2193.73, -1774.29, 0.000, 0.000, 0.000, 14:10:13.373
35, -1541.76, -1563.36, -1968.94, -1569.55, 0.000, 0.000, 0.000, 14:10:13.386
36, -1925.24, -2002.28, -2335.37, -1922.66, 0.000, 0.000, 0.000, 14:10:13.386
37, -2074.10, -2165.93, -2433.12, -2034.79, 0.000, 0.000, 0.000, 14:10:13.401
38, -1767.72, -1841.84, -2142.15, -1770.18, 0.000, 0.000, 0.000, 14:10:13.401
39, -1460.93, -1537.03, -1902.33, -1566.85, 0.000, 0.000, 0.000, 14:10:13.417
40, -1853.66, -1977.81, -2276.60, -1911.48, 0.000, 0.000, 0.000, 14:10:13.417
41, -2055.49, -2188.63, -2427.39, -2038.60, 0.000, 0.000, 0.000, 14:10:13.418
42, -1772.93, -1878.06, -2152.46, -1799.91, 0.000, 0.000, 0.000, 14:10:13.418
43, -1470.75, -1569.10, -1908.65, -1585.16, 0.000, 0.000, 0.000, 14:10:13.431
44, -1862.90, -2022.64, -2285.99, -1937.86, 0.000, 0.000, 0.000, 14:10:13.431
45, -2054.29, -2214.82, -2422.03, -2061.06, 0.000, 0.000, 0.000, 14:10:13.446
46, -1773.03, -1916.40, -2166.35, -1821.35, 0.000, 0.000, 0.000, 14:10:13.446
47, -1461.53, -1589.24, -1907.95, -1595.32, 0.000, 0.000, 0.000, 14:10:13.447
48, -1852.62, -2044.24, -2298.30, -1946.70, 0.000, 0.000, 0.000, 14:10:13.447
49, -2027.51, -2206.39, -2400.78, -2052.66, 0.000, 0.000, 0.000, 14:10:13.461
50, -1750.83, -1890.30, -2142.70, -1820.80, 0.000, 0.000, 0.000, 14:10:13.461
51, -1448.19, -1571.19, -1886.81, -1592.87, 0.000, 0.000, 0.000, 14:10:13.475
52, -1847.19, -2031.88, -2279.10, -1943.52, 0.000, 0.000, 0.000, 14:10:13.475
53, -2036.77, -2217.01, -2391.20, -2064.55, 0.000, 0.000, 0.000, 14:10:13.476
54, -1755.05, -1903.13, -2135.75, -1825.34, 0.000, 0.000, 0.000, 14:10:13.476
55, -1454.46, -1591.99, -1890.64, -1602.71, 0.000, 0.000, 0.000, 14:10:13.491
56, -1850.92, -2046.25, -2282.60, -1949.08, 0.000, 0.000, 0.000, 14:10:13.491
57, -2026.53, -2208.87, -2401.74, -2065.84, 0.000, 0.000, 0.000, 14:10:13.505
58, -1734.97, -1876.82, -2122.34, -1815.03, 0.000, 0.000, 0.000, 14:10:13.505
59, -1443.91, -1585.29, -1896.69, -1598.45, 0.000, 0.000, 0.000, 14:10:13.537
60, -1835.66, -2020.51, -2262.98, -1957.90, 0.000, 0.000, 0.000, 14:10:13.537
61, -2016.90, -2200.47, -2390.23, -2058.15, 0.000, 0.000, 0.000, 14:10:13.537
62, -1750.00, -1896.56, -2126.84, -1816.19, 0.000, 0.000, 0.000, 14:10:13.537
63, -1445.44, -1585.00, -1895.16, -1596.60, 0.000, 0.000, 0.000, 14:10:13.537
64, -1841.78, -2038.60, -2273.17, -1959.17, 0.000, 0.000, 0.000, 14:10:13.537
65, -2028.43, -2221.75, -2404.70, -2071.24, 0.000, 0.000, 0.000, 14:10:13.538
66, -1749.23, -1908.03, -2138.58, -1817.06, 0.000, 0.000, 0.000, 14:10:13.538
67, -1442.93, -1580.02, -1894.34, -1595.84, 0.000, 0.000, 0.000, 14:10:13.567
68, -1844.97, -2039.93, -2273.68, -1946.65, 0.000, 0.000, 0.000, 14:10:13.567
69, -2026.91, -2216.12, -2395.98, -2070.03, 0.000, 0.000, 0.000, 14:10:13.567
70, -1748.63, -1909.45, -2143.87, -1810.25, 0.000, 0.000, 0.000, 14:10:13.567
71, -1467.82, -1597.93, -1911.62, -1601.66, 0.000, 0.000, 0.000, 14:10:13.568
72, -1885.70, -2071.30, -2316.14, -1972.97, 0.000, 0.000, 0.000, 14:10:13.569
73, -2035.11, -2205.73, -2381.22, -2081.73, 0.000, 0.000, 0.000, 14:10:13.581
74, -1734.36, -1851.77, -2094.12, -1828.62, 0.000, 0.000, 0.000, 14:10:13.581
75, -1477.53, -1566.31, -1886.87, -1623.79, 0.000, 0.000, 0.000, 14:10:13.595
76, -1845.37, -1979.15, -2229.42, -1977.74, 0.000, 0.000, 0.000, 14:10:13.595
77, -2023.67, -2150.99, -2338.99, -2090.02, 0.000, 0.000, 0.000, 14:10:13.625
78, -1761.77, -1835.66, -2091.11, -1848.24, 0.000, 0.000, 0.000, 14:10:13.625
79, -1473.81, -1547.77, -1871.35, -1655.89, 0.000, 0.000, 0.000, 14:10:13.626
80, -1883.91, -2025.58, -2267.99, -2002.74, 0.000, 0.000, 0.000, 14:10:13.626
81, -2046.95, -2187.82, -2365.37, -2076.53, 0.000, 0.000, 0.000, 14:10:13.627
82, -1752.84, -1848.33, -2095.14, -1846.04, 0.000, 0.000, 0.000, 14:10:13.627
83, -1448.90, -1544.49, -1863.08, -1610.58, 0.000, 0.000, 0.000, 14:10:13.627
84, -1840.53, -1992.35, -2234.74, -1949.07, 0.000, 0.000, 0.000, 14:10:13.627
85, -2030.99, -2180.11, -2380.51, -2051.86, 0.000, 0.000, 0.000, 14:10:13.641
86, -1752.44, -1882.01, -2119.16, -1832.25, 0.000, 0.000, 0.000, 14:10:13.641
87, -1462.85, -1558.99, -1893.29, -1619.05, 0.000, 0.000, 0.000, 14:10:13.656
88, -1866.35, -2034.79, -2288.11, -1946.95, 0.000, 0.000, 0.000, 14:10:13.656
89, -2021.17, -2178.23, -2380.58, -2084.35, 0.000, 0.000, 0.000, 14:10:13.656
90, -1745.83, -1876.40, -2126.79, -1803.64, 0.000, 0.000, 0.000, 14:10:13.656
91, -1475.56, -1598.78, -1918.64, -1610.40, 0.000, 0.000, 0.000, 14:10:13.687
92, -1844.95, -2026.42, -2271.49, -1941.93, 0.000, 0.000, 0.000, 14:10:13.687
93, -2024.06, -2209.27, -2400.02, -2068.44, 0.000, 0.000, 0.000, 14:10:13.687
94, -1750.79, -1896.08, -2134.13, -1802.51, 0.000, 0.000, 0.000, 14:10:13.687
95, -1474.95, -1603.73, -1928.61, -1614.56, 0.000, 0.000, 0.000, 14:10:13.687
96, -1851.72, -2050.97, -2284.90, -1954.41, 0.000, 0.000, 0.000, 14:10:13.687
97, -2019.54, -2191.53, -2405.48, -2054.16, 0.000, 0.000, 0.000, 14:10:13.701
98, -1751.97, -1919.88, -2156.33, -1809.91, 0.000, 0.000, 0.000, 14:10:13.701
99, -1486.12, -1628.29, -1941.22, -1612.36, 0.000, 0.000, 0.000, 14:10:13.717
100, -1863.16, -2081.79, -2316.40, -1954.16, 0.000, 0.000, 0.000, 14:10:13.717
101, -2003.65, -2215.20, -2386.36, -2035.80, 0.000, 0.000, 0.000, 14:10:13.717
102, -1747.78, -1927.68, -2147.95, -1801.10, 0.000, 0.000, 0.000, 14:10:13.717
103, -1484.63, -1649.42, -1941.15, -1621.91, 0.000, 0.000, 0.000, 14:10:13.731
104, -1840.21, -2044.92, -2292.94, -1933.69, 0.000, 0.000, 0.000, 14:10:13.731
105, -1997.89, -2193.27, -2385.57, -2018.78, 0.000, 0.000, 0.000, 14:10:13.746
106, -1744.36, -1910.02, -2148.42, -1797.08, 0.000, 0.000, 0.000, 14:10:13.746
107, -1482.30, -1637.33, -1944.58, -1620.65, 0.000, 0.000, 0.000, 14:10:13.746
108, -1848.29, -2055.59, -2297.75, -1930.24, 0.000, 0.000, 0.000, 14:10:13.746
109, -1983.75, -2180.26, -2383.29, -1993.46, 0.000, 0.000, 0.000, 14:10:13.761
110, -1741.96, -1916.26, -2144.10, -1819.41, 0.000, 0.000, 0.000, 14:10:13.761
111, -1489.14, -1641.30, -1958.25, -1623.48, 0.000, 0.000, 0.000, 14:10:13.776
112, -1850.59, -2050.60, -2310.70, -1938.93, 0.000, 0.000, 0.000, 14:10:13.776
113, -1981.58, -2178.46, -2375.12, -2012.32, 0.000, 0.000, 0.000, 14:10:13.776
114, -1749.06, -1919.64, -2144.02, -1799.39, 0.000, 0.000, 0.000, 14:10:13.776
115, -1490.09, -1648.92, -1957.06, -1597.52, 0.000, 0.000, 0.000, 14:10:13.791
116, -1853.93, -2055.27, -2294.42, -1924.00, 0.000, 0.000, 0.000, 14:10:13.791
117, -1991.37, -2188.98, -2390.46, -2027.42, 0.000, 0.000, 0.000, 14:10:13.805
118, -1750.96, -1930.50, -2148.58, -1799.95, 0.000, 0.000, 0.000, 14:10:13.806
119, -1488.90, -1646.91, -1944.68, -1611.38, 0.000, 0.000, 0.000, 14:10:13.822
120, -1853.28, -2055.28, -2306.88, -1926.65, 0.000, 0.000, 0.000, 14:10:13.822
121, -1996.86, -2195.70, -2380.53, -2009.06, 0.000, 0.000, 0.000, 14:10:13.823
122, -1757.94, -1916.66, -2162.09, -1804.54, 0.000, 0.000, 0.000, 14:10:13.823
123, -1484.82, -1652.16, -1967.02, -1609.31, 0.000, 0.000, 0.000, 14:10:13.824
124, -1842.71, -2057.87, -2291.07, -1909.84, 0.000, 0.000, 0.000, 14:10:13.824
125, -2002.35, -2213.11, -2392.22, -2021.81, 0.000, 0.000, 0.000, 14:10:13.837
126, -1745.25, -1899.70, -2150.27, -1788.79, 0.000, 0.000, 0.000, 14:10:13.837
127, -1492.37, -1642.63, -1956.36, -1611.10, 0.000, 0.000, 0.000, 14:10:13.851
128, -1851.00, -2047.98, -2295.72, -1939.63, 0.000, 0.000, 0.000, 14:10:13.851
129, -2014.24, -2219.39, -2400.67, -2018.25, 0.000, 0.000, 0.000, 14:10:13.882
130, -1739.63, -1896.55, -2143.98, -1794.57, 0.000, 0.000, 0.000, 14:10:13.882
131, -1486.01, -1626.22, -1958.34, -1601.99, 0.000, 0.000, 0.000, 14:10:13.882
132, -1865.15, -2077.51, -2311.95, -1921.61, 0.000, 0.000, 0.000, 14:10:13.882
133, -2015.50, -2216.67, -2398.01, -2017.53, 0.000, 0.000, 0.000, 14:10:13.884
134, -1747.00, -1907.95, -2149.93, -1788.51, 0.000, 0.000, 0.000, 14:10:13.885
135, -1483.83, -1642.34, -1953.91, -1586.82, 0.000, 0.000, 0.000, 14:10:13.885
136, -1867.98, -2066.41, -2315.33, -1924.29, 0.000, 0.000, 0.000, 14:10:13.885
137, -2010.57, -2202.41, -2403.19, -2041.05, 0.000, 0.000, 0.000, 14:10:13.896
138, -1732.49, -1916.47, -2148.08, -1761.44, 0.000, 0.000, 0.000, 14:10:13.896
139, -1464.84, -1607.61, -1924.98, -1594.47, 0.000, 0.000, 0.000, 14:10:13.912
140, -1852.88, -2064.27, -2294.16, -1922.65, 0.000, 0.000, 0.000, 14:10:13.912
141, -2003.85, -2197.17, -2386.90, -2019.98, 0.000, 0.000, 0.000, 14:10:13.926
142, -1748.24, -1898.20, -2162.42, -1766.24, 0.000, 0.000, 0.000, 14:10:13.926
143, -1485.36, -1603.79, -1943.12, -1620.67, 0.000, 0.000, 0.000, 14:10:13.934
144, -1874.76, -2072.52, -2315.76, -1947.39, 0.000, 0.000, 0.000, 14:10:13.934
145, -2012.91, -2201.25, -2393.60, -2012.44, 0.000, 0.000, 0.000, 14:10:13.941
146, -1745.59, -1886.68, -2148.56, -1781.43, 0.000, 0.000, 0.000, 14:10:13.941
147, -1467.48, -1600.73, -1933.67, -1571.37, 0.000, 0.000, 0.000, 14:10:13.956
148, -1879.03, -2081.50, -2312.45, -1945.37, 0.000, 0.000, 0.000, 14:10:13.956
149, -2025.63, -2214.76, -2396.00, -2018.58, 0.000, 0.000, 0.000, 14:10:13.957
150, -1751.04, -1903.58, -2157.13, -1774.89, 0.000, 0.000, 0.000, 14:10:13.957
151, -1508.23, -1653.14, -1972.48, -1630.90, 0.000, 0.000, 0.000, 14:10:13.971
152, -1869.86, -2080.83, -2302.78, -1927.32, 0.000, 0.000, 0.000, 14:10:13.971
153, -2022.67, -2217.78, -2413.04, -2010.63, 0.000, 0.000, 0.000, 14:10:13.987
154, -1753.27, -1898.90, -2160.10, -1796.29, 0.000, 0.000, 0.000, 14:10:13.987
155, -1492.27, -1642.57, -1961.91, -1620.64, 0.000, 0.000, 0.000, 14:10:13.987
156, -1880.95, -2084.28, -2313.41, -1938.29, 0.000, 0.000, 0.000, 14:10:13.987
157, -2001.29, -2203.00, -2389.24, -1980.33, 0.000, 0.000, 0.000, 14:10:14.001
158, -1733.26, -1876.45, -2134.83, -1791.96, 0.000, 0.000, 0.000, 14:10:14.001
159, -1486.15, -1619.60, -1943.05, -1594.50, 0.000, 0.000, 0.000, 14:10:14.017
160, -1870.08, -2048.58, -2308.04, -1920.12, 0.000, 0.000, 0.000, 14:10:14.017
161, -2009.78, -2179.32, -2374.28, -2004.56, 0.000, 0.000, 0.000, 14:10:14.032
162, -1756.61, -1899.97, -2150.89, -1809.42, 0.000, 0.000, 0.000, 14:10:14.032
163, -1497.48, -1628.87, -1953.42, -1605.99, 0.000, 0.000, 0.000, 14:10:14.046
164, -1870.73, -2062.50, -2309.32, -1915.63, 0.000, 0.000, 0.000, 14:10:14.046
165, -2007.70, -2171.82, -2377.13, -2011.56, 0.000, 0.000, 0.000, 14:10:14.047
166, -1758.13, -1898.35, -2146.69, -1793.96, 0.000, 0.000, 0.000, 14:10:14.047
167, -1487.55, -1626.82, -1936.82, -1599.19, 0.000, 0.000, 0.000, 14:10:14.048
168, -1875.46, -2070.00, -2310.81, -1937.08, 0.000, 0.000, 0.000, 14:10:14.048
169, -2012.02, -2169.05, -2391.19, -1989.95, 0.000, 0.000, 0.000, 14:10:14.061
170, -1744.07, -1877.07, -2133.08, -1800.14, 0.000, 0.000, 0.000, 14:10:14.061
171, -1497.97, -1630.36, -1941.78, -1625.15, 0.000, 0.000, 0.000, 14:10:14.076
172, -1893.70, -2078.52, -2324.65, -1942.83, 0.000, 0.000, 0.000, 14:10:14.076
173, -2029.99, -2217.68, -2404.54, -2024.32, 0.000, 0.000, 0.000, 14:10:14.076
174, -1746.19, -1903.40, -2134.30, -1793.61, 0.000, 0.000, 0.000, 14:10:14.076
175, -1491.77, -1613.82, -1947.66, -1590.15, 0.000, 0.000, 0.000, 14:10:14.090
176, -1892.15, -2075.62, -2306.52, -1943.81, 0.000, 0.000, 0.000, 14:10:14.091
177, -2026.15, -2190.91, -2389.67, -2021.40, 0.000, 0.000, 0.000, 14:10:14.106
178, -1746.78, -1888.35, -2129.27, -1785.42, 0.000, 0.000, 0.000, 14:10:14.106
179, -1497.21, -1616.72, -1937.11, -1610.63, 0.000, 0.000, 0.000, 14:10:14.107
180, -1894.99, -2096.60, -2340.48, -1957.42, 0.000, 0.000, 0.000, 14:10:14.107
181, -2058.90, -2233.06, -2429.55, -2050.17, 0.000, 0.000, 0.000, 14:10:14.121
182, -1714.40, -1903.67, -2110.35, -1782.94, 0.000, 0.000, 0.000, 14:10:14.121
183, -1441.23, -1656.83, -1916.34, -1614.64, 0.000, 0.000, 0.000, 14:10:14.151
184, -1818.92, -2130.90, -2292.76, -1945.78, 0.000, 0.000, 0.000, 14:10:14.151
185, -1922.55, -2249.54, -2374.93, -2028.80, 0.000, 0.000, 0.000, 14:10:14.151
186, -1631.84, -1971.85, -2109.63, -1799.12, 0.000, 0.000, 0.000, 14:10:14.152
187, -1369.38, -1708.51, -1922.75, -1637.28, 0.000, 0.000, 0.000, 14:10:14.152
188, -1786.87, -2168.43, -2298.21, -1961.00, 0.000, 0.000, 0.000, 14:10:14.153
189, -1920.00, -2281.00, -2370.12, -2013.96, 0.000, 0.000, 0.000, 14:10:14.153
190, -1691.59, -2008.10, -2164.26, -1798.59, 0.000, 0.000, 0.000, 14:10:14.153
191, -1440.93, -1717.94, -1936.25, -1619.72, 0.000, 0.000, 0.000, 14:10:14.166
192, -1830.28, -2124.97, -2301.00, -1944.76, 0.000, 0.000, 0.000, 14:10:14.167
193, -1974.16, -2225.06, -2379.11, -2022.22, 0.000, 0.000, 0.000, 14:10:14.181
194, -1720.41, -1937.44, -2129.77, -1795.01, 0.000, 0.000, 0.000, 14:10:14.181
195, -1480.59, -1677.18, -1950.65, -1630.93, 0.000, 0.000, 0.000, 14:10:14.196
196, -1867.84, -2095.18, -2309.10, -1940.88, 0.000, 0.000, 0.000, 14:10:14.196
197, -2021.53, -2223.62, -2392.92, -2016.84, 0.000, 0.000, 0.000, 14:10:14.212
198, -1727.37, -1931.77, -2128.65, -1793.10, 0.000, 0.000, 0.000, 14:10:14.212
199, -1484.23, -1641.39, -1933.28, -1604.93, 0.000, 0.000, 0.000, 14:10:14.212
200, -1893.95, -2092.83, -2312.22, -1950.25, 0.000, 0.000, 0.000, 14:10:14.212
0, -1993.88, -2194.46, -2364.28, -1996.36, 0.000, 0.000, 0.000, 14:10:14.213
1, -1745.30, -1916.72, -2144.51, -1795.70, 0.000, 0.000, 0.000, 14:10:14.241
2, -1494.18, -1633.43, -1939.26, -1624.42, 0.000, 0.000, 0.000, 14:10:14.241
3, -1910.29, -2119.77, -2349.79, -1956.91, 0.000, 0.000, 0.000, 14:10:14.242
4, -2005.53, -2199.27, -2364.71, -2002.84, 0.000, 0.000, 0.000, 14:10:14.242
5, -1726.75, -1884.04, -2131.13, -1782.71, 0.000, 0.000, 0.000, 14:10:14.243
6, -1512.37, -1631.51, -1950.20, -1652.41, 0.000, 0.000, 0.000, 14:10:14.243
7, -1883.46, -2084.53, -2311.13, -1942.10, 0.000, 0.000, 0.000, 14:10:14.255
8, -2007.77, -2199.95, -2379.38, -2001.65, 0.000, 0.000, 0.000, 14:10:14.256
9, -1732.80, -1868.49, -2124.51, -1782.47, 0.000, 0.000, 0.000, 14:10:14.271
10, -1485.85, -1641.34, -1937.33, -1620.46, 0.000, 0.000, 0.000, 14:10:14.271
11, -1882.10, -2079.44, -2305.77, -1934.52, 0.000, 0.000, 0.000, 14:10:14.271
12, -1995.09, -2181.10, -2368.74, -2013.49, 0.000, 0.000, 0.000, 14:10:14.272
13, -1751.99, -1906.98, -2137.33, -1791.08, 0.000, 0.000, 0.000, 14:10:14.301
14, -1500.29, -1631.68, -1952.84, -1609.96, 0.000, 0.000, 0.000, 14:10:14.301
15, -1857.40, -2041.75, -2269.37, -1947.47, 0.000, 0.000, 0.000, 14:10:14.303
16, -2019.99, -2213.67, -2392.67, -2019.29, 0.000, 0.000, 0.000, 14:10:14.303
17, -1755.74, -1896.32, -2155.80, -1772.76, 0.000, 0.000, 0.000, 14:10:14.316
18, -1502.27, -1632.68, -1954.08, -1622.94, 0.000, 0.000, 0.000, 14:10:14.316
19, -1865.94, -2054.01, -2273.50, -1962.32, 0.000, 0.000, 0.000, 14:10:14.316
20, -2002.31, -2175.23, -2365.52, -1992.58, 0.000, 0.000, 0.000, 14:10:14.316
21, -1757.28, -1907.14, -2153.67, -1786.70, 0.000, 0.000, 0.000, 14:10:14.346
22, -1525.23, -1649.12, -1971.60, -1632.63, 0.000, 0.000, 0.000, 14:10:14.346
23, -1901.78, -2090.81, -2318.00, -1951.90, 0.000, 0.000, 0.000, 14:10:14.361
24, -2006.51, -2173.05, -2382.00, -2009.71, 0.000, 0.000, 0.000, 14:10:14.362
25, -1748.88, -1866.38, -2125.37, -1791.01, 0.000, 0.000, 0.000, 14:10:14.376
26, -1500.64, -1583.16, -1935.92, -1635.28, 0.000, 0.000, 0.000, 14:10:14.376
27, -1897.74, -2088.86, -2318.10, -1950.03, 0.000, 0.000, 0.000, 14:10:14.391
28, -2038.97, -2225.00, -2405.14, -2035.52, 0.000, 0.000, 0.000, 14:10:14.391
29, -1748.41, -1884.93, -2126.04, -1801.01, 0.000, 0.000, 0.000, 14:10:14.392
30, -1495.21, -1612.64, -1947.79, -1627.02, 0.000, 0.000, 0.000, 14:10:14.392
31, -1913.67, -2073.12, -2342.43, -1956.02, 0.000, 0.000, 0.000, 14:10:14.393
32, -2046.44, -2191.17, -2408.62, -2033.58, 0.000, 0.000, 0.000, 14:10:14.393
33, -1755.43, -1888.84, -2126.83, -1804.26, 0.000, 0.000, 0.000, 14:10:14.393
34, -1503.16, -1570.22, -1922.29, -1587.21, 0.000, 0.000, 0.000, 14:10:14.393
35, -1928.32, -2000.26, -2311.66, -1906.17, 0.000, 0.000, 0.000, 14:10:14.394
36, -2093.01, -2149.74, -2427.52, -2012.43, 0.000, 0.000, 0.000, 14:10:14.394
37, -1772.13, -1819.47, -2113.79, -1778.24, 0.000, 0.000, 0.000, 14:10:14.406
38, -1542.89, -1556.14, -1946.72, -1614.77, 0.000, 0.000, 0.000, 14:10:14.406
39, -1944.21, -2047.49, -2330.98, -1962.36, 0.000, 0.000, 0.000, 14:10:14.421
40, -2065.58, -2151.26, -2390.91, -2016.08, 0.000, 0.000, 0.000, 14:10:14.421
41, -1774.83, -1849.08, -2148.41, -1775.53, 0.000, 0.000, 0.000, 14:10:14.451
42, -1527.64, -1594.69, -1949.32, -1624.81, 0.000, 0.000, 0.000, 14:10:14.451
43, -1908.77, -2019.50, -2305.99, -1934.79, 0.000, 0.000, 0.000, 14:10:14.452
44, -2011.36, -2137.76, -2351.50, -2005.25, 0.000, 0.000, 0.000, 14:10:14.452
45, -1767.93, -1882.82, -2157.19, -1779.16, 0.000, 0.000, 0.000, 14:10:14.453
46, -1517.55, -1610.21, -1941.20, -1636.41, 0.000, 0.000, 0.000, 14:10:14.453
47, -1912.64, -2067.56, -2314.81, -1955.52, 0.000, 0.000, 0.000, 14:10:14.453
48, -2024.66, -2181.36, -2390.53, -2016.49, 0.000, 0.000, 0.000, 14:10:14.453
49, -1736.90, -1871.43, -2124.88, -1785.16, 0.000, 0.000, 0.000, 14:10:14.466
50, -1509.73, -1638.72, -1961.80, -1631.05, 0.000, 0.000, 0.000, 14:10:14.466
51, -1893.53, -2087.33, -2285.68, -1956.74, 0.000, 0.000, 0.000, 14:10:14.482
52, -2021.22, -2194.39, -2390.99, -2012.10, 0.000, 0.000, 0.000, 14:10:14.482
53, -1744.94, -1867.16, -2125.65, -1801.97, 0.000, 0.000, 0.000, 14:10:14.482
54, -1527.68, -1651.19, -1967.36, -1633.66, 0.000, 0.000, 0.000, 14:10:14.482
55, -1895.55, -2085.95, -2317.20, -1948.55, 0.000, 0.000, 0.000, 14:10:14.496
56, -2016.59, -2175.46, -2356.82, -2009.06, 0.000, 0.000, 0.000, 14:10:14.496
57, -1781.25, -1907.69, -2168.96, -1807.52, 0.000, 0.000, 0.000, 14:10:14.512
58, -1519.93, -1658.13, -1972.82, -1640.91, 0.000, 0.000, 0.000, 14:10:14.512
59, -1888.37, -2067.96, -2322.38, -1955.85, 0.000, 0.000, 0.000, 14:10:14.512
60, -2026.83, -2205.13, -2391.99, -2014.08, 0.000, 0.000, 0.000, 14:10:14.512
61, -1748.72, -1907.34, -2137.17, -1783.47, 0.000, 0.000, 0.000, 14:10:14.556
62, -1503.83, -1658.92, -1952.28, -1636.77, 0.000, 0.000, 0.000, 14:10:14.556
63, -1896.09, -2096.23, -2315.08, -1948.36, 0.000, 0.000, 0.000, 14:10:14.557
64, -2015.88, -2196.26, -2376.46, -2026.24, 0.000, 0.000, 0.000, 14:10:14.557
65, -1734.33, -1883.75, -2124.29, -1775.08, 0.000, 0.000, 0.000, 14:10:14.557
66, -1471.98, -1612.21, -1920.28, -1602.11, 0.000, 0.000, 0.000, 14:10:14.557
67, -1896.78, -2102.87, -2324.82, -1957.44, 0.000, 0.000, 0.000, 14:10:14.558
68, -1994.82, -2180.67, -2361.26, -2005.18, 0.000, 0.000, 0.000, 14:10:14.558
69, -1736.68, -1881.24, -2127.43, -1783.35, 0.000, 0.000, 0.000, 14:10:14.571
70, -1483.71, -1636.28, -1939.39, -1620.71, 0.000, 0.000, 0.000, 14:10:14.571
71, -1877.58, -2071.56, -2299.84, -1959.41, 0.000, 0.000, 0.000, 14:10:14.572
72, -2004.52, -2200.00, -2386.04, -2015.41, 0.000, 0.000, 0.000, 14:10:14.572
73, -1713.51, -1873.64, -2105.60, -1772.29, 0.000, 0.000, 0.000, 14:10:14.587
74, -1462.65, -1608.82, -1920.55, -1600.88, 0.000, 0.000, 0.000, 14:10:14.587
75, -1882.37, -2072.66, -2313.21, -1965.87, 0.000, 0.000, 0.000, 14:10:14.617
76, -2038.57, -2245.27, -2416.37, -2030.35, 0.000, 0.000, 0.000, 14:10:14.617
77, -1735.43, -1897.83, -2131.02, -1786.52, 0.000, 0.000, 0.000, 14:10:14.617
78, -1475.27, -1628.68, -1925.22, -1621.22, 0.000, 0.000, 0.000, 14:10:14.617
79, -1867.48, -2081.83, -2293.32, -1933.45, 0.000, 0.000, 0.000, 14:10:14.617
80, -2019.08, -2211.27, -2389.08, -2026.80, 0.000, 0.000, 0.000, 14:10:14.618
81, -1742.46, -1905.02, -2137.59, -1794.00, 0.000, 0.000, 0.000, 14:10:14.618
82, -1499.71, -1665.66, -1950.28, -1628.27, 0.000, 0.000, 0.000, 14:10:14.618
83, -1885.94, -2089.18, -2311.54, -1967.01, 0.000, 0.000, 0.000, 14:10:14.631
84, -1995.93, -2200.97, -2360.71, -2018.87, 0.000, 0.000, 0.000, 14:10:14.631
85, -1725.13, -1883.61, -2126.11, -1775.41, 0.000, 0.000, 0.000, 14:10:14.646
86, -1464.24, -1600.15, -1917.44, -1617.76, 0.000, 0.000, 0.000, 14:10:14.646
87, -1908.15, -2134.34, -2335.35, -1983.92, 0.000, 0.000, 0.000, 14:10:14.661
88, -2005.28, -2209.56, -2382.65, -2028.15, 0.000, 0.000, 0.000, 14:10:14.661
89, -1715.31, -1886.44, -2115.62, -1761.97, 0.000, 0.000, 0.000, 14:10:14.661
90, -1488.90, -1663.32, -1944.27, -1626.31, 0.000, 0.000, 0.000, 14:10:14.661
91, -1911.29, -2126.29, -2333.24, -1981.11, 0.000, 0.000, 0.000, 14:10:14.675
92, -1992.69, -2186.12, -2370.47, -2012.14, 0.000, 0.000, 0.000, 14:10:14.675
93, -1734.11, -1911.00, -2128.18, -1782.55, 0.000, 0.000, 0.000, 14:10:14.691
94, -1510.22, -1678.66, -1955.60, -1629.97, 0.000, 0.000, 0.000, 14:10:14.691
95, -1889.25, -2078.78, -2308.54, -1960.91, 0.000, 0.000, 0.000, 14:10:14.691
96, -1997.95, -2170.53, -2360.53, -2009.97, 0.000, 0.000, 0.000, 14:10:14.691
97, -1746.50, -1904.24, -2142.57, -1792.34, 0.000, 0.000, 0.000, 14:10:14.706
98, -1492.66, -1657.16, -1952.33, -1633.07, 0.000, 0.000, 0.000, 14:10:14.706
99, -1902.16, -2103.91, -2320.22, -1964.64, 0.000, 0.000, 0.000, 14:10:14.720
100, -2012.71, -2203.64, -2378.59, -2020.15, 0.000, 0.000, 0.000, 14:10:14.721
101, -1740.90, -1897.26, -2134.48, -1790.05, 0.000, 0.000, 0.000, 14:10:14.721
102, -1472.36, -1619.23, -1916.51, -1606.26, 0.000, 0.000, 0.000, 14:10:14.721
103, -1907.92, -2106.15, -2328.15, -1964.12, 0.000, 0.000, 0.000, 14:10:14.736
104, -2017.81, -2222.41, -2380.75, -2037.00, 0.000, 0.000, 0.000, 14:10:14.736
105, -1731.45, -1893.61, -2125.61, -1778.01, 0.000, 0.000, 0.000, 14:10:14.752
106, -1488.99, -1619.49, -1926.41, -1613.28, 0.000, 0.000, 0.000, 14:10:14.752
107, -1890.71, -2094.08, -2312.12, -1955.30, 0.000, 0.000, 0.000, 14:10:14.752
108, -2004.89, -2198.34, -2371.10, -2010.92, 0.000, 0.000, 0.000, 14:10:14.753
109, -1725.75, -1870.72, -2116.90, -1783.89, 0.000, 0.000, 0.000, 14:10:14.766
110, -1482.93, -1633.49, -1936.25, -1614.80, 0.000, 0.000, 0.000, 14:10:14.766
111, -1895.66, -2119.92, -2314.35, -1964.95, 0.000, 0.000, 0.000, 14:10:14.796
112, -2004.20, -2202.54, -2379.36, -2014.58, 0.000, 0.000, 0.000, 14:10:14.796
113, -1713.04, -1855.52, -2104.78, -1771.50, 0.000, 0.000, 0.000, 14:10:14.796
114, -1476.47, -1618.21, -1916.80, -1610.80, 0.000, 0.000, 0.000, 14:10:14.796
115, -1906.83, -2105.95, -2318.45, -1977.00, 0.000, 0.000, 0.000, 14:10:14.797
116, -2010.40, -2198.61, -2375.83, -2024.02, 0.000, 0.000, 0.000, 14:10:14.797
117, -1734.95, -1881.22, -2128.26, -1776.24, 0.000, 0.000, 0.000, 14:10:14.798
118, -1475.15, -1603.25, -1917.08, -1619.33, 0.000, 0.000, 0.000, 14:10:14.798
119, -1905.10, -2107.87, -2322.86, -1986.26, 0.000, 0.000, 0.000, 14:10:14.811
120, -2025.46, -2210.43, -2382.99, -2040.18, 0.000, 0.000, 0.000, 14:10:14.811
121, -1729.63, -1861.39, -2116.02, -1779.31, 0.000, 0.000, 0.000, 14:10:14.825
122, -1486.29, -1622.92, -1929.73, -1618.53, 0.000, 0.000, 0.000, 14:10:14.826
123, -1916.94, -2089.59, -2318.03, -1951.60, 0.000, 0.000, 0.000, 14:10:14.840
124, -2030.25, -2180.20, -2384.96, -2009.49, 0.000, 0.000, 0.000, 14:10:14.841
125, -1739.05, -1824.03, -2099.30, -1763.56, 0.000, 0.000, 0.000, 14:10:14.841
126, -1514.38, -1592.86, -1937.81, -1618.27, 0.000, 0.000, 0.000, 14:10:14.841
127, -1936.18, -2068.36, -2321.93, -1971.05, 0.000, 0.000, 0.000, 14:10:14.856
128, -2037.56, -2161.04, -2387.29, -2022.37, 0.000, 0.000, 0.000, 14:10:14.856
129, -1743.74, -1832.96, -2111.87, -1782.99, 0.000, 0.000, 0.000, 14:10:14.871
130, -1500.81, -1584.20, -1926.13, -1606.62, 0.000, 0.000, 0.000, 14:10:14.871
131, -1933.07, -2079.64, -2339.01, -1981.66, 0.000, 0.000, 0.000, 14:10:14.872
132, -2025.24, -2161.74, -2381.62, -2023.84, 0.000, 0.000, 0.000, 14:10:14.872
133, -1730.54, -1834.16, -2099.38, -1780.41, 0.000, 0.000, 0.000, 14:10:14.886
134, -1496.49, -1587.93, -1932.25, -1621.69, 0.000, 0.000, 0.000, 14:10:14.886
135, -1924.16, -2081.77, -2331.49, -1966.07, 0.000, 0.000, 0.000, 14:10:14.901
136, -2027.02, -2163.76, -2386.68, -2032.67, 0.000, 0.000, 0.000, 14:10:14.901
137, -1718.48, -1820.02, -2102.49, -1770.73, 0.000, 0.000, 0.000, 14:10:14.902
138, -1495.14, -1601.17, -1933.43, -1613.95, 0.000, 0.000, 0.000, 14:10:14.902
139, -1904.88, -2064.20, -2319.21, -1973.79, 0.000, 0.000, 0.000, 14:10:14.917
140, -2026.20, -2189.33, -2388.84, -2007.88, 0.000, 0.000, 0.000, 14:10:14.917
141, -1733.77, -1855.86, -2110.88, -1762.53, 0.000, 0.000, 0.000, 14:10:14.931
142, -1479.61, -1586.31, -1930.93, -1613.71, 0.000, 0.000, 0.000, 14:10:14.931
143, -1924.55, -2096.67, -2339.38, -1986.62, 0.000, 0.000, 0.000, 14:10:14.932
144, -2020.62, -2191.45, -2386.41, -2019.90, 0.000, 0.000, 0.000, 14:10:14.932
145, -1717.52, -1853.52, -2103.27, -1780.07, 0.000, 0.000, 0.000, 14:10:14.946
146, -1478.89, -1590.73, -1925.65, -1613.25, 0.000, 0.000, 0.000, 14:10:14.946
147, -1909.01, -2080.09, -2333.63, -1975.57, 0.000, 0.000, 0.000, 14:10:14.961
148, -2025.99, -2198.69, -2385.95, -2027.47, 0.000, 0.000, 0.000, 14:10:14.961
149, -1715.19, -1854.45, -2107.34, -1780.69, 0.000, 0.000, 0.000, 14:10:14.962
150, -1479.37, -1619.51, -1936.63, -1607.81, 0.000, 0.000, 0.000, 14:10:14.962
151, -1915.79, -2105.73, -2335.77, -1984.83, 0.000, 0.000, 0.000, 14:10:14.976
152, -2028.36, -2207.58, -2379.27, -2031.83, 0.000, 0.000, 0.000, 14:10:14.976
153, -1711.92, -1855.55, -2102.06, -1770.53, 0.000, 0.000, 0.000, 14:10:14.991
154, -1490.34, -1624.43, -1933.59, -1614.39, 0.000, 0.000, 0.000, 14:10:14.991
155, -1923.32, -2112.94, -2337.11, -1989.35, 0.000, 0.000, 0.000, 14:10:14.991
156, -2025.46, -2212.60, -2389.57, -2038.01, 0.000, 0.000, 0.000, 14:10:14.991
157, -1715.41, -1860.60, -2100.96, -1768.60, 0.000, 0.000, 0.000, 14:10:15.013
158, -1501.38, -1638.29, -1948.17, -1635.98, 0.000, 0.000, 0.000, 14:10:15.013
159, -1922.58, -2122.33, -2337.21, -1984.97, 0.000, 0.000, 0.000, 14:10:15.021
160, -2018.33, -2203.85, -2378.10, -2028.60, 0.000, 0.000, 0.000, 14:10:15.021
161, -1719.38, -1860.32, -2103.72, -1779.86, 0.000, 0.000, 0.000, 14:10:15.022
162, -1478.80, -1619.80, -1932.71, -1618.51, 0.000, 0.000, 0.000, 14:10:15.022
163, -1922.94, -2105.71, -2334.37, -1983.36, 0.000, 0.000, 0.000, 14:10:15.037
164, -2028.77, -2209.52, -2384.42, -2048.30, 0.000, 0.000, 0.000, 14:10:15.037
165, -1728.88, -1883.24, -2116.96, -1785.09, 0.000, 0.000, 0.000, 14:10:15.053
166, -1493.59, -1634.90, -1944.30, -1623.94, 0.000, 0.000, 0.000, 14:10:15.053
167, -1934.11, -2132.62, -2351.85, -1990.00, 0.000, 0.000, 0.000, 14:10:15.054
168, -2007.33, -2207.04, -2379.51, -2018.20, 0.000, 0.000, 0.000, 14:10:15.054
169, -1714.36, -1877.00, -2104.03, -1788.55, 0.000, 0.000, 0.000, 14:10:15.067
170, -1468.73, -1633.32, -1930.28, -1617.06, 0.000, 0.000, 0.000, 14:10:15.067
171, -1913.43, -2114.11, -2331.78, -1981.88, 0.000, 0.000, 0.000, 14:10:15.081
172, -2030.03, -2232.65, -2405.14, -2034.42, 0.000, 0.000, 0.000, 14:10:15.081
173, -1702.24, -1832.87, -2084.87, -1763.40, 0.000, 0.000, 0.000, 14:10:15.082
174, -1453.17, -1580.90, -1903.74, -1595.36, 0.000, 0.000, 0.000, 14:10:15.082
175, -1936.20, -2140.34, -2360.73, -1985.20, 0.000, 0.000, 0.000, 14:10:15.096
176, -2021.05, -2216.89, -2391.40, -2040.70, 0.000, 0.000, 0.000, 14:10:15.096
177, -1720.04, -1869.83, -2119.51, -1777.99, 0.000, 0.000, 0.000, 14:10:15.126
178, -1472.21, -1609.59, -1932.01, -1615.81, 0.000, 0.000, 0.000, 14:10:15.126
179, -1920.29, -2112.09, -2340.96, -1997.21, 0.000, 0.000, 0.000, 14:10:15.126
180, -2019.99, -2198.81, -2392.54, -2021.09, 0.000, 0.000, 0.000, 14:10:15.126
181, -1728.14, -1880.55, -2131.35, -1778.49, 0.000, 0.000, 0.000, 14:10:15.127
182, -1482.12, -1623.99, -1949.27, -1607.97, 0.000, 0.000, 0.000, 14:10:15.127
183, -1927.40, -2128.31, -2354.72, -2009.58, 0.000, 0.000, 0.000, 14:10:15.128
184, -2018.18, -2203.90, -2404.23, -2030.90, 0.000, 0.000, 0.000, 14:10:15.128
185, -1702.86, -1862.61, -2101.27, -1770.51, 0.000, 0.000, 0.000, 14:10:15.141
186, -1472.54, -1628.54, -1925.45, -1600.44, 0.000, 0.000, 0.000, 14:10:15.141
187, -1917.87, -2128.56, -2363.81, -1976.71, 0.000, 0.000, 0.000, 14:10:15.156
188, -2009.12, -2207.47, -2387.54, -2058.13, 0.000, 0.000, 0.000, 14:10:15.156
189, -1689.36, -1873.34, -2104.49, -1756.24, 0.000, 0.000, 0.000, 14:10:15.201
190, -1467.70, -1684.36, -1939.96, -1602.37, 0.000, 0.000, 0.000, 14:10:15.201
191, -1897.29, -2157.97, -2353.85, -1983.41, 0.000, 0.000, 0.000, 14:10:15.201
192, -1989.80, -2197.92, -2398.21, -2019.16, 0.000, 0.000, 0.000, 14:10:15.201
193, -1663.26, -1843.24, -2086.21, -1725.65, 0.000, 0.000, 0.000, 14:10:15.203
194, -1411.76, -1604.15, -1920.09, -1589.84, 0.000, 0.000, 0.000, 14:10:15.204
195, -1863.63, -2162.27, -2358.96, -1965.63, 0.000, 0.000, 0.000, 14:10:15.204
196, -1941.93, -2240.01, -2395.28, -1999.37, 0.000, 0.000, 0.000, 14:10:15.204
197, -1587.44, -1874.96, -2075.41, -1713.22, 0.000, 0.000, 0.000, 14:10:15.204
198, -1349.43, -1643.86, -1925.87, -1581.78, 0.000, 0.000, 0.000, 14:10:15.204
199, -1785.05, -2211.35, -2335.24, -1977.87, 0.000, 0.000, 0.000, 14:10:15.216
200, -1885.69, -2321.51, -2401.10, -2029.40, 0.000, 0.000, 0.000, 14:10:15.217
0, -1512.15, -1917.13, -2054.28, -1728.88, 0.000, 0.000, 0.000, 14:10:15.217
1, -1304.94, -1728.61, -1899.13, -1605.64, 0.000, 0.000, 0.000, 14:10:15.245
2, -1773.17, -2190.94, -2343.29, -1986.03, 0.000, 0.000, 0.000, 14:10:15.246
3, -1907.80, -2354.72, -2406.11, -2034.45, 0.000, 0.000, 0.000, 14:10:15.246
4, -1576.81, -1955.00, -2092.04, -1766.58, 0.000, 0.000, 0.000, 14:10:15.246
5, -1354.43, -1692.75, -1906.21, -1602.73, 0.000, 0.000, 0.000, 14:10:15.247
6, -1858.11, -2186.18, -2357.16, -2000.23, 0.000, 0.000, 0.000, 14:10:15.247
7, -1959.51, -2245.08, -2379.49, -2054.62, 0.000, 0.000, 0.000, 14:10:15.261
8, -1678.38, -1902.58, -2111.29, -1788.70, 0.000, 0.000, 0.000, 14:10:15.261
9, -1458.96, -1669.36, -1946.16, -1623.31, 0.000, 0.000, 0.000, 14:10:15.276
10, -1932.33, -2145.80, -2362.55, -2016.05, 0.000, 0.000, 0.000, 14:10:15.276
11, -2043.28, -2192.16, -2407.68, -2040.65, 0.000, 0.000, 0.000, 14:10:15.277
12, -1724.49, -1798.81, -2094.94, -1764.84, 0.000, 0.000, 0.000, 14:10:15.277
13, -1532.78, -1601.42, -1941.68, -1627.59, 0.000, 0.000, 0.000, 14:10:15.306
14, -2001.41, -2111.77, -2380.06, -1999.72, 0.000, 0.000, 0.000, 14:10:15.306
15, -2083.06, -2150.46, -2389.89, -2039.02, 0.000, 0.000, 0.000, 14:10:15.307
16, -1763.27, -1780.94, -2097.07, -1777.14, 0.000, 0.000, 0.000, 14:10:15.307
17, -1556.57, -1593.26, -1958.86, -1621.53, 0.000, 0.000, 0.000, 14:10:15.308
18, -1997.43, -2068.40, -2361.72, -1986.29, 0.000, 0.000, 0.000, 14:10:15.308
19, -2103.19, -2152.59, -2397.17, -2047.23, 0.000, 0.000, 0.000, 14:10:15.321
20, -1779.72, -1794.76, -2106.47, -1777.92, 0.000, 0.000, 0.000, 14:10:15.321
21, -1557.65, -1599.91, -1948.97, -1635.07, 0.000, 0.000, 0.000, 14:10:15.351
22, -1979.22, -2075.73, -2320.11, -1991.88, 0.000, 0.000, 0.000, 14:10:15.351
23, -2069.92, -2137.64, -2374.95, -2024.25, 0.000, 0.000, 0.000, 14:10:15.352
24, -1768.80, -1806.85, -2104.92, -1775.98, 0.000, 0.000, 0.000, 14:10:15.352
25, -1523.76, -1561.67, -1924.64, -1619.84, 0.000, 0.000, 0.000, 14:10:15.353
26, -1984.83, -2071.09, -2342.34, -1991.84, 0.000, 0.000, 0.000, 14:10:15.353
27, -2069.13, -2162.00, -2388.42, -2029.19, 0.000, 0.000, 0.000, 14:10:15.353
28, -1743.07, -1797.12, -2088.76, -1761.79, 0.000, 0.000, 0.000, 14:10:15.353
29, -1513.75, -1571.52, -1929.42, -1622.60, 0.000, 0.000, 0.000, 14:10:15.367
30, -1963.43, -2074.26, -2346.10, -1994.47, 0.000, 0.000, 0.000, 14:10:15.367
31, -2061.98, -2176.45, -2392.24, -2031.92, 0.000, 0.000, 0.000, 14:10:15.381
32, -1726.11, -1791.87, -2083.73, -1751.95, 0.000, 0.000, 0.000, 14:10:15.381
33, -1483.39, -1548.26, -1915.52, -1593.10, 0.000, 0.000, 0.000, 14:10:15.396
34, -1949.85, -2082.60, -2344.68, -1986.96, 0.000, 0.000, 0.000, 14:10:15.396
35, -2041.24, -2171.86, -2390.16, -2029.74, 0.000, 0.000, 0.000, 14:10:15.403
36, -1695.54, -1812.65, -2080.92, -1746.40, 0.000, 0.000, 0.000, 14:10:15.403
37, -1476.96, -1584.29, -1932.27, -1605.28, 0.000, 0.000, 0.000, 14:10:15.411
38, -1955.55, -2116.08, -2367.97, -2013.91, 0.000, 0.000, 0.000, 14:10:15.411
39, -2022.81, -2171.93, -2387.27, -2025.50, 0.000, 0.000, 0.000, 14:10:15.426
40, -1671.42, -1790.90, -2065.71, -1741.54, 0.000, 0.000, 0.000, 14:10:15.426
41, -1456.39, -1589.67, -1917.33, -1597.19, 0.000, 0.000, 0.000, 14:10:15.427
42, -1948.92, -2128.43, -2365.16, -1992.50, 0.000, 0.000, 0.000, 14:10:15.427
43, -2025.94, -2193.97, -2394.78, -2034.19, 0.000, 0.000, 0.000, 14:10:15.441
44, -1688.73, -1844.13, -2089.73, -1754.77, 0.000, 0.000, 0.000, 14:10:15.441
45, -1453.17, -1594.02, -1913.65, -1590.10, 0.000, 0.000, 0.000, 14:10:15.456
46, -1928.23, -2127.61, -2348.37, -2002.10, 0.000, 0.000, 0.000, 14:10:15.456
47, -2027.68, -2213.41, -2395.42, -2043.99, 0.000, 0.000, 0.000, 14:10:15.457
48, -1664.84, -1827.91, -2059.65, -1747.17, 0.000, 0.000, 0.000, 14:10:15.457
49, -1446.64, -1612.15, -1914.86, -1601.94, 0.000, 0.000, 0.000, 14:10:15.471
50, -1945.67, -2150.99, -2379.24, -2006.93, 0.000, 0.000, 0.000, 14:10:15.471
51, -2030.34, -2210.28, -2402.10, -2038.74, 0.000, 0.000, 0.000, 14:10:15.487
52, -1696.82, -1835.02, -2085.38, -1768.34, 0.000, 0.000, 0.000, 14:10:15.487
53, -1466.59, -1605.21, -1926.24, -1603.18, 0.000, 0.000, 0.000, 14:10:15.487
54, -1953.75, -2142.51, -2368.38, -2024.39, 0.000, 0.000, 0.000, 14:10:15.487
55, -2038.54, -2221.21, -2404.16, -2045.28, 0.000, 0.000, 0.000, 14:10:15.501
56, -1708.54, -1876.94, -2127.86, -1765.59, 0.000, 0.000, 0.000, 14:10:15.501
57, -1446.54, -1605.30, -1912.61, -1609.08, 0.000, 0.000, 0.000, 14:10:15.517
58, -1932.31, -2134.31, -2361.63, -2015.96, 0.000, 0.000, 0.000, 14:10:15.517
59, -2021.54, -2218.62, -2388.89, -2045.84, 0.000, 0.000, 0.000, 14:10:15.517
60, -1678.80, -1844.03, -2084.62, -1759.64, 0.000, 0.000, 0.000, 14:10:15.517
61, -1460.65, -1616.30, -1932.66, -1614.19, 0.000, 0.000, 0.000, 14:10:15.532
62, -1951.01, -2146.58, -2382.98, -2017.57, 0.000, 0.000, 0.000, 14:10:15.532
63, -2034.13, -2250.09, -2425.42, -2054.63, 0.000, 0.000, 0.000, 14:10:15.546
64, -1674.12, -1836.37, -2077.05, -1743.11, 0.000, 0.000, 0.000, 14:10:15.546
65, -1475.12, -1615.96, -1927.59, -1606.55, 0.000, 0.000, 0.000, 14:10:15.547
66, -1952.32, -2156.73, -2384.53, -2012.78, 0.000, 0.000, 0.000, 14:10:15.547
67, -2030.23, -2240.36, -2401.14, -2039.82, 0.000, 0.000, 0.000, 14:10:15.561
68, -1693.36, -1845.60, -2088.89, -1765.04, 0.000, 0.000, 0.000, 14:10:15.561
69, -1472.60, -1612.48, -1934.05, -1617.29, 0.000, 0.000, 0.000, 14:10:15.575
70, -1958.24, -2143.40, -2384.91, -2008.28, 0.000, 0.000, 0.000, 14:10:15.576
71, -2032.14, -2207.47, -2402.70, -2024.60, 0.000, 0.000, 0.000, 14:10:15.576
72, -1685.89, -1831.12, -2084.49, -1751.29, 0.000, 0.000, 0.000, 14:10:15.576
73, -1465.41, -1605.52, -1931.42, -1616.93, 0.000, 0.000, 0.000, 14:10:15.591
74, -1935.30, -2130.66, -2359.92, -2009.03, 0.000, 0.000, 0.000, 14:10:15.591
75, -2003.31, -2185.17, -2375.75, -2020.94, 0.000, 0.000, 0.000, 14:10:15.606
76, -1684.34, -1833.67, -2088.80, -1747.52, 0.000, 0.000, 0.000, 14:10:15.606
77, -1463.83, -1598.49, -1931.49, -1605.66, 0.000, 0.000, 0.000, 14:10:15.607
78, -1943.52, -2131.98, -2356.40, -2007.15, 0.000, 0.000, 0.000, 14:10:15.607
79, -2011.19, -2197.72, -2378.48, -2032.57, 0.000, 0.000, 0.000, 14:10:15.622
80, -1726.97, -1869.18, -2106.51, -1773.59, 0.000, 0.000, 0.000, 14:10:15.622
81, -1459.73, -1586.80, -1899.17, -1615.48, 0.000, 0.000, 0.000, 14:10:15.636
82, -1911.21, -2079.58, -2307.67, -2022.66, 0.000, 0.000, 0.000, 14:10:15.636
83, -2005.46, -2178.30, -2331.57, -2061.31, 0.000, 0.000, 0.000, 14:10:15.637
84, -1648.64, -1776.74, -2003.64, -1785.66, 0.000, 0.000, 0.000, 14:10:15.637
85, -1423.25, -1542.03, -1847.39, -1646.31, 0.000, 0.000, 0.000, 14:10:15.651
86, -1911.31, -2078.67, -2299.63, -2054.82, 0.000, 0.000, 0.000, 14:10:15.651
87, -2010.58, -2196.47, -2331.26, -2101.57, 0.000, 0.000, 0.000, 14:10:15.667
88, -1679.08, -1791.14, -2026.80, -1812.19, 0.000, 0.000, 0.000, 14:10:15.667
89, -1460.13, -1590.69, -1877.68, -1662.37, 0.000, 0.000, 0.000, 14:10:15.667
90, -1920.71, -2116.87, -2303.03, -2048.29, 0.000, 0.000, 0.000, 14:10:15.667
91, -2004.40, -2173.91, -2335.55, -2065.06, 0.000, 0.000, 0.000, 14:10:15.681
92, -1665.71, -1819.32, -2042.89, -1782.88, 0.000, 0.000, 0.000, 14:10:15.681
93, -1458.30, -1606.61, -1900.67, -1638.61, 0.000, 0.000, 0.000, 14:10:15.696
94, -1972.77, -2168.95, -2365.78, -2055.65, 0.000, 0.000, 0.000, 14:10:15.696
95, -2054.12, -2240.44, -2405.07, -2069.98, 0.000, 0.000, 0.000, 14:10:15.697
96, -1661.48, -1833.96, -2042.53, -1764.40, 0.000, 0.000, 0.000, 14:10:15.697
97, -1443.71, -1590.98, -1892.57, -1612.59, 0.000, 0.000, 0.000, 14:10:15.710
98, -1909.67, -2086.88, -2316.03, -1999.06, 0.000, 0.000, 0.000, 14:10:15.711
99, -2006.23, -2171.17, -2364.35, -2032.70, 0.000, 0.000, 0.000, 14:10:15.726
100, -1670.89, -1795.29, -2058.91, -1740.29, 0.000, 0.000, 0.000, 14:10:15.726
101, -1481.57, -1622.98, -1928.61, -1629.95, 0.000, 0.000, 0.000, 14:10:15.727
102, -1965.99, -2179.90, -2376.48, -2028.61, 0.000, 0.000, 0.000, 14:10:15.727
103, -2030.63, -2236.42, -2397.88, -2041.83, 0.000, 0.000, 0.000, 14:10:15.741
104, -1688.86, -1821.76, -2074.16, -1739.99, 0.000, 0.000, 0.000, 14:10:15.741
105, -1454.92, -1591.99, -1921.37, -1606.99, 0.000, 0.000, 0.000, 14:10:15.756
106, -1967.32, -2158.38, -2375.33, -2040.21, 0.000, 0.000, 0.000, 14:10:15.756
107, -2029.18, -2209.90, -2383.79, -2041.11, 0.000, 0.000, 0.000, 14:10:15.756
108, -1673.91, -1825.62, -2074.59, -1744.33, 0.000, 0.000, 0.000, 14:10:15.756
109, -1463.74, -1593.22, -1918.47, -1605.63, 0.000, 0.000, 0.000, 14:10:15.771
110, -1943.37, -2139.70, -2353.51, -2016.12, 0.000, 0.000, 0.000, 14:10:15.771
111, -2030.22, -2202.07, -2388.83, -2035.96, 0.000, 0.000, 0.000, 14:10:15.786
112, -1681.53, -1811.95, -2073.52, -1759.66, 0.000, 0.000, 0.000, 14:10:15.787
113, -1459.58, -1587.57, -1917.46, -1604.96, 0.000, 0.000, 0.000, 14:10:15.787
114, -1947.09, -2131.86, -2361.89, -2030.57, 0.000, 0.000, 0.000, 14:10:15.787
115, -2036.42, -2208.44, -2408.67, -2041.00, 0.000, 0.000, 0.000, 14:10:15.801
116, -1663.84, -1809.59, -2058.73, -1743.00, 0.000, 0.000, 0.000, 14:10:15.801
117, -1456.64, -1596.22, -1910.03, -1614.23, 0.000, 0.000, 0.000, 14:10:15.816
118, -1952.16, -2154.59, -2366.83, -2026.26, 0.000, 0.000, 0.000, 14:10:15.816
119, -1998.72, -2184.08, -2372.35, -2032.80, 0.000, 0.000, 0.000, 14:10:15.823
120, -1652.42, -1809.54, -2057.58, -1744.69, 0.000, 0.000, 0.000, 14:10:15.823
121, -1453.21, -1601.70, -1904.40, -1616.41, 0.000, 0.000, 0.000, 14:10:15.846
122, -1931.78, -2134.54, -2342.72, -2011.25, 0.000, 0.000, 0.000, 14:10:15.846
123, -2012.66, -2215.31, -2386.11, -2033.13, 0.000, 0.000, 0.000, 14:10:15.848
124, -1662.74, -1803.97, -2058.92, -1750.11, 0.000, 0.000, 0.000, 14:10:15.848
125, -1463.85, -1606.79, -1919.43, -1628.13, 0.000, 0.000, 0.000, 14:10:15.849
126, -1946.07, -2149.47, -2357.76, -2008.54, 0.000, 0.000, 0.000, 14:10:15.849
127, -1997.36, -2190.44, -2379.93, -2021.62, 0.000, 0.000, 0.000, 14:10:15.861
128, -1668.01, -1798.30, -2062.46, -1753.03, 0.000, 0.000, 0.000, 14:10:15.861
129, -1484.06, -1627.27, -1941.59, -1632.37, 0.000, 0.000, 0.000, 14:10:15.876
130, -1940.64, -2160.77, -2364.52, -2013.32, 0.000, 0.000, 0.000, 14:10:15.876
131, -2008.50, -2209.15, -2374.76, -2020.65, 0.000, 0.000, 0.000, 14:10:15.877
132, -1678.50, -1841.15, -2084.27, -1752.76, 0.000, 0.000, 0.000, 14:10:15.877
133, -1473.89, -1625.80, -1930.09, -1622.47, 0.000, 0.000, 0.000, 14:10:15.891
134, -1935.89, -2146.39, -2354.63, -2006.39, 0.000, 0.000, 0.000, 14:10:15.891
135, -1997.31, -2199.07, -2375.40, -2011.96, 0.000, 0.000, 0.000, 14:10:15.906
136, -1679.83, -1842.24, -2082.83, -1752.72, 0.000, 0.000, 0.000, 14:10:15.906
137, -1460.88, -1603.13, -1927.73, -1621.40, 0.000, 0.000, 0.000, 14:10:15.907
138, -1935.61, -2146.02, -2355.86, -2009.21, 0.000, 0.000, 0.000, 14:10:15.907
139, -2011.30, -2194.76, -2381.01, -2018.33, 0.000, 0.000, 0.000, 14:10:15.921
140, -1678.15, -1823.70, -2074.76, -1749.10, 0.000, 0.000, 0.000, 14:10:15.921
141, -1477.18, -1633.51, -1936.37, -1630.49, 0.000, 0.000, 0.000, 14:10:15.936
142, -1936.70, -2144.88, -2360.13, -2005.43, 0.000, 0.000, 0.000, 14:10:15.936
143, -2004.46, -2202.04, -2374.19, -2018.70, 0.000, 0.000, 0.000, 14:10:15.937
144, -1672.92, -1811.88, -2074.16, -1748.12, 0.000, 0.000, 0.000, 14:10:15.937
145, -1480.71, -1611.29, -1938.73, -1632.26, 0.000, 0.000, 0.000, 14:10:15.966
146, -1942.55, -2139.98, -2357.91, -2002.96, 0.000, 0.000, 0.000, 14:10:15.966
147, -2014.92, -2204.00, -2384.20, -2023.03, 0.000, 0.000, 0.000, 14:10:15.982
148, -1715.07, -1867.36, -2101.95, -1775.72, 0.000, 0.000, 0.000, 14:10:15.982
149, -1476.71, -1621.32, -1955.23, -1593.77, 0.000, 0.000, 0.000, 14:10:15.982
150, -1922.45, -2141.80, -2381.33, -1973.73, 0.000, 0.000, 0.000, 14:10:15.982
151, -1979.88, -2163.51, -2395.46, -1964.38, 0.000, 0.000, 0.000, 14:10:15.983
152, -1696.31, -1861.46, -2147.31, -1724.78, 0.000, 0.000, 0.000, 14:10:15.983
153, -1483.65, -1652.43, -1991.78, -1590.53, 0.000, 0.000, 0.000, 14:10:15.984
154, -1951.40, -2185.65, -2406.56, -1971.09, 0.000, 0.000, 0.000, 14:10:15.984
155, -2003.73, -2194.53, -2410.91, -1979.65, 0.000, 0.000, 0.000, 14:10:15.996
156, -1678.11, -1811.62, -2101.03, -1716.57, 0.000, 0.000, 0.000, 14:10:15.996
157, -1489.13, -1659.10, -1979.64, -1594.45, 0.000, 0.000, 0.000, 14:10:16.011
158, -1973.64, -2175.05, -2408.78, -2007.95, 0.000, 0.000, 0.000, 14:10:16.011
159, -2014.63, -2193.64, -2400.44, -1995.23, 0.000, 0.000, 0.000, 14:10:16.025
160, -1690.70, -1820.13, -2110.71, -1740.59, 0.000, 0.000, 0.000, 14:10:16.026
161, -1489.21, -1621.85, -1953.93, -1601.08, 0.000, 0.000, 0.000, 14:10:16.026
162, -1960.08, -2172.64, -2382.27, -1996.61, 0.000, 0.000, 0.000, 14:10:16.026
163, -2023.86, -2217.66, -2391.47, -2012.81, 0.000, 0.000, 0.000, 14:10:16.041
164, -1679.75, -1813.31, -2081.94, -1731.78, 0.000, 0.000, 0.000, 14:10:16.041
165, -1483.93, -1604.42, -1938.67, -1613.04, 0.000, 0.000, 0.000, 14:10:16.056
166, -1980.10, -2190.42, -2399.88, -2007.80, 0.000, 0.000, 0.000, 14:10:16.056
167, -2012.47, -2162.21, -2388.17, -2009.69, 0.000, 0.000, 0.000, 14:10:16.056
168, -1689.27, -1806.95, -2098.25, -1720.20, 0.000, 0.000, 0.000, 14:10:16.056
169, -1488.62, -1663.12, -1949.49, -1620.21, 0.000, 0.000, 0.000, 14:10:16.071
170, -1985.50, -2180.65, -2397.73, -2012.34, 0.000, 0.000, 0.000, 14:10:16.071
171, -2021.99, -2209.01, -2384.93, -2017.50, 0.000, 0.000, 0.000, 14:10:16.087
172, -1669.96, -1799.19, -2062.52, -1725.06, 0.000, 0.000, 0.000, 14:10:16.087
173, -1488.16, -1628.99, -1950.00, -1633.42, 0.000, 0.000, 0.000, 14:10:16.087
174, -1960.23, -2157.13, -2374.51, -1989.03, 0.000, 0.000, 0.000, 14:10:16.087
175, -2013.76, -2162.66, -2382.64, -2025.34, 0.000, 0.000, 0.000, 14:10:16.101
176, -1679.30, -1788.71, -2072.39, -1735.31, 0.000, 0.000, 0.000, 14:10:16.101
177, -1493.98, -1635.22, -1953.97, -1616.14, 0.000, 0.000, 0.000, 14:10:16.118
178, -1986.70, -2189.45, -2401.86, -2025.87, 0.000, 0.000, 0.000, 14:10:16.118
179, -2021.41, -2173.02, -2383.45, -2029.74, 0.000, 0.000, 0.000, 14:10:16.118
180, -1663.93, -1797.72, -2045.32, -1742.52, 0.000, 0.000, 0.000, 14:10:16.118
181, -1500.26, -1656.91, -1955.18, -1629.95, 0.000, 0.000, 0.000, 14:10:16.132
182, -1965.51, -2161.05, -2378.67, -2008.41, 0.000, 0.000, 0.000, 14:10:16.132
183, -2020.06, -2189.37, -2388.25, -2023.78, 0.000, 0.000, 0.000, 14:10:16.146
184, -1702.21, -1845.70, -2100.14, -1754.88, 0.000, 0.000, 0.000, 14:10:16.146
185, -1491.55, -1665.05, -1947.87, -1622.33, 0.000, 0.000, 0.000, 14:10:16.147
186, -1952.70, -2113.03, -2362.34, -2010.75, 0.000, 0.000, 0.000, 14:10:16.147
187, -2013.18, -2186.12, -2390.89, -2028.12, 0.000, 0.000, 0.000, 14:10:16.161
188, -1675.10, -1818.85, -2073.41, -1752.20, 0.000, 0.000, 0.000, 14:10:16.161
189, -1482.17, -1645.35, -1942.44, -1613.34, 0.000, 0.000, 0.000, 14:10:16.176
190, -1962.36, -2155.89, -2379.15, -2019.30, 0.000, 0.000, 0.000, 14:10:16.176
191, -2024.15, -2217.69, -2388.45, -2019.12, 0.000, 0.000, 0.000, 14:10:16.176
192, -1686.64, -1849.51, -2081.81, -1749.48, 0.000, 0.000, 0.000, 14:10:16.177
193, -1480.79, -1633.36, -1940.77, -1618.64, 0.000, 0.000, 0.000, 14:10:16.191
194, -1968.03, -2157.64, -2375.01, -2012.10, 0.000, 0.000, 0.000, 14:10:16.191
195, -2025.24, -2208.27, -2402.15, -2030.93, 0.000, 0.000, 0.000, 14:10:16.206
196, -1680.65, -1836.74, -2082.97, -1744.57, 0.000, 0.000, 0.000, 14:10:16.206
197, -1486.58, -1640.59, -1948.31, -1618.25, 0.000, 0.000, 0.000, 14:10:16.207
198, -1972.73, -2184.73, -2386.20, -2013.28, 0.000, 0.000, 0.000, 14:10:16.207
199, -2024.77, -2208.09, -2379.96, -2018.76, 0.000, 0.000, 0.000, 14:10:16.221
200, -1681.49, -1839.33, -2079.85, -1742.68, 0.000, 0.000, 0.000, 14:10:16.221
0, -1466.39, -1627.33, -1930.13, -1602.92, 0.000, 0.000, 0.000, 14:10:16.221
1, -1955.56, -2160.12, -2363.69, -2004.64, 0.000, 0.000, 0.000, 14:10:16.237
2, -2034.02, -2217.62, -2395.85, -2027.41, 0.000, 0.000, 0.000, 14:10:16.237
3, -1670.29, -1787.27, -2054.89, -1731.60, 0.000, 0.000, 0.000, 14:10:16.250
4, -1470.98, -1627.73, -1932.11, -1602.03, 0.000, 0.000, 0.000, 14:10:16.251
5, -1940.01, -2124.70, -2351.60, -2009.61, 0.000, 0.000, 0.000, 14:10:16.252
6, -2025.79, -2214.66, -2393.23, -2037.21, 0.000, 0.000, 0.000, 14:10:16.252
7, -1666.98, -1819.13, -2067.56, -1745.78, 0.000, 0.000, 0.000, 14:10:16.281
8, -1469.98, -1616.73, -1923.25, -1603.37, 0.000, 0.000, 0.000, 14:10:16.282
9, -1961.80, -2171.39, -2380.44, -2021.65, 0.000, 0.000, 0.000, 14:10:16.282
10, -2021.60, -2194.70, -2385.96, -2026.37, 0.000, 0.000, 0.000, 14:10:16.282
11, -1661.92, -1800.18, -2059.45, -1727.98, 0.000, 0.000, 0.000, 14:10:16.283
12, -1462.73, -1623.36, -1928.08, -1609.46, 0.000, 0.000, 0.000, 14:10:16.283
13, -1969.97, -2168.83, -2385.25, -2025.16, 0.000, 0.000, 0.000, 14:10:16.296
14, -2012.00, -2196.47, -2371.69, -2027.37, 0.000, 0.000, 0.000, 14:10:16.296
15, -1675.36, -1847.36, -2076.58, -1738.05, 0.000, 0.000, 0.000, 14:10:16.311
16, -1461.07, -1593.33, -1909.91, -1617.04, 0.000, 0.000, 0.000, 14:10:16.311
17, -1964.11, -2150.47, -2378.99, -2016.49, 0.000, 0.000, 0.000, 14:10:16.311
18, -2017.23, -2200.67, -2384.03, -2032.80, 0.000, 0.000, 0.000, 14:10:16.311
19, -1667.07, -1795.24, -2062.01, -1736.79, 0.000, 0.000, 0.000, 14:10:16.326
20, -1456.47, -1608.24, -1919.03, -1623.07, 0.000, 0.000, 0.000, 14:10:16.326
21, -1946.99, -2145.37, -2372.54, -2011.80, 0.000, 0.000, 0.000, 14:10:16.341
22, -2022.49, -2182.19, -2379.40, -2027.80, 0.000, 0.000, 0.000, 14:10:16.341
23, -1665.40, -1787.58, -2052.73, -1743.13, 0.000, 0.000, 0.000, 14:10:16.341
24, -1460.89, -1578.89, -1918.83, -1610.51, 0.000, 0.000, 0.000, 14:10:16.341
25, -1968.17, -2162.74, -2385.17, -2025.44, 0.000, 0.000, 0.000, 14:10:16.356
26, -2017.69, -2195.87, -2386.03, -2028.68, 0.000, 0.000, 0.000, 14:10:16.356
27, -1677.00, -1823.74, -2076.03, -1745.09, 0.000, 0.000, 0.000, 14:10:16.371
28, -1461.73, -1593.86, -1916.82, -1611.88, 0.000, 0.000, 0.000, 14:10:16.371
29, -1953.92, -2122.31, -2354.46, -2033.61, 0.000, 0.000, 0.000, 14:10:16.371
30, -2000.80, -2145.50, -2337.47, -2017.91, 0.000, 0.000, 0.000, 14:10:16.371
31, -1666.25, -1773.63, -2046.05, -1751.47, 0.000, 0.000, 0.000, 14:10:16.387
32, -1483.05, -1624.44, -1944.92, -1630.44, 0.000, 0.000, 0.000, 14:10:16.387
33, -1962.65, -2148.87, -2371.60, -2022.37, 0.000, 0.000, 0.000, 14:10:16.401
34, -2013.25, -2178.29, -2365.35, -2023.08, 0.000, 0.000, 0.000, 14:10:16.401
35, -1677.62, -1782.01, -2062.65, -1740.89, 0.000, 0.000, 0.000, 14:10:16.403
36, -1477.14, -1611.03, -1937.38, -1627.03, 0.000, 0.000, 0.000, 14:10:16.403
37, -1968.83, -2158.19, -2381.43, -2033.05, 0.000, 0.000, 0.000, 14:10:16.417
38, -2020.47, -2195.12, -2389.90, -2032.45, 0.000, 0.000, 0.000, 14:10:16.418
39, -1681.37, -1809.30, -2073.32, -1733.01, 0.000, 0.000, 0.000, 14:10:16.431
40, -1477.35, -1602.45, -1932.64, -1620.38, 0.000, 0.000, 0.000, 14:10:16.431
41, -1977.45, -2169.39, -2382.84, -2022.64, 0.000, 0.000, 0.000, 14:10:16.432
42, -2031.70, -2207.30, -2386.19, -2035.37, 0.000, 0.000, 0.000, 14:10:16.432
43, -1688.55, -1827.75, -2084.82, -1741.76, 0.000, 0.000, 0.000, 14:10:16.446
44, -1483.25, -1624.10, -1936.86, -1619.92, 0.000, 0.000, 0.000, 14:10:16.446
45, -1974.93, -2182.64, -2381.91, -2025.14, 0.000, 0.000, 0.000, 14:10:16.476
46, -2037.18, -2212.52, -2388.97, -2029.74, 0.000, 0.000, 0.000, 14:10:16.476
47, -1668.83, -1800.99, -2057.70, -1723.90, 0.000, 0.000, 0.000, 14:10:16.477
48, -1482.84, -1635.13, -1946.51, -1613.18, 0.000, 0.000, 0.000, 14:10:16.477
49, -1981.66, -2182.85, -2383.40, -2035.03, 0.000, 0.000, 0.000, 14:10:16.478
50, -2022.48, -2205.33, -2378.87, -2035.04, 0.000, 0.000, 0.000, 14:10:16.478
51, -1679.03, -1827.33, -2078.15, -1741.09, 0.000, 0.000, 0.000, 14:10:16.478
52, -1480.05, -1639.76, -1940.09, -1611.78, 0.000, 0.000, 0.000, 14:10:16.478
53, -1976.60, -2177.46, -2380.51, -2019.15, 0.000, 0.000, 0.000, 14:10:16.491
54, -2025.77, -2223.19, -2389.58, -2026.48, 0.000, 0.000, 0.000, 14:10:16.491
55, -1678.13, -1818.68, -2076.57, -1742.32, 0.000, 0.000, 0.000, 14:10:16.506
56, -1480.81, -1611.93, -1935.94, -1622.94, 0.000, 0.000, 0.000, 14:10:16.506
57, -1967.07, -2172.61, -2370.43, -2022.43, 0.000, 0.000, 0.000, 14:10:16.521
58, -2020.79, -2215.88, -2381.10, -2026.55, 0.000, 0.000, 0.000, 14:10:16.521
59, -1677.81, -1817.56, -2080.13, -1732.44, 0.000, 0.000, 0.000, 14:10:16.521
60, -1481.62, -1633.44, -1934.49, -1629.55, 0.000, 0.000, 0.000, 14:10:16.522
61, -1971.22, -2177.81, -2373.22, -2019.39, 0.000, 0.000, 0.000, 14:10:16.536
62, -2020.21, -2190.92, -2375.14, -2019.45, 0.000, 0.000, 0.000, 14:10:16.536
63, -1671.77, -1810.88, -2067.63, -1734.39, 0.000, 0.000, 0.000, 14:10:16.551
64, -1484.74, -1614.86, -1940.00, -1624.30, 0.000, 0.000, 0.000, 14:10:16.551
65, -1973.26, -2164.09, -2371.04, -2021.68, 0.000, 0.000, 0.000, 14:10:16.553
66, -2020.11, -2204.08, -2382.47, -2029.79, 0.000, 0.000, 0.000, 14:10:16.553
67, -1667.62, -1814.97, -2059.96, -1734.01, 0.000, 0.000, 0.000, 14:10:16.567
68, -1483.27, -1624.84, -1931.61, -1614.01, 0.000, 0.000, 0.000, 14:10:16.567
69, -1962.88, -2162.85, -2375.08, -2025.11, 0.000, 0.000, 0.000, 14:10:16.581
70, -2011.28, -2186.15, -2372.37, -2021.38, 0.000, 0.000, 0.000, 14:10:16.582
71, -1659.91, -1802.12, -2051.20, -1728.91, 0.000, 0.000, 0.000, 14:10:16.582
72, -1498.20, -1643.40, -1950.36, -1621.23, 0.000, 0.000, 0.000, 14:10:16.582
73, -1970.40, -2187.91, -2384.87, -2023.13, 0.000, 0.000, 0.000, 14:10:16.596
74, -2010.77, -2192.44, -2374.22, -2019.99, 0.000, 0.000, 0.000, 14:10:16.598
75, -1665.20, -1808.18, -2060.36, -1727.47, 0.000, 0.000, 0.000, 14:10:16.611
76, -1494.58, -1650.34, -1950.29, -1632.49, 0.000, 0.000, 0.000, 14:10:16.611
77, -1972.71, -2162.54, -2377.24, -2038.00, 0.000, 0.000, 0.000, 14:10:16.612
78, -2024.51, -2208.89, -2388.27, -2025.80, 0.000, 0.000, 0.000, 14:10:16.612
79, -1664.95, -1809.84, -2052.19, -1726.75, 0.000, 0.000, 0.000, 14:10:16.626
80, -1475.74, -1624.62, -1935.50, -1613.37, 0.000, 0.000, 0.000, 14:10:16.626
81, -1970.65, -2168.62, -2383.30, -2027.24, 0.000, 0.000, 0.000, 14:10:16.641
82, -2016.30, -2200.05, -2388.57, -2031.45, 0.000, 0.000, 0.000, 14:10:16.641
83, -1668.33, -1828.76, -2071.02, -1736.66, 0.000, 0.000, 0.000, 14:10:16.641
84, -1490.98, -1630.88, -1934.74, -1626.19, 0.000, 0.000, 0.000, 14:10:16.642
85, -1961.59, -2168.12, -2374.51, -2020.51, 0.000, 0.000, 0.000, 14:10:16.656
86, -2026.08, -2212.01, -2398.90, -2026.36, 0.000, 0.000, 0.000, 14:10:16.656
87, -1664.71, -1811.48, -2053.49, -1732.89, 0.000, 0.000, 0.000, 14:10:16.670
88, -1481.67, -1609.06, -1935.24, -1622.77, 0.000, 0.000, 0.000, 14:10:16.670
89, -1975.32, -2172.00, -2378.86, -2029.24, 0.000, 0.000, 0.000, 14:10:16.671
90, -2023.80, -2228.51, -2391.42, -2036.23, 0.000, 0.000, 0.000, 14:10:16.671
91, -1688.95, -1866.55, -2086.33, -1751.07, 0.000, 0.000, 0.000, 14:10:16.686
92, -1502.00, -1652.35, -1964.85, -1639.15, 0.000, 0.000, 0.000, 14:10:16.686
93, -1983.77, -2205.81, -2381.44, -2038.28, 0.000, 0.000, 0.000, 14:10:16.701
94, -2024.22, -2196.37, -2391.98, -2034.26, 0.000, 0.000, 0.000, 14:10:16.702
95, -1665.01, -1811.97, -2067.15, -1754.01, 0.000, 0.000, 0.000, 14:10:16.702
96, -1474.73, -1628.10, -1931.67, -1616.10, 0.000, 0.000, 0.000, 14:10:16.703
97, -1973.00, -2181.04, -2381.74, -2026.04, 0.000, 0.000, 0.000, 14:10:16.717
98, -2012.60, -2200.44, -2378.56, -2020.07, 0.000, 0.000, 0.000, 14:10:16.717
99, -1652.00, -1744.09, -2053.88, -1732.26, 0.000, 0.000, 0.000, 14:10:16.731
100, -1456.63, -1571.66, -1918.21, -1626.79, 0.000, 0.000, 0.000, 14:10:16.732
101, -1991.44, -2219.50, -2402.47, -2039.68, 0.000, 0.000, 0.000, 14:10:16.732
102, -2037.21, -2233.23, -2393.42, -2026.46, 0.000, 0.000, 0.000, 14:10:16.732
103, -1673.47, -1799.06, -2056.74, -1748.48, 0.000, 0.000, 0.000, 14:10:16.760
104, -1476.62, -1633.42, -1925.61, -1607.71, 0.000, 0.000, 0.000, 14:10:16.761
105, -1982.98, -2190.05, -2372.71, -2028.01, 0.000, 0.000, 0.000, 14:10:16.761
106, -2044.17, -2229.03, -2386.20, -2036.64, 0.000, 0.000, 0.000, 14:10:16.761
107, -1677.51, -1825.49, -2069.45, -1736.28, 0.000, 0.000, 0.000, 14:10:16.769
108, -1487.79, -1637.61, -1944.08, -1634.49, 0.000, 0.000, 0.000, 14:10:16.769
109, -1976.90, -2187.87, -2378.75, -2026.49, 0.000, 0.000, 0.000, 14:10:16.776
110, -2021.06, -2219.45, -2378.62, -2015.18, 0.000, 0.000, 0.000, 14:10:16.776
111, -1677.67, -1843.01, -2063.89, -1743.64, 0.000, 0.000, 0.000, 14:10:16.791
112, -1487.95, -1653.97, -1940.55, -1615.77, 0.000, 0.000, 0.000, 14:10:16.791
113, -1990.76, -2198.77, -2383.55, -2044.51, 0.000, 0.000, 0.000, 14:10:16.791
114, -2031.47, -2186.27, -2388.15, -2032.20, 0.000, 0.000, 0.000, 14:10:16.791
115, -1667.90, -1800.92, -2059.22, -1723.98, 0.000, 0.000, 0.000, 14:10:16.806
116, -1485.60, -1620.08, -1934.15, -1628.75, 0.000, 0.000, 0.000, 14:10:16.806
117, -1987.52, -2180.73, -2378.51, -2024.76, 0.000, 0.000, 0.000, 14:10:16.821
118, -2039.86, -2212.25, -2380.90, -2025.93, 0.000, 0.000, 0.000, 14:10:16.821
119, -1668.18, -1800.14, -2053.49, -1733.60, 0.000, 0.000, 0.000, 14:10:16.836
120, -1475.53, -1614.20, -1937.69, -1616.39, 0.000, 0.000, 0.000, 14:10:16.836
121, -1979.07, -2173.27, -2383.77, -2031.34, 0.000, 0.000, 0.000, 14:10:16.837
122, -2002.00, -2184.01, -2364.91, -2008.82, 0.000, 0.000, 0.000, 14:10:16.837
123, -1676.60, -1801.61, -2067.34, -1733.40, 0.000, 0.000, 0.000, 14:10:16.852
124, -1478.31, -1606.78, -1926.49, -1625.83, 0.000, 0.000, 0.000, 14:10:16.852
125, -1979.49, -2163.40, -2377.12, -2038.77, 0.000, 0.000, 0.000, 14:10:16.852
126, -2030.11, -2189.75, -2383.94, -2016.51, 0.000, 0.000, 0.000, 14:10:16.853
127, -1655.82, -1793.28, -2054.28, -1711.20, 0.000, 0.000, 0.000, 14:10:16.867
128, -1493.57, -1639.83, -1942.68, -1623.46, 0.000, 0.000, 0.000, 14:10:16.867
129, -1988.89, -2181.34, -2384.93, -2028.33, 0.000, 0.000, 0.000, 14:10:16.881
130, -2026.16, -2209.17, -2386.40, -2014.01, 0.000, 0.000, 0.000, 14:10:16.881
131, -1662.18, -1818.90, -2060.44, -1728.49, 0.000, 0.000, 0.000, 14:10:16.881
132, -1491.24, -1638.80, -1957.86, -1629.04, 0.000, 0.000, 0.000, 14:10:16.882
133, -1970.84, -2159.32, -2381.27, -1996.03, 0.000, 0.000, 0.000, 14:10:16.896
134, -2008.51, -2160.75, -2375.25, -2038.00, 0.000, 0.000, 0.000, 14:10:16.896
135, -1648.47, -1778.97, -2051.29, -1726.32, 0.000, 0.000, 0.000, 14:10:16.911
136, -1468.11, -1618.23, -1930.03, -1611.96, 0.000, 0.000, 0.000, 14:10:16.911
137, -1993.30, -2225.46, -2417.37, -2037.56, 0.000, 0.000, 0.000, 14:10:16.912
138, -2018.93, -2206.55, -2374.35, -2017.93, 0.000, 0.000, 0.000, 14:10:16.912
139, -1659.89, -1800.29, -2053.88, -1743.12, 0.000, 0.000, 0.000, 14:10:16.926
140, -1470.80, -1600.77, -1925.36, -1622.46, 0.000, 0.000, 0.000, 14:10:16.926
141, -1996.05, -2203.20, -2400.15, -2042.26, 0.000, 0.000, 0.000, 14:10:16.940
142, -2014.17, -2203.36, -2386.76, -2030.97, 0.000, 0.000, 0.000, 14:10:16.940
143, -1662.66, -1822.18, -2067.17, -1717.70, 0.000, 0.000, 0.000, 14:10:16.941
144, -1493.86, -1642.41, -1945.30, -1641.80, 0.000, 0.000, 0.000, 14:10:16.941
145, -2002.97, -2208.47, -2412.38, -2024.93, 0.000, 0.000, 0.000, 14:10:16.956
146, -2025.76, -2233.07, -2381.70, -2037.79, 0.000, 0.000, 0.000, 14:10:16.956
147, -1659.39, -1835.76, -2061.31, -1745.29, 0.000, 0.000, 0.000, 14:10:16.971
148, -1506.26, -1690.39, -1959.94, -1635.20, 0.000, 0.000, 0.000, 14:10:16.971
149, -1992.63, -2199.01, -2397.76, -2026.75, 0.000, 0.000, 0.000, 14:10:16.971
150, -2011.10, -2217.56, -2356.90, -2031.64, 0.000, 0.000, 0.000, 14:10:16.971
151, -1680.34, -1834.54, -2074.26, -1751.63, 0.000, 0.000, 0.000, 14:10:16.986
152, -1511.33, -1653.62, -1966.82, -1642.41, 0.000, 0.000, 0.000, 14:10:16.986
153, -2004.16, -2207.67, -2414.46, -2032.40, 0.000, 0.000, 0.000, 14:10:17.002
154, -2038.31, -2200.98, -2393.05, -2031.67, 0.000, 0.000, 0.000, 14:10:17.002
155, -1663.18, -1786.21, -2058.00, -1742.64, 0.000, 0.000, 0.000, 14:10:17.003
156, -1497.88, -1642.00, -1950.32, -1623.43, 0.000, 0.000, 0.000, 14:10:17.003
157, -2020.09, -2245.34, -2425.25, -2043.72, 0.000, 0.000, 0.000, 14:10:17.017
158, -2022.62, -2250.61, -2382.09, -2038.74, 0.000, 0.000, 0.000, 14:10:17.017
159, -1623.77, -1763.56, -2022.50, -1704.02, 0.000, 0.000, 0.000, 14:10:17.031
160, -1477.51, -1622.22, -1932.72, -1640.79, 0.000, 0.000, 0.000, 14:10:17.031
161, -1990.48, -2140.90, -2401.22, -2041.81, 0.000, 0.000, 0.000, 14:10:17.031
162, -2027.83, -2261.64, -2388.47, -2020.27, 0.000, 0.000, 0.000, 14:10:17.032
163, -1646.30, -1811.52, -2031.97, -1735.55, 0.000, 0.000, 0.000, 14:10:17.046
164, -1502.75, -1680.83, -1953.60, -1629.63, 0.000, 0.000, 0.000, 14:10:17.047
165, -1979.88, -2198.57, -2383.35, -2023.03, 0.000, 0.000, 0.000, 14:10:17.061
166, -2009.29, -2196.02, -2362.09, -2001.49, 0.000, 0.000, 0.000, 14:10:17.061
167, -1660.20, -1816.32, -2049.26, -1734.29, 0.000, 0.000, 0.000, 14:10:17.062
168, -1475.75, -1630.63, -1931.61, -1616.92, 0.000, 0.000, 0.000, 14:10:17.062
169, -1978.95, -2189.44, -2385.52, -2042.01, 0.000, 0.000, 0.000, 14:10:17.076
170, -2018.29, -2208.15, -2384.12, -2018.37, 0.000, 0.000, 0.000, 14:10:17.076
171, -1653.56, -1804.98, -2027.62, -1705.19, 0.000, 0.000, 0.000, 14:10:17.106
172, -1476.39, -1649.05, -1934.29, -1645.41, 0.000, 0.000, 0.000, 14:10:17.106
173, -1954.10, -2164.30, -2384.33, -2014.14, 0.000, 0.000, 0.000, 14:10:17.106
174, -2001.26, -2188.86, -2365.54, -2009.90, 0.000, 0.000, 0.000, 14:10:17.106
175, -1664.32, -1782.45, -2046.46, -1739.58, 0.000, 0.000, 0.000, 14:10:17.107
176, -1507.19, -1628.76, -1959.35, -1636.52, 0.000, 0.000, 0.000, 14:10:17.107
177, -1982.02, -2171.18, -2380.40, -2017.12, 0.000, 0.000, 0.000, 14:10:17.108
178, -2010.48, -2188.55, -2373.46, -2002.56, 0.000, 0.000, 0.000, 14:10:17.108
179, -1651.00, -1790.68, -2036.41, -1735.42, 0.000, 0.000, 0.000, 14:10:17.121
180, -1472.34, -1603.72, -1935.58, -1622.93, 0.000, 0.000, 0.000, 14:10:17.121
181, -1959.28, -2142.84, -2383.58, -2015.62, 0.000, 0.000, 0.000, 14:10:17.137
182, -1991.46, -2157.90, -2354.17, -2002.33, 0.000, 0.000, 0.000, 14:10:17.137
183, -1652.34, -1785.11, -2059.73, -1726.39, 0.000, 0.000, 0.000, 14:10:17.151
184, -1476.67, -1613.26, -1935.09, -1606.92, 0.000, 0.000, 0.000, 14:10:17.151
185, -1962.79, -2164.79, -2388.81, -2031.12, 0.000, 0.000, 0.000, 14:10:17.152
186, -2017.36, -2185.78, -2385.78, -2018.11, 0.000, 0.000, 0.000, 14:10:17.152
187, -1649.96, -1774.10, -2052.96, -1714.05, 0.000, 0.000, 0.000, 14:10:17.166
188, -1493.06, -1626.78, -1956.37, -1618.82, 0.000, 0.000, 0.000, 14:10:17.166
189, -1982.10, -2181.15, -2393.41, -2044.09, 0.000, 0.000, 0.000, 14:10:17.181
190, -2015.67, -2202.44, -2379.80, -2025.25, 0.000, 0.000, 0.000, 14:10:17.181
191, -1664.47, -1818.46, -2059.95, -1729.56, 0.000, 0.000, 0.000, 14:10:17.181
192, -1486.34, -1656.92, -1951.57, -1621.48, 0.000, 0.000, 0.000, 14:10:17.181
193, -1974.33, -2178.73, -2393.67, -2021.23, 0.000, 0.000, 0.000, 14:10:17.196
194, -1996.32, -2191.81, -2374.04, -2003.91, 0.000, 0.000, 0.000, 14:10:17.196
195, -1618.56, -1785.22, -2025.07, -1704.79, 0.000, 0.000, 0.000, 14:10:17.210
196, -1444.15, -1625.04, -1926.97, -1608.09, 0.000, 0.000, 0.000, 14:10:17.210
197, -1968.22, -2187.27, -2397.25, -2033.45, 0.000, 0.000, 0.000, 14:10:17.211
198, -1998.35, -2214.33, -2368.96, -2025.14, 0.000, 0.000, 0.000, 14:10:17.211
199, -1639.06, -1841.16, -2068.97, -1729.51, 0.000, 0.000, 0.000, 14:10:17.226
200, -1469.51, -1716.57, -1972.49, -1627.98, 0.000, 0.000, 0.000, 14:10:17.226
0, -1926.49, -2226.85, -2404.93, -2037.26, 0.000, 0.000, 0.000, 14:10:17.227
1, -1918.80, -2223.70, -2355.46, -1998.13, 0.000, 0.000, 0.000, 14:10:17.248
2, -1544.29, -1867.98, -2052.07, -1728.04, 0.000, 0.000, 0.000, 14:10:17.248
3, -1318.94, -1700.35, -1922.81, -1582.73, 0.000, 0.000, 0.000, 14:10:17.255
4, -1790.71, -2282.74, -2373.72, -2028.50, 0.000, 0.000, 0.000, 14:10:17.256
5, -1781.61, -2296.25, -2344.94, -1987.30, 0.000, 0.000, 0.000, 14:10:17.256
6, -1416.01, -1883.68, -2025.06, -1696.92, 0.000, 0.000, 0.000, 14:10:17.256
7, -1270.44, -1763.13, -1933.68, -1614.17, 0.000, 0.000, 0.000, 14:10:17.271
8, -1784.37, -2336.28, -2389.65, -2035.75, 0.000, 0.000, 0.000, 14:10:17.271
9, -1803.57, -2325.53, -2348.21, -2016.79, 0.000, 0.000, 0.000, 14:10:17.286
10, -1495.02, -1924.93, -2049.62, -1724.23, 0.000, 0.000, 0.000, 14:10:17.286
11, -1340.59, -1745.82, -1935.62, -1624.95, 0.000, 0.000, 0.000, 14:10:17.287
12, -1868.53, -2272.97, -2385.72, -2027.21, 0.000, 0.000, 0.000, 14:10:17.287
13, -1931.27, -2259.53, -2382.95, -2014.81, 0.000, 0.000, 0.000, 14:10:17.301
14, -1592.95, -1846.21, -2052.99, -1733.25, 0.000, 0.000, 0.000, 14:10:17.301
15, -1447.99, -1660.25, -1938.40, -1632.81, 0.000, 0.000, 0.000, 14:10:17.316
16, -1974.21, -2192.60, -2382.66, -2025.84, 0.000, 0.000, 0.000, 14:10:17.317
17, -2028.99, -2204.69, -2379.91, -2018.87, 0.000, 0.000, 0.000, 14:10:17.317
18, -1687.61, -1784.88, -2060.52, -1727.29, 0.000, 0.000, 0.000, 14:10:17.317
19, -1546.52, -1627.29, -1964.66, -1640.77, 0.000, 0.000, 0.000, 14:10:17.332
20, -2052.60, -2148.85, -2402.18, -2043.61, 0.000, 0.000, 0.000, 14:10:17.332
21, -2083.51, -2157.62, -2367.61, -2032.73, 0.000, 0.000, 0.000, 14:10:17.346
22, -1721.63, -1757.49, -2054.20, -1738.54, 0.000, 0.000, 0.000, 14:10:17.346
23, -1576.53, -1604.95, -1960.65, -1639.96, 0.000, 0.000, 0.000, 14:10:17.347
24, -2082.04, -2161.19, -2405.99, -2059.96, 0.000, 0.000, 0.000, 14:10:17.347
25, -2081.13, -2129.50, -2359.72, -2021.63, 0.000, 0.000, 0.000, 14:10:17.361
26, -1737.74, -1770.38, -2068.81, -1743.50, 0.000, 0.000, 0.000, 14:10:17.361
27, -1565.54, -1579.37, -1943.13, -1641.43, 0.000, 0.000, 0.000, 14:10:17.376
28, -2058.76, -2127.98, -2377.78, -2042.03, 0.000, 0.000, 0.000, 14:10:17.376
29, -2092.72, -2159.85, -2380.87, -2027.36, 0.000, 0.000, 0.000, 14:10:17.376
30, -1727.65, -1761.36, -2049.52, -1731.91, 0.000, 0.000, 0.000, 14:10:17.376
31, -1576.37, -1612.80, -1959.23, -1642.70, 0.000, 0.000, 0.000, 14:10:17.391
32, -2045.69, -2118.72, -2374.68, -2041.09, 0.000, 0.000, 0.000, 14:10:17.391
33, -2090.86, -2171.49, -2388.39, -2020.87, 0.000, 0.000, 0.000, 14:10:17.406
34, -1715.77, -1762.91, -2044.14, -1735.85, 0.000, 0.000, 0.000, 14:10:17.406
35, -1570.48, -1630.56, -1968.32, -1646.83, 0.000, 0.000, 0.000, 14:10:17.407
36, -2066.05, -2167.12, -2388.97, -2050.52, 0.000, 0.000, 0.000, 14:10:17.407
37, -2074.88, -2161.38, -2376.84, -1998.14, 0.000, 0.000, 0.000, 14:10:17.421
38, -1698.48, -1729.67, -2045.85, -1722.02, 0.000, 0.000, 0.000, 14:10:17.421
39, -1546.81, -1594.66, -1950.03, -1645.95, 0.000, 0.000, 0.000, 14:10:17.436
40, -2050.54, -2133.14, -2397.88, -2032.87, 0.000, 0.000, 0.000, 14:10:17.436
41, -2062.22, -2126.74, -2367.09, -2008.58, 0.000, 0.000, 0.000, 14:10:17.437
42, -1704.41, -1753.59, -2058.42, -1730.40, 0.000, 0.000, 0.000, 14:10:17.437
43, -1544.43, -1622.30, -1963.71, -1637.37, 0.000, 0.000, 0.000, 14:10:17.453
44, -2050.56, -2168.88, -2408.20, -2046.16, 0.000, 0.000, 0.000, 14:10:17.453
45, -2056.09, -2147.83, -2365.30, -2015.68, 0.000, 0.000, 0.000, 14:10:17.466
46, -1688.37, -1773.20, -2049.13, -1720.65, 0.000, 0.000, 0.000, 14:10:17.466
47, -1540.56, -1636.31, -1964.55, -1630.80, 0.000, 0.000, 0.000, 14:10:17.467
48, -2019.42, -2162.10, -2395.29, -2042.98, 0.000, 0.000, 0.000, 14:10:17.467
49, -2027.04, -2157.48, -2354.60, -2024.03, 0.000, 0.000, 0.000, 14:10:17.482
50, -1706.06, -1800.32, -2065.64, -1723.76, 0.000, 0.000, 0.000, 14:10:17.482
51, -1544.11, -1649.19, -1971.02, -1658.03, 0.000, 0.000, 0.000, 14:10:17.496
52, -2013.15, -2186.31, -2381.89, -2031.89, 0.000, 0.000, 0.000, 14:10:17.496
53, -2049.86, -2201.34, -2383.06, -2031.26, 0.000, 0.000, 0.000, 14:10:17.497
54, -1687.69, -1806.55, -2058.76, -1738.38, 0.000, 0.000, 0.000, 14:10:17.497
55, -1532.35, -1671.77, -1969.14, -1654.36, 0.000, 0.000, 0.000, 14:10:17.526
56, -2008.44, -2198.12, -2385.73, -2034.35, 0.000, 0.000, 0.000, 14:10:17.526
57, -2024.38, -2172.71, -2357.88, -2016.92, 0.000, 0.000, 0.000, 14:10:17.526
58, -1671.75, -1782.55, -2044.78, -1727.52, 0.000, 0.000, 0.000, 14:10:17.526
59, -1520.78, -1649.48, -1958.06, -1648.50, 0.000, 0.000, 0.000, 14:10:17.527
60, -2009.73, -2196.16, -2399.12, -2034.70, 0.000, 0.000, 0.000, 14:10:17.527
61, -2019.46, -2174.63, -2361.07, -2010.98, 0.000, 0.000, 0.000, 14:10:17.542
62, -1652.44, -1778.21, -2029.05, -1717.38, 0.000, 0.000, 0.000, 14:10:17.542
63, -1495.52, -1643.71, -1941.40, -1616.22, 0.000, 0.000, 0.000, 14:10:17.556
64, -1998.27, -2177.24, -2388.95, -2045.94, 0.000, 0.000, 0.000, 14:10:17.556
65, -2002.51, -2185.12, -2358.86, -2010.44, 0.000, 0.000, 0.000, 14:10:17.556
66, -1642.71, -1777.45, -2036.58, -1711.13, 0.000, 0.000, 0.000, 14:10:17.556
67, -1494.13, -1632.19, -1949.39, -1635.19, 0.000, 0.000, 0.000, 14:10:17.571
68, -1999.81, -2181.89, -2391.07, -2033.87, 0.000, 0.000, 0.000, 14:10:17.571
69, -1992.38, -2161.42, -2348.97, -2010.49, 0.000, 0.000, 0.000, 14:10:17.586
70, -1632.53, -1772.32, -2036.00, -1722.70, 0.000, 0.000, 0.000, 14:10:17.586
71, -1492.00, -1644.53, -1947.23, -1634.92, 0.000, 0.000, 0.000, 14:10:17.587
72, -1981.00, -2171.87, -2386.79, -2025.08, 0.000, 0.000, 0.000, 14:10:17.587
73, -1998.88, -2167.31, -2356.28, -2021.73, 0.000, 0.000, 0.000, 14:10:17.601
74, -1649.44, -1800.07, -2049.54, -1723.39, 0.000, 0.000, 0.000, 14:10:17.601
75, -1506.29, -1663.41, -1957.35, -1644.19, 0.000, 0.000, 0.000, 14:10:17.617
76, -1987.45, -2173.17, -2386.31, -2030.25, 0.000, 0.000, 0.000, 14:10:17.617
77, -1989.85, -2159.41, -2349.53, -2011.22, 0.000, 0.000, 0.000, 14:10:17.623
78, -1645.82, -1791.90, -2046.94, -1734.72, 0.000, 0.000, 0.000, 14:10:17.623
79, -1518.00, -1668.81, -1968.03, -1644.27, 0.000, 0.000, 0.000, 14:10:17.631
80, -1981.41, -2177.97, -2384.25, -2029.74, 0.000, 0.000, 0.000, 14:10:17.631
81, -1983.92, -2170.28, -2353.35, -2004.75, 0.000, 0.000, 0.000, 14:10:17.646
82, -1632.04, -1776.65, -2039.83, -1718.76, 0.000, 0.000, 0.000, 14:10:17.646
83, -1508.15, -1659.30, -1961.85, -1650.66, 0.000, 0.000, 0.000, 14:10:17.646
84, -1980.54, -2175.95, -2378.19, -2031.48, 0.000, 0.000, 0.000, 14:10:17.647
85, -1975.13, -2169.25, -2351.60, -2001.04, 0.000, 0.000, 0.000, 14:10:17.661
86, -1642.26, -1800.98, -2060.81, -1719.89, 0.000, 0.000, 0.000, 14:10:17.661
87, -1516.42, -1666.93, -1972.03, -1643.74, 0.000, 0.000, 0.000, 14:10:17.676
88, -1996.18, -2166.72, -2390.76, -2057.38, 0.000, 0.000, 0.000, 14:10:17.676
89, -1992.79, -2159.93, -2338.41, -2013.32, 0.000, 0.000, 0.000, 14:10:17.677
90, -1638.87, -1784.00, -2032.30, -1717.59, 0.000, 0.000, 0.000, 14:10:17.677
91, -1527.45, -1654.02, -1966.87, -1652.85, 0.000, 0.000, 0.000, 14:10:17.691
92, -2001.15, -2158.37, -2377.87, -2047.37, 0.000, 0.000, 0.000, 14:10:17.691
93, -2007.07, -2155.64, -2345.49, -2002.91, 0.000, 0.000, 0.000, 14:10:17.706
94, -1663.62, -1790.02, -2051.72, -1730.66, 0.000, 0.000, 0.000, 14:10:17.706
95, -1541.90, -1656.82, -1984.31, -1664.56, 0.000, 0.000, 0.000, 14:10:17.707
96, -1988.07, -2145.34, -2376.73, -2021.52, 0.000, 0.000, 0.000, 14:10:17.707
97, -2002.23, -2167.75, -2351.02, -2006.58, 0.000, 0.000, 0.000, 14:10:17.721
98, -1662.95, -1798.58, -2060.71, -1722.75, 0.000, 0.000, 0.000, 14:10:17.721
99, -1534.63, -1690.25, -1977.00, -1654.08, 0.000, 0.000, 0.000, 14:10:17.736
100, -1988.44, -2173.23, -2381.81, -2033.90, 0.000, 0.000, 0.000, 14:10:17.736
