%OpenBCI Raw EEG Data
%
%Sample Rate = 200.0 Hz
%First Column = SampleIndex
%Last Column = Timestamp 
%Other Columns = EEG data in microvolts followed by Accel Data (in G) interleaved with Aux Data
0, -1876.96, -1900.03, -1817.14, -1551.59, 0.000, 0.000, 0.000, 14:03:57.137
1, -1500.58, -1535.53, -1492.85, -1293.36, 0.000, 0.000, 0.000, 14:03:57.182
2, -1268.74, -1270.28, -1368.02, -1151.25, 0.000, 0.000, 0.000, 14:03:57.182
3, -1786.56, -1856.47, -1793.55, -1508.92, 0.000, 0.000, 0.000, 14:03:57.182
4, -1856.36, -1918.50, -1801.06, -1543.42, 0.000, 0.000, 0.000, 14:03:57.182
5, -1492.59, -1533.37, -1456.80, -1291.12, 0.000, 0.000, 0.000, 14:03:57.197
6, -1267.23, -1290.62, -1304.28, -1152.68, 0.000, 0.000, 0.000, 14:03:57.197
7, -1789.30, -1857.43, -1783.48, -1513.15, 0.000, 0.000, 0.000, 14:03:57.211
8, -1857.31, -1864.05, -1848.04, -1540.76, 0.000, 0.000, 0.000, 14:03:57.211
9, -1489.36, -1500.52, -1465.53, -1287.16, 0.000, 0.000, 0.000, 14:03:57.211
10, -1257.73, -1293.55, -1376.72, -1146.00, 0.000, 0.000, 0.000, 14:03:57.212
11, -1787.46, -1831.34, -1821.16, -1507.87, 0.000, 0.000, 0.000, 14:03:57.212
12, -1849.03, -1907.51, -1825.41, -1540.29, 0.000, 0.000, 0.000, 14:03:57.212
13, -1481.49, -1503.77, -1497.16, -1284.53, 0.000, 0.000, 0.000, 14:03:57.213
14, -1257.89, -1268.63, -1306.73, -1148.08, 0.000, 0.000, 0.000, 14:03:57.213
15, -1779.96, -1848.22, -1798.66, -1502.28, 0.000, 0.000, 0.000, 14:03:57.214
16, -1831.72, -1888.46, -1824.37, -1533.38, 0.000, 0.000, 0.000, 14:03:57.214
17, -1460.89, -1510.58, -1504.85, -1280.06, 0.000, 0.000, 0.000, 14:03:57.226
18, -1249.72, -1288.79, -1344.65, -1151.75, 0.000, 0.000, 0.000, 14:03:57.226
19, -1768.91, -1847.68, -1774.86, -1504.29, 0.000, 0.000, 0.000, 14:03:57.241
20, -1821.56, -1875.88, -1748.21, -1521.08, 0.000, 0.000, 0.000, 14:03:57.241
21, -1453.09, -1493.31, -1473.33, -1270.04, 0.000, 0.000, 0.000, 14:03:57.256
22, -1248.87, -1299.92, -1300.37, -1143.82, 0.000, 0.000, 0.000, 14:03:57.257
23, -1781.98, -1824.44, -1755.37, -1506.97, 0.000, 0.000, 0.000, 14:03:57.257
24, -1832.49, -1906.89, -1794.71, -1527.23, 0.000, 0.000, 0.000, 14:03:57.257
25, -1452.37, -1504.50, -1437.36, -1272.90, 0.000, 0.000, 0.000, 14:03:57.271
26, -1255.48, -1264.61, -1320.30, -1145.79, 0.000, 0.000, 0.000, 14:03:57.271
27, -1785.76, -1851.79, -1784.30, -1513.62, 0.000, 0.000, 0.000, 14:03:57.302
28, -1843.68, -1873.43, -1789.99, -1530.39, 0.000, 0.000, 0.000, 14:03:57.302
29, -1463.72, -1484.01, -1453.94, -1274.88, 0.000, 0.000, 0.000, 14:03:57.302
30, -1254.98, -1300.13, -1359.52, -1152.50, 0.000, 0.000, 0.000, 14:03:57.302
31, -1783.74, -1871.53, -1815.61, -1517.85, 0.000, 0.000, 0.000, 14:03:57.302
32, -1841.49, -1924.15, -1843.43, -1530.95, 0.000, 0.000, 0.000, 14:03:57.303
33, -1444.33, -1490.69, -1495.77, -1261.04, 0.000, 0.000, 0.000, 14:03:57.303
34, -1254.45, -1265.04, -1334.90, -1146.52, 0.000, 0.000, 0.000, 14:03:57.303
35, -1788.80, -1816.50, -1811.60, -1513.38, 0.000, 0.000, 0.000, 14:03:57.316
36, -1830.32, -1862.03, -1784.36, -1526.86, 0.000, 0.000, 0.000, 14:03:57.316
37, -1461.67, -1500.33, -1475.37, -1268.97, 0.000, 0.000, 0.000, 14:03:57.332
38, -1258.99, -1322.36, -1345.60, -1147.10, 0.000, 0.000, 0.000, 14:03:57.332
39, -1783.86, -1855.58, -1809.57, -1518.04, 0.000, 0.000, 0.000, 14:03:57.346
40, -1825.99, -1886.63, -1792.04, -1527.49, 0.000, 0.000, 0.000, 14:03:57.347
41, -1443.40, -1497.18, -1464.83, -1268.86, 0.000, 0.000, 0.000, 14:03:57.347
42, -1264.10, -1278.61, -1349.27, -1152.73, 0.000, 0.000, 0.000, 14:03:57.347
43, -1798.75, -1870.92, -1828.41, -1528.38, 0.000, 0.000, 0.000, 14:03:57.376
44, -1832.78, -1886.75, -1795.23, -1529.35, 0.000, 0.000, 0.000, 14:03:57.376
45, -1442.33, -1488.21, -1472.84, -1267.41, 0.000, 0.000, 0.000, 14:03:57.377
46, -1262.23, -1318.67, -1352.92, -1159.84, 0.000, 0.000, 0.000, 14:03:57.378
47, -1813.04, -1893.55, -1839.38, -1536.96, 0.000, 0.000, 0.000, 14:03:57.378
48, -1855.38, -1918.93, -1807.17, -1542.36, 0.000, 0.000, 0.000, 14:03:57.378
49, -1423.17, -1494.05, -1455.37, -1250.70, 0.000, 0.000, 0.000, 14:03:57.391
50, -1250.87, -1339.23, -1367.19, -1155.48, 0.000, 0.000, 0.000, 14:03:57.391
51, -1777.57, -1933.41, -1806.05, -1512.17, 0.000, 0.000, 0.000, 14:03:57.406
52, -1791.93, -1931.65, -1796.26, -1525.15, 0.000, 0.000, 0.000, 14:03:57.406
53, -1406.39, -1529.00, -1470.92, -1257.12, 0.000, 0.000, 0.000, 14:03:57.407
54, -1226.43, -1383.09, -1357.81, -1152.77, 0.000, 0.000, 0.000, 14:03:57.407
55, -1761.54, -1923.82, -1801.40, -1522.46, 0.000, 0.000, 0.000, 14:03:57.436
56, -1759.69, -1920.27, -1745.37, -1520.28, 0.000, 0.000, 0.000, 14:03:57.436
57, -1383.24, -1505.61, -1449.89, -1259.23, 0.000, 0.000, 0.000, 14:03:57.437
58, -1217.52, -1351.30, -1397.33, -1152.78, 0.000, 0.000, 0.000, 14:03:57.437
59, -1767.93, -1924.61, -1822.42, -1532.05, 0.000, 0.000, 0.000, 14:03:57.438
60, -1783.65, -1942.82, -1762.31, -1523.43, 0.000, 0.000, 0.000, 14:03:57.440
61, -1398.58, -1486.84, -1473.85, -1255.69, 0.000, 0.000, 0.000, 14:03:57.452
62, -1241.20, -1336.90, -1364.81, -1160.88, 0.000, 0.000, 0.000, 14:03:57.452
63, -1771.86, -1862.28, -1824.49, -1532.49, 0.000, 0.000, 0.000, 14:03:57.467
64, -1794.43, -1862.33, -1768.36, -1520.26, 0.000, 0.000, 0.000, 14:03:57.467
65, -1410.06, -1479.07, -1464.97, -1252.74, 0.000, 0.000, 0.000, 14:03:57.467
66, -1254.53, -1317.67, -1367.95, -1163.97, 0.000, 0.000, 0.000, 14:03:57.467
67, -1791.97, -1923.37, -1824.26, -1534.21, 0.000, 0.000, 0.000, 14:03:57.487
68, -1799.52, -1867.11, -1777.97, -1519.82, 0.000, 0.000, 0.000, 14:03:57.488
69, -1417.55, -1455.25, -1454.72, -1252.85, 0.000, 0.000, 0.000, 14:03:57.511
70, -1262.98, -1345.94, -1368.20, -1158.14, 0.000, 0.000, 0.000, 14:03:57.511
71, -1800.81, -1888.26, -1811.53, -1536.28, 0.000, 0.000, 0.000, 14:03:57.511
72, -1824.29, -1907.14, -1788.38, -1530.22, 0.000, 0.000, 0.000, 14:03:57.512
73, -1411.91, -1484.16, -1444.83, -1251.81, 0.000, 0.000, 0.000, 14:03:57.526
74, -1273.08, -1351.57, -1373.26, -1161.09, 0.000, 0.000, 0.000, 14:03:57.526
75, -1799.17, -1847.40, -1800.92, -1530.06, 0.000, 0.000, 0.000, 14:03:57.527
76, -1799.97, -1868.49, -1780.09, -1519.11, 0.000, 0.000, 0.000, 14:03:57.527
77, -1410.48, -1499.75, -1454.40, -1255.51, 0.000, 0.000, 0.000, 14:03:57.528
78, -1268.94, -1358.08, -1367.80, -1161.62, 0.000, 0.000, 0.000, 14:03:57.528
79, -1801.91, -1936.45, -1813.35, -1531.74, 0.000, 0.000, 0.000, 14:03:57.541
80, -1801.00, -1873.01, -1767.84, -1513.00, 0.000, 0.000, 0.000, 14:03:57.541
81, -1398.90, -1460.65, -1444.68, -1247.24, 0.000, 0.000, 0.000, 14:03:57.555
82, -1259.09, -1336.54, -1374.56, -1166.04, 0.000, 0.000, 0.000, 14:03:57.556
83, -1796.63, -1928.27, -1795.14, -1541.18, 0.000, 0.000, 0.000, 14:03:57.557
84, -1784.29, -1916.71, -1796.36, -1521.44, 0.000, 0.000, 0.000, 14:03:57.557
85, -1382.21, -1446.79, -1416.69, -1241.78, 0.000, 0.000, 0.000, 14:03:57.586
86, -1240.22, -1341.99, -1359.51, -1164.99, 0.000, 0.000, 0.000, 14:03:57.586
87, -1773.25, -1946.61, -1840.00, -1537.90, 0.000, 0.000, 0.000, 14:03:57.587
88, -1761.84, -1898.48, -1760.13, -1514.81, 0.000, 0.000, 0.000, 14:03:57.587
89, -1360.65, -1461.14, -1458.58, -1241.86, 0.000, 0.000, 0.000, 14:03:57.587
90, -1224.82, -1355.94, -1336.97, -1170.61, 0.000, 0.000, 0.000, 14:03:57.587
91, -1760.92, -1899.09, -1806.44, -1534.81, 0.000, 0.000, 0.000, 14:03:57.602
92, -1768.74, -1864.29, -1806.01, -1519.68, 0.000, 0.000, 0.000, 14:03:57.602
93, -1384.00, -1471.55, -1479.69, -1251.00, 0.000, 0.000, 0.000, 14:03:57.616
94, -1272.09, -1379.32, -1394.39, -1185.33, 0.000, 0.000, 0.000, 14:03:57.616
95, -1775.75, -1901.66, -1811.59, -1527.39, 0.000, 0.000, 0.000, 14:03:57.617
96, -1775.33, -1841.20, -1739.44, -1515.43, 0.000, 0.000, 0.000, 14:03:57.617
97, -1405.01, -1410.58, -1445.71, -1234.78, 0.000, 0.000, 0.000, 14:03:57.647
98, -1275.11, -1280.66, -1362.31, -1174.06, 0.000, 0.000, 0.000, 14:03:57.647
99, -1833.49, -1824.17, -1760.10, -1549.58, 0.000, 0.000, 0.000, 14:03:57.647
100, -1815.68, -1766.74, -1776.25, -1509.54, 0.000, 0.000, 0.000, 14:03:57.647
101, -1416.61, -1405.62, -1433.98, -1247.36, 0.000, 0.000, 0.000, 14:03:57.648
102, -1316.79, -1311.11, -1363.88, -1183.13, 0.000, 0.000, 0.000, 14:03:57.648
103, -1851.53, -1878.61, -1824.03, -1552.80, 0.000, 0.000, 0.000, 14:03:57.661
104, -1828.84, -1867.22, -1752.11, -1519.78, 0.000, 0.000, 0.000, 14:03:57.662
105, -1420.91, -1446.99, -1398.06, -1247.39, 0.000, 0.000, 0.000, 14:03:57.675
106, -1304.83, -1316.91, -1410.73, -1177.84, 0.000, 0.000, 0.000, 14:03:57.675
107, -1832.91, -1883.65, -1786.51, -1548.53, 0.000, 0.000, 0.000, 14:03:57.676
108, -1809.75, -1833.22, -1709.44, -1515.30, 0.000, 0.000, 0.000, 14:03:57.676
109, -1401.48, -1398.71, -1399.34, -1229.03, 0.000, 0.000, 0.000, 14:03:57.691
110, -1289.05, -1333.71, -1390.75, -1182.91, 0.000, 0.000, 0.000, 14:03:57.692
111, -1837.52, -1887.56, -1862.62, -1542.30, 0.000, 0.000, 0.000, 14:03:57.706
112, -1807.75, -1806.65, -1798.57, -1511.84, 0.000, 0.000, 0.000, 14:03:57.707
113, -1394.29, -1430.85, -1416.83, -1226.45, 0.000, 0.000, 0.000, 14:03:57.707
114, -1296.50, -1345.45, -1384.29, -1180.74, 0.000, 0.000, 0.000, 14:03:57.707
115, -1829.90, -1928.83, -1848.61, -1550.65, 0.000, 0.000, 0.000, 14:03:57.721
116, -1791.64, -1835.45, -1750.91, -1513.83, 0.000, 0.000, 0.000, 14:03:57.721
117, -1389.23, -1382.20, -1431.40, -1222.82, 0.000, 0.000, 0.000, 14:03:57.737
118, -1285.65, -1353.41, -1362.06, -1177.96, 0.000, 0.000, 0.000, 14:03:57.737
119, -1812.24, -1933.20, -1844.06, -1536.16, 0.000, 0.000, 0.000, 14:03:57.737
120, -1778.17, -1909.00, -1747.68, -1504.16, 0.000, 0.000, 0.000, 14:03:57.737
121, -1354.83, -1421.92, -1434.50, -1233.56, 0.000, 0.000, 0.000, 14:03:57.752
122, -1224.93, -1384.67, -1374.76, -1171.99, 0.000, 0.000, 0.000, 14:03:57.752
123, -1758.30, -2001.05, -1837.28, -1541.96, 0.000, 0.000, 0.000, 14:03:57.796
124, -1679.34, -1879.10, -1774.50, -1499.54, 0.000, 0.000, 0.000, 14:03:57.796
125, -1234.73, -1468.89, -1406.61, -1200.94, 0.000, 0.000, 0.000, 14:03:57.797
126, -1064.83, -1443.76, -1357.42, -1166.24, 0.000, 0.000, 0.000, 14:03:57.797
127, -1545.48, -2010.32, -1798.57, -1539.55, 0.000, 0.000, 0.000, 14:03:57.797
128, -1477.08, -1984.97, -1788.56, -1482.94, 0.000, 0.000, 0.000, 14:03:57.797
129, -1065.20, -1590.57, -1389.61, -1197.99, 0.000, 0.000, 0.000, 14:03:57.798
130, -982.01, -1496.37, -1389.30, -1160.46, 0.000, 0.000, 0.000, 14:03:57.799
131, -1563.11, -2031.76, -1833.16, -1535.21, 0.000, 0.000, 0.000, 14:03:57.799
132, -1534.37, -2001.75, -1722.50, -1493.31, 0.000, 0.000, 0.000, 14:03:57.799
133, -1152.66, -1578.04, -1429.99, -1205.39, 0.000, 0.000, 0.000, 14:03:57.811
134, -1111.52, -1446.65, -1388.92, -1170.74, 0.000, 0.000, 0.000, 14:03:57.811
135, -1706.45, -1965.77, -1837.54, -1546.39, 0.000, 0.000, 0.000, 14:03:57.826
136, -1706.22, -1925.78, -1793.66, -1505.73, 0.000, 0.000, 0.000, 14:03:57.826
137, -1333.09, -1451.50, -1396.95, -1223.26, 0.000, 0.000, 0.000, 14:03:57.827
138, -1319.36, -1379.53, -1387.79, -1193.12, 0.000, 0.000, 0.000, 14:03:57.827
139, -1906.53, -1931.99, -1894.01, -1576.96, 0.000, 0.000, 0.000, 14:03:57.856
140, -1885.36, -1846.54, -1803.25, -1515.94, 0.000, 0.000, 0.000, 14:03:57.856
141, -1483.25, -1378.97, -1439.30, -1243.06, 0.000, 0.000, 0.000, 14:03:57.857
142, -1446.79, -1312.67, -1421.17, -1213.52, 0.000, 0.000, 0.000, 14:03:57.857
143, -1997.22, -1840.81, -1838.89, -1577.57, 0.000, 0.000, 0.000, 14:03:57.857
144, -1938.48, -1802.61, -1703.57, -1514.81, 0.000, 0.000, 0.000, 14:03:57.857
145, -1519.09, -1348.26, -1418.90, -1229.44, 0.000, 0.000, 0.000, 14:03:57.871
146, -1465.11, -1304.02, -1410.48, -1207.26, 0.000, 0.000, 0.000, 14:03:57.871
147, -2001.73, -1824.62, -1835.89, -1575.02, 0.000, 0.000, 0.000, 14:03:57.886
148, -1930.12, -1778.81, -1776.74, -1516.40, 0.000, 0.000, 0.000, 14:03:57.886
149, -1511.12, -1300.32, -1403.28, -1226.63, 0.000, 0.000, 0.000, 14:03:57.886
150, -1441.60, -1304.86, -1381.63, -1198.68, 0.000, 0.000, 0.000, 14:03:57.886
151, -1975.04, -1883.92, -1861.04, -1568.18, 0.000, 0.000, 0.000, 14:03:57.908
152, -1896.19, -1806.54, -1762.74, -1507.39, 0.000, 0.000, 0.000, 14:03:57.908
153, -1477.70, -1354.75, -1442.69, -1221.79, 0.000, 0.000, 0.000, 14:03:57.916
154, -1416.33, -1304.16, -1414.14, -1193.03, 0.000, 0.000, 0.000, 14:03:57.916
155, -1946.17, -1816.30, -1842.21, -1553.26, 0.000, 0.000, 0.000, 14:03:57.932
156, -1881.44, -1796.84, -1744.17, -1504.56, 0.000, 0.000, 0.000, 14:03:57.932
157, -1455.99, -1330.10, -1401.36, -1218.04, 0.000, 0.000, 0.000, 14:03:57.932
158, -1400.49, -1304.16, -1422.99, -1194.14, 0.000, 0.000, 0.000, 14:03:57.932
159, -1926.94, -1883.51, -1876.35, -1562.69, 0.000, 0.000, 0.000, 14:03:57.946
160, -1854.25, -1797.44, -1715.48, -1506.59, 0.000, 0.000, 0.000, 14:03:57.946
161, -1438.60, -1356.06, -1375.27, -1217.52, 0.000, 0.000, 0.000, 14:03:57.947
162, -1387.78, -1323.95, -1395.09, -1199.63, 0.000, 0.000, 0.000, 14:03:57.947
163, -1914.20, -1937.75, -1861.04, -1561.44, 0.000, 0.000, 0.000, 14:03:57.961
164, -1835.89, -1824.33, -1767.62, -1497.90, 0.000, 0.000, 0.000, 14:03:57.961
165, -1405.27, -1359.02, -1403.92, -1208.05, 0.000, 0.000, 0.000, 14:03:57.991
166, -1358.20, -1347.28, -1424.13, -1202.70, 0.000, 0.000, 0.000, 14:03:57.991
167, -1900.24, -1926.16, -1881.01, -1562.73, 0.000, 0.000, 0.000, 14:03:57.991
168, -1817.37, -1816.21, -1738.31, -1500.59, 0.000, 0.000, 0.000, 14:03:57.991
169, -1382.07, -1360.73, -1423.90, -1213.74, 0.000, 0.000, 0.000, 14:03:57.992
170, -1353.89, -1353.13, -1410.59, -1201.37, 0.000, 0.000, 0.000, 14:03:57.992
171, -1880.92, -1920.19, -1836.67, -1565.20, 0.000, 0.000, 0.000, 14:03:57.993
172, -1791.50, -1818.34, -1746.40, -1502.24, 0.000, 0.000, 0.000, 14:03:57.993
173, -1365.33, -1378.40, -1393.23, -1206.37, 0.000, 0.000, 0.000, 14:03:58.006
174, -1345.38, -1375.39, -1424.52, -1211.55, 0.000, 0.000, 0.000, 14:03:58.006
175, -1878.11, -1926.18, -1807.32, -1566.77, 0.000, 0.000, 0.000, 14:03:58.021
176, -1786.63, -1792.78, -1753.76, -1495.00, 0.000, 0.000, 0.000, 14:03:58.022
177, -1353.71, -1400.26, -1408.55, -1201.38, 0.000, 0.000, 0.000, 14:03:58.036
178, -1337.96, -1403.10, -1466.25, -1205.01, 0.000, 0.000, 0.000, 14:03:58.036
179, -1876.15, -1963.92, -1864.11, -1566.52, 0.000, 0.000, 0.000, 14:03:58.036
180, -1788.62, -1805.58, -1769.23, -1492.24, 0.000, 0.000, 0.000, 14:03:58.037
181, -1357.72, -1404.36, -1388.81, -1207.25, 0.000, 0.000, 0.000, 14:03:58.082
182, -1335.22, -1379.55, -1425.21, -1206.63, 0.000, 0.000, 0.000, 14:03:58.082
183, -1865.78, -1913.26, -1859.39, -1570.19, 0.000, 0.000, 0.000, 14:03:58.082
184, -1767.21, -1826.52, -1749.00, -1485.68, 0.000, 0.000, 0.000, 14:03:58.082
185, -1351.29, -1381.68, -1376.95, -1207.65, 0.000, 0.000, 0.000, 14:03:58.082
186, -1339.23, -1373.28, -1439.03, -1209.81, 0.000, 0.000, 0.000, 14:03:58.082
187, -1864.67, -1932.28, -1842.81, -1571.85, 0.000, 0.000, 0.000, 14:03:58.085
188, -1769.06, -1822.73, -1748.03, -1489.37, 0.000, 0.000, 0.000, 14:03:58.085
189, -1341.65, -1358.80, -1374.64, -1198.65, 0.000, 0.000, 0.000, 14:03:58.085
190, -1341.04, -1386.86, -1429.70, -1215.99, 0.000, 0.000, 0.000, 14:03:58.085
191, -1869.27, -1939.04, -1861.40, -1568.94, 0.000, 0.000, 0.000, 14:03:58.097
192, -1770.27, -1834.25, -1690.83, -1488.32, 0.000, 0.000, 0.000, 14:03:58.097
193, -1347.57, -1376.45, -1392.47, -1195.72, 0.000, 0.000, 0.000, 14:03:58.111
194, -1341.36, -1385.12, -1444.76, -1216.39, 0.000, 0.000, 0.000, 14:03:58.111
195, -1866.34, -1911.63, -1855.81, -1567.00, 0.000, 0.000, 0.000, 14:03:58.141
196, -1759.28, -1808.05, -1753.61, -1487.72, 0.000, 0.000, 0.000, 14:03:58.141
197, -1331.30, -1390.84, -1386.63, -1198.66, 0.000, 0.000, 0.000, 14:03:58.142
198, -1343.84, -1411.87, -1438.80, -1221.13, 0.000, 0.000, 0.000, 14:03:58.142
199, -1860.23, -1934.99, -1855.88, -1573.35, 0.000, 0.000, 0.000, 14:03:58.143
200, -1757.86, -1857.31, -1745.55, -1485.52, 0.000, 0.000, 0.000, 14:03:58.143
0, -1332.64, -1366.95, -1391.08, -1193.32, 0.000, 0.000, 0.000, 14:03:58.143
1, -1342.85, -1428.70, -1426.70, -1214.01, 0.000, 0.000, 0.000, 14:03:58.156
2, -1862.19, -1947.12, -1833.12, -1564.67, 0.000, 0.000, 0.000, 14:03:58.156
3, -1755.08, -1846.93, -1742.32, -1483.27, 0.000, 0.000, 0.000, 14:03:58.170
4, -1313.72, -1354.81, -1374.83, -1184.26, 0.000, 0.000, 0.000, 14:03:58.171
5, -1343.31, -1400.12, -1439.49, -1221.63, 0.000, 0.000, 0.000, 14:03:58.171
6, -1860.47, -1981.20, -1849.21, -1572.95, 0.000, 0.000, 0.000, 14:03:58.172
7, -1745.86, -1824.02, -1724.76, -1481.05, 0.000, 0.000, 0.000, 14:03:58.202
8, -1313.38, -1365.45, -1382.25, -1191.98, 0.000, 0.000, 0.000, 14:03:58.202
9, -1343.38, -1433.22, -1455.76, -1219.40, 0.000, 0.000, 0.000, 14:03:58.203
10, -1863.18, -1919.43, -1854.27, -1574.19, 0.000, 0.000, 0.000, 14:03:58.203
11, -1741.20, -1778.76, -1721.14, -1483.27, 0.000, 0.000, 0.000, 14:03:58.203
12, -1322.15, -1369.08, -1371.21, -1195.94, 0.000, 0.000, 0.000, 14:03:58.203
13, -1359.61, -1420.46, -1444.14, -1228.57, 0.000, 0.000, 0.000, 14:03:58.217
14, -1878.30, -1960.17, -1853.31, -1580.09, 0.000, 0.000, 0.000, 14:03:58.217
15, -1753.30, -1815.91, -1716.80, -1483.96, 0.000, 0.000, 0.000, 14:03:58.231
16, -1320.15, -1359.00, -1373.07, -1184.02, 0.000, 0.000, 0.000, 14:03:58.231
17, -1351.85, -1406.06, -1449.02, -1224.26, 0.000, 0.000, 0.000, 14:03:58.232
18, -1870.84, -1904.83, -1866.15, -1578.52, 0.000, 0.000, 0.000, 14:03:58.232
19, -1752.57, -1786.05, -1716.63, -1475.14, 0.000, 0.000, 0.000, 14:03:58.246
20, -1318.87, -1376.32, -1371.40, -1184.13, 0.000, 0.000, 0.000, 14:03:58.246
21, -1355.42, -1428.07, -1455.21, -1233.22, 0.000, 0.000, 0.000, 14:03:58.260
22, -1875.77, -1917.06, -1858.17, -1576.64, 0.000, 0.000, 0.000, 14:03:58.261
23, -1751.54, -1829.51, -1713.32, -1479.70, 0.000, 0.000, 0.000, 14:03:58.261
24, -1321.04, -1361.90, -1364.87, -1186.51, 0.000, 0.000, 0.000, 14:03:58.261
25, -1360.22, -1449.37, -1442.91, -1227.22, 0.000, 0.000, 0.000, 14:03:58.276
26, -1873.77, -1969.68, -1849.36, -1574.25, 0.000, 0.000, 0.000, 14:03:58.276
27, -1743.97, -1831.56, -1728.42, -1476.88, 0.000, 0.000, 0.000, 14:03:58.291
28, -1307.85, -1328.09, -1353.52, -1181.87, 0.000, 0.000, 0.000, 14:03:58.291
29, -1371.54, -1405.74, -1481.68, -1236.28, 0.000, 0.000, 0.000, 14:03:58.336
30, -1873.01, -1956.25, -1877.04, -1581.15, 0.000, 0.000, 0.000, 14:03:58.337
31, -1747.57, -1784.98, -1706.90, -1477.37, 0.000, 0.000, 0.000, 14:03:58.352
32, -1302.44, -1330.17, -1391.54, -1172.55, 0.000, 0.000, 0.000, 14:03:58.353
33, -1372.70, -1448.99, -1491.34, -1236.42, 0.000, 0.000, 0.000, 14:03:58.353
34, -1882.01, -2006.88, -1837.84, -1593.52, 0.000, 0.000, 0.000, 14:03:58.354
35, -1749.80, -1833.89, -1741.62, -1483.55, 0.000, 0.000, 0.000, 14:03:58.354
36, -1305.22, -1388.39, -1375.44, -1175.40, 0.000, 0.000, 0.000, 14:03:58.354
37, -1355.10, -1449.51, -1483.95, -1237.15, 0.000, 0.000, 0.000, 14:03:58.354
38, -1858.94, -2015.45, -1883.87, -1568.15, 0.000, 0.000, 0.000, 14:03:58.354
39, -1718.14, -1822.29, -1734.56, -1478.96, 0.000, 0.000, 0.000, 14:03:58.355
40, -1264.17, -1342.05, -1381.90, -1168.44, 0.000, 0.000, 0.000, 14:03:58.355
41, -1313.81, -1406.39, -1451.52, -1227.49, 0.000, 0.000, 0.000, 14:03:58.355
42, -1786.24, -1989.13, -1817.44, -1580.47, 0.000, 0.000, 0.000, 14:03:58.355
43, -1617.20, -1884.34, -1678.72, -1451.91, 0.000, 0.000, 0.000, 14:03:58.367
44, -1134.52, -1406.80, -1336.53, -1146.70, 0.000, 0.000, 0.000, 14:03:58.367
45, -1157.46, -1532.11, -1479.24, -1209.71, 0.000, 0.000, 0.000, 14:03:58.381
46, -1634.23, -2049.84, -1897.37, -1553.82, 0.000, 0.000, 0.000, 14:03:58.381
47, -1473.51, -1919.08, -1689.77, -1449.42, 0.000, 0.000, 0.000, 14:03:58.382
48, -1033.61, -1481.87, -1366.71, -1152.07, 0.000, 0.000, 0.000, 14:03:58.382
49, -1132.80, -1580.15, -1483.08, -1214.62, 0.000, 0.000, 0.000, 14:03:58.411
50, -1685.19, -2063.91, -1812.39, -1565.85, 0.000, 0.000, 0.000, 14:03:58.412
51, -1583.92, -1907.80, -1701.71, -1457.99, 0.000, 0.000, 0.000, 14:03:58.412
52, -1187.51, -1436.69, -1376.24, -1158.50, 0.000, 0.000, 0.000, 14:03:58.413
53, -1330.02, -1498.30, -1448.55, -1238.08, 0.000, 0.000, 0.000, 14:03:58.413
54, -1875.94, -1980.64, -1845.37, -1582.40, 0.000, 0.000, 0.000, 14:03:58.413
55, -1758.02, -1787.40, -1721.83, -1480.13, 0.000, 0.000, 0.000, 14:03:58.441
56, -1345.33, -1314.07, -1370.23, -1168.90, 0.000, 0.000, 0.000, 14:03:58.441
57, -1454.46, -1388.34, -1450.70, -1252.12, 0.000, 0.000, 0.000, 14:03:58.442
58, -1980.42, -1954.25, -1917.63, -1597.74, 0.000, 0.000, 0.000, 14:03:58.442
59, -1840.60, -1777.09, -1714.33, -1484.25, 0.000, 0.000, 0.000, 14:03:58.442
60, -1410.94, -1267.49, -1372.25, -1180.12, 0.000, 0.000, 0.000, 14:03:58.442
61, -1504.57, -1427.17, -1515.33, -1261.79, 0.000, 0.000, 0.000, 14:03:58.456
62, -2006.27, -1942.45, -1929.36, -1599.13, 0.000, 0.000, 0.000, 14:03:58.456
63, -1839.93, -1740.15, -1702.33, -1471.68, 0.000, 0.000, 0.000, 14:03:58.502
64, -1399.69, -1268.19, -1367.47, -1176.62, 0.000, 0.000, 0.000, 14:03:58.502
65, -1502.14, -1411.64, -1486.89, -1255.78, 0.000, 0.000, 0.000, 14:03:58.503
66, -1986.75, -1926.32, -1879.79, -1593.23, 0.000, 0.000, 0.000, 14:03:58.503
67, -1828.02, -1732.63, -1700.57, -1464.48, 0.000, 0.000, 0.000, 14:03:58.503
68, -1373.92, -1268.19, -1336.43, -1158.03, 0.000, 0.000, 0.000, 14:03:58.503
69, -1475.62, -1426.01, -1477.27, -1251.94, 0.000, 0.000, 0.000, 14:03:58.504
70, -1976.06, -1930.88, -1913.81, -1594.65, 0.000, 0.000, 0.000, 14:03:58.505
71, -1806.67, -1748.20, -1666.27, -1464.94, 0.000, 0.000, 0.000, 14:03:58.516
72, -1349.16, -1258.63, -1341.94, -1159.69, 0.000, 0.000, 0.000, 14:03:58.516
73, -1447.89, -1404.08, -1496.85, -1252.45, 0.000, 0.000, 0.000, 14:03:58.562
74, -1950.46, -1891.65, -1864.88, -1586.03, 0.000, 0.000, 0.000, 14:03:58.562
75, -1785.32, -1727.39, -1714.59, -1455.72, 0.000, 0.000, 0.000, 14:03:58.562
76, -1335.27, -1284.52, -1351.35, -1157.51, 0.000, 0.000, 0.000, 14:03:58.562
77, -1441.80, -1448.91, -1498.50, -1256.56, 0.000, 0.000, 0.000, 14:03:58.563
78, -1939.77, -1957.82, -1893.40, -1593.75, 0.000, 0.000, 0.000, 14:03:58.563
79, -1759.84, -1768.40, -1727.86, -1470.45, 0.000, 0.000, 0.000, 14:03:58.563
80, -1315.80, -1312.27, -1339.78, -1156.83, 0.000, 0.000, 0.000, 14:03:58.564
81, -1426.39, -1450.39, -1490.69, -1265.58, 0.000, 0.000, 0.000, 14:03:58.566
82, -1927.07, -1975.33, -1874.83, -1592.83, 0.000, 0.000, 0.000, 14:03:58.566
83, -1758.18, -1755.63, -1696.03, -1467.02, 0.000, 0.000, 0.000, 14:03:58.566
84, -1310.28, -1312.72, -1338.80, -1159.17, 0.000, 0.000, 0.000, 14:03:58.566
85, -1429.69, -1450.29, -1480.56, -1256.83, 0.000, 0.000, 0.000, 14:03:58.576
86, -1910.00, -1944.14, -1885.10, -1588.26, 0.000, 0.000, 0.000, 14:03:58.576
87, -1732.76, -1808.71, -1696.85, -1460.21, 0.000, 0.000, 0.000, 14:03:58.591
88, -1301.34, -1334.99, -1347.86, -1164.88, 0.000, 0.000, 0.000, 14:03:58.591
89, -1431.80, -1457.09, -1519.99, -1267.30, 0.000, 0.000, 0.000, 14:03:58.591
90, -1909.30, -1952.34, -1888.86, -1596.55, 0.000, 0.000, 0.000, 14:03:58.592
91, -1734.15, -1780.18, -1696.06, -1463.73, 0.000, 0.000, 0.000, 14:03:58.636
92, -1277.75, -1310.28, -1319.42, -1156.72, 0.000, 0.000, 0.000, 14:03:58.636
93, -1419.24, -1475.68, -1462.04, -1258.74, 0.000, 0.000, 0.000, 14:03:58.636
94, -1905.81, -1972.35, -1924.20, -1599.06, 0.000, 0.000, 0.000, 14:03:58.637
95, -1731.15, -1770.30, -1727.74, -1461.41, 0.000, 0.000, 0.000, 14:03:58.637
96, -1283.24, -1310.59, -1356.61, -1145.59, 0.000, 0.000, 0.000, 14:03:58.637
97, -1423.61, -1455.21, -1503.43, -1268.82, 0.000, 0.000, 0.000, 14:03:58.638
98, -1902.16, -1963.47, -1868.58, -1592.59, 0.000, 0.000, 0.000, 14:03:58.638
99, -1723.51, -1749.98, -1681.54, -1449.97, 0.000, 0.000, 0.000, 14:03:58.639
100, -1267.67, -1295.88, -1319.74, -1151.35, 0.000, 0.000, 0.000, 14:03:58.639
101, -1418.46, -1489.12, -1482.52, -1270.00, 0.000, 0.000, 0.000, 14:03:58.651
102, -1890.30, -1950.03, -1876.29, -1593.14, 0.000, 0.000, 0.000, 14:03:58.651
103, -1721.04, -1764.42, -1680.45, -1447.92, 0.000, 0.000, 0.000, 14:03:58.666
104, -1268.72, -1306.40, -1306.23, -1149.00, 0.000, 0.000, 0.000, 14:03:58.666
105, -1426.78, -1473.37, -1492.16, -1271.34, 0.000, 0.000, 0.000, 14:03:58.697
106, -1894.77, -1959.25, -1873.70, -1590.91, 0.000, 0.000, 0.000, 14:03:58.697
107, -1706.23, -1750.77, -1672.52, -1454.79, 0.000, 0.000, 0.000, 14:03:58.698
108, -1264.30, -1303.75, -1320.36, -1149.76, 0.000, 0.000, 0.000, 14:03:58.698
109, -1428.31, -1487.79, -1507.82, -1274.15, 0.000, 0.000, 0.000, 14:03:58.698
110, -1906.48, -1964.68, -1884.32, -1592.47, 0.000, 0.000, 0.000, 14:03:58.698
111, -1721.56, -1780.90, -1706.64, -1457.97, 0.000, 0.000, 0.000, 14:03:58.699
112, -1271.34, -1293.57, -1339.61, -1138.18, 0.000, 0.000, 0.000, 14:03:58.699
113, -1446.65, -1531.79, -1527.70, -1291.16, 0.000, 0.000, 0.000, 14:03:58.711
114, -1943.98, -1985.16, -1886.06, -1612.74, 0.000, 0.000, 0.000, 14:03:58.711
115, -1706.18, -1739.05, -1668.15, -1451.10, 0.000, 0.000, 0.000, 14:03:58.726
116, -1256.71, -1272.13, -1311.09, -1143.40, 0.000, 0.000, 0.000, 14:03:58.726
117, -1436.38, -1487.92, -1499.12, -1297.90, 0.000, 0.000, 0.000, 14:03:58.756
118, -1907.30, -1973.00, -1862.89, -1615.68, 0.000, 0.000, 0.000, 14:03:58.756
119, -1696.55, -1764.97, -1644.26, -1462.92, 0.000, 0.000, 0.000, 14:03:58.756
120, -1257.24, -1284.12, -1290.06, -1160.70, 0.000, 0.000, 0.000, 14:03:58.756
121, -1446.36, -1508.15, -1485.75, -1305.66, 0.000, 0.000, 0.000, 14:03:58.771
122, -1910.19, -1976.53, -1892.82, -1609.25, 0.000, 0.000, 0.000, 14:03:58.771
123, -1705.51, -1739.92, -1676.89, -1462.97, 0.000, 0.000, 0.000, 14:03:58.772
124, -1270.34, -1293.39, -1355.18, -1160.04, 0.000, 0.000, 0.000, 14:03:58.772
125, -1455.32, -1470.58, -1512.50, -1293.76, 0.000, 0.000, 0.000, 14:03:58.773
126, -1902.49, -1974.93, -1868.13, -1601.20, 0.000, 0.000, 0.000, 14:03:58.773
127, -1706.39, -1747.18, -1692.45, -1449.97, 0.000, 0.000, 0.000, 14:03:58.786
128, -1263.97, -1282.13, -1279.43, -1151.53, 0.000, 0.000, 0.000, 14:03:58.786
129, -1450.78, -1508.70, -1529.50, -1298.34, 0.000, 0.000, 0.000, 14:03:58.801
130, -1900.16, -1946.33, -1851.73, -1598.56, 0.000, 0.000, 0.000, 14:03:58.801
131, -1705.26, -1719.15, -1658.90, -1450.25, 0.000, 0.000, 0.000, 14:03:58.802
132, -1255.19, -1311.56, -1343.16, -1149.43, 0.000, 0.000, 0.000, 14:03:58.802
133, -1448.42, -1495.22, -1495.42, -1295.07, 0.000, 0.000, 0.000, 14:03:58.816
134, -1896.37, -1927.96, -1871.20, -1596.54, 0.000, 0.000, 0.000, 14:03:58.817
135, -1694.35, -1759.18, -1632.10, -1444.33, 0.000, 0.000, 0.000, 14:03:58.846
136, -1266.00, -1319.39, -1331.11, -1147.00, 0.000, 0.000, 0.000, 14:03:58.847
137, -1463.72, -1553.63, -1502.88, -1299.82, 0.000, 0.000, 0.000, 14:03:58.847
138, -1899.86, -1972.39, -1858.84, -1589.80, 0.000, 0.000, 0.000, 14:03:58.849
139, -1695.26, -1763.71, -1671.09, -1438.88, 0.000, 0.000, 0.000, 14:03:58.849
140, -1257.79, -1298.40, -1351.33, -1145.26, 0.000, 0.000, 0.000, 14:03:58.849
141, -1459.43, -1525.53, -1543.87, -1302.23, 0.000, 0.000, 0.000, 14:03:58.849
142, -1889.29, -1984.86, -1918.01, -1588.55, 0.000, 0.000, 0.000, 14:03:58.849
143, -1689.65, -1763.60, -1698.38, -1437.39, 0.000, 0.000, 0.000, 14:03:58.861
144, -1248.06, -1271.02, -1328.00, -1150.15, 0.000, 0.000, 0.000, 14:03:58.862
145, -1461.60, -1526.42, -1529.83, -1301.63, 0.000, 0.000, 0.000, 14:03:58.906
146, -1891.06, -1974.74, -1866.86, -1582.84, 0.000, 0.000, 0.000, 14:03:58.906
147, -1684.57, -1754.47, -1679.98, -1433.71, 0.000, 0.000, 0.000, 14:03:58.906
148, -1256.70, -1266.31, -1330.58, -1139.74, 0.000, 0.000, 0.000, 14:03:58.906
149, -1463.81, -1530.63, -1544.15, -1304.13, 0.000, 0.000, 0.000, 14:03:58.907
150, -1888.85, -1978.28, -1871.73, -1591.66, 0.000, 0.000, 0.000, 14:03:58.907
151, -1682.45, -1762.01, -1666.31, -1438.45, 0.000, 0.000, 0.000, 14:03:58.908
152, -1245.50, -1264.96, -1282.81, -1139.92, 0.000, 0.000, 0.000, 14:03:58.908
153, -1471.81, -1527.45, -1564.24, -1309.60, 0.000, 0.000, 0.000, 14:03:58.909
154, -1898.42, -1964.89, -1862.88, -1591.76, 0.000, 0.000, 0.000, 14:03:58.909
155, -1685.80, -1752.35, -1667.27, -1440.79, 0.000, 0.000, 0.000, 14:03:58.921
156, -1250.52, -1298.58, -1322.20, -1150.14, 0.000, 0.000, 0.000, 14:03:58.921
157, -1476.63, -1527.04, -1555.06, -1308.72, 0.000, 0.000, 0.000, 14:03:58.937
158, -1905.06, -1956.54, -1881.93, -1596.92, 0.000, 0.000, 0.000, 14:03:58.937
159, -1681.41, -1731.22, -1650.92, -1430.57, 0.000, 0.000, 0.000, 14:03:58.952
160, -1254.30, -1314.89, -1353.85, -1137.43, 0.000, 0.000, 0.000, 14:03:58.952
161, -1479.82, -1576.46, -1565.81, -1312.61, 0.000, 0.000, 0.000, 14:03:58.966
162, -1887.57, -1981.69, -1883.49, -1594.04, 0.000, 0.000, 0.000, 14:03:58.966
163, -1673.00, -1738.69, -1658.42, -1432.99, 0.000, 0.000, 0.000, 14:03:58.967
164, -1238.75, -1288.57, -1332.30, -1134.26, 0.000, 0.000, 0.000, 14:03:58.968
165, -1485.98, -1547.27, -1520.85, -1316.33, 0.000, 0.000, 0.000, 14:03:58.980
166, -1902.14, -1983.22, -1882.54, -1593.38, 0.000, 0.000, 0.000, 14:03:58.981
167, -1690.92, -1740.53, -1648.05, -1434.74, 0.000, 0.000, 0.000, 14:03:58.989
168, -1253.98, -1312.55, -1333.92, -1142.78, 0.000, 0.000, 0.000, 14:03:58.989
169, -1488.64, -1545.37, -1564.81, -1323.37, 0.000, 0.000, 0.000, 14:03:58.996
170, -1902.66, -2014.81, -1880.23, -1598.85, 0.000, 0.000, 0.000, 14:03:58.996
171, -1675.11, -1756.21, -1664.32, -1436.62, 0.000, 0.000, 0.000, 14:03:59.011
172, -1228.87, -1371.97, -1306.18, -1120.42, 0.000, 0.000, 0.000, 14:03:59.011
173, -1479.09, -1583.40, -1565.11, -1333.20, 0.000, 0.000, 0.000, 14:03:59.011
174, -1866.84, -2025.79, -1880.70, -1582.38, 0.000, 0.000, 0.000, 14:03:59.011
175, -1609.48, -1733.66, -1674.59, -1434.58, 0.000, 0.000, 0.000, 14:03:59.042
176, -1156.45, -1317.79, -1304.30, -1129.52, 0.000, 0.000, 0.000, 14:03:59.042
177, -1349.50, -1635.76, -1546.62, -1301.33, 0.000, 0.000, 0.000, 14:03:59.042
178, -1719.37, -2035.61, -1887.28, -1560.67, 0.000, 0.000, 0.000, 14:03:59.042
179, -1436.51, -1816.99, -1638.06, -1392.66, 0.000, 0.000, 0.000, 14:03:59.043
180, -968.70, -1402.69, -1303.78, -1103.79, 0.000, 0.000, 0.000, 14:03:59.043
181, -1192.94, -1736.35, -1536.15, -1300.05, 0.000, 0.000, 0.000, 14:03:59.056
182, -1610.13, -2142.25, -1890.04, -1568.03, 0.000, 0.000, 0.000, 14:03:59.056
183, -1416.20, -1914.38, -1635.17, -1400.84, 0.000, 0.000, 0.000, 14:03:59.071
184, -1004.74, -1430.38, -1307.85, -1106.35, 0.000, 0.000, 0.000, 14:03:59.071
185, -1318.75, -1680.22, -1570.84, -1314.18, 0.000, 0.000, 0.000, 14:03:59.072
186, -1759.17, -2081.51, -1858.53, -1582.06, 0.000, 0.000, 0.000, 14:03:59.072
187, -1586.08, -1807.57, -1647.74, -1417.09, 0.000, 0.000, 0.000, 14:03:59.101
188, -1195.80, -1327.37, -1322.17, -1122.37, 0.000, 0.000, 0.000, 14:03:59.101
189, -1500.68, -1606.44, -1588.74, -1328.93, 0.000, 0.000, 0.000, 14:03:59.101
190, -1921.93, -1982.78, -1886.34, -1592.83, 0.000, 0.000, 0.000, 14:03:59.101
191, -1716.55, -1713.22, -1666.09, -1431.00, 0.000, 0.000, 0.000, 14:03:59.102
192, -1300.75, -1260.58, -1338.22, -1127.26, 0.000, 0.000, 0.000, 14:03:59.102
193, -1590.64, -1545.93, -1565.89, -1340.84, 0.000, 0.000, 0.000, 14:03:59.116
194, -1987.90, -1932.45, -1905.34, -1605.74, 0.000, 0.000, 0.000, 14:03:59.116
195, -1763.20, -1684.19, -1671.57, -1428.25, 0.000, 0.000, 0.000, 14:03:59.131
196, -1332.41, -1241.50, -1333.51, -1135.14, 0.000, 0.000, 0.000, 14:03:59.131
197, -1624.00, -1558.52, -1595.94, -1346.75, 0.000, 0.000, 0.000, 14:03:59.132
198, -2001.83, -1933.77, -1873.98, -1592.81, 0.000, 0.000, 0.000, 14:03:59.133
199, -1760.68, -1681.00, -1659.89, -1420.60, 0.000, 0.000, 0.000, 14:03:59.146
200, -1326.37, -1243.63, -1330.16, -1132.03, 0.000, 0.000, 0.000, 14:03:59.146
0, -1606.48, -1536.87, -1607.25, -1343.33, 0.000, 0.000, 0.000, 14:03:59.147
1, -1989.22, -1909.77, -1895.12, -1600.65, 0.000, 0.000, 0.000, 14:03:59.162
2, -1750.52, -1687.89, -1653.48, -1423.88, 0.000, 0.000, 0.000, 14:03:59.162
3, -1322.15, -1195.18, -1315.54, -1136.86, 0.000, 0.000, 0.000, 14:03:59.191
4, -1591.16, -1524.49, -1589.79, -1337.03, 0.000, 0.000, 0.000, 14:03:59.191
5, -1965.28, -1942.56, -1869.40, -1584.26, 0.000, 0.000, 0.000, 14:03:59.192
6, -1721.93, -1673.74, -1649.26, -1415.69, 0.000, 0.000, 0.000, 14:03:59.192
7, -1294.44, -1234.61, -1313.15, -1129.76, 0.000, 0.000, 0.000, 14:03:59.193
8, -1583.86, -1552.74, -1594.09, -1342.67, 0.000, 0.000, 0.000, 14:03:59.193
9, -1947.71, -1964.60, -1849.15, -1583.68, 0.000, 0.000, 0.000, 14:03:59.195
10, -1707.46, -1696.99, -1631.25, -1411.85, 0.000, 0.000, 0.000, 14:03:59.195
11, -1287.75, -1232.64, -1318.39, -1130.93, 0.000, 0.000, 0.000, 14:03:59.206
12, -1571.74, -1574.13, -1606.40, -1347.61, 0.000, 0.000, 0.000, 14:03:59.206
13, -1927.91, -1977.80, -1863.69, -1585.35, 0.000, 0.000, 0.000, 14:03:59.221
14, -1687.41, -1702.78, -1623.55, -1404.76, 0.000, 0.000, 0.000, 14:03:59.221
15, -1270.05, -1245.71, -1332.15, -1135.36, 0.000, 0.000, 0.000, 14:03:59.252
16, -1566.37, -1595.07, -1557.73, -1352.13, 0.000, 0.000, 0.000, 14:03:59.252
17, -1922.73, -1946.81, -1896.18, -1586.42, 0.000, 0.000, 0.000, 14:03:59.252
18, -1667.20, -1703.88, -1636.29, -1404.63, 0.000, 0.000, 0.000, 14:03:59.252
19, -1247.69, -1218.65, -1310.21, -1125.21, 0.000, 0.000, 0.000, 14:03:59.253
20, -1549.64, -1542.46, -1614.96, -1345.96, 0.000, 0.000, 0.000, 14:03:59.253
21, -1907.13, -1943.03, -1885.08, -1587.42, 0.000, 0.000, 0.000, 14:03:59.253
22, -1664.71, -1711.57, -1667.63, -1409.53, 0.000, 0.000, 0.000, 14:03:59.253
23, -1243.55, -1255.80, -1283.31, -1117.50, 0.000, 0.000, 0.000, 14:03:59.266
24, -1551.47, -1591.38, -1610.77, -1353.40, 0.000, 0.000, 0.000, 14:03:59.266
25, -1910.61, -1981.37, -1881.81, -1591.00, 0.000, 0.000, 0.000, 14:03:59.281
26, -1666.45, -1688.30, -1629.23, -1415.22, 0.000, 0.000, 0.000, 14:03:59.281
27, -1239.89, -1257.09, -1292.18, -1127.43, 0.000, 0.000, 0.000, 14:03:59.311
28, -1548.04, -1602.28, -1594.14, -1351.58, 0.000, 0.000, 0.000, 14:03:59.311
29, -1910.36, -1934.42, -1856.02, -1593.07, 0.000, 0.000, 0.000, 14:03:59.312
30, -1644.02, -1680.45, -1622.55, -1406.00, 0.000, 0.000, 0.000, 14:03:59.313
31, -1232.84, -1233.02, -1312.65, -1119.03, 0.000, 0.000, 0.000, 14:03:59.313
32, -1554.33, -1586.42, -1601.51, -1358.10, 0.000, 0.000, 0.000, 14:03:59.313
33, -1906.17, -1949.04, -1904.74, -1599.03, 0.000, 0.000, 0.000, 14:03:59.326
34, -1647.91, -1684.22, -1630.65, -1405.41, 0.000, 0.000, 0.000, 14:03:59.326
35, -1232.96, -1273.03, -1312.95, -1128.55, 0.000, 0.000, 0.000, 14:03:59.327
36, -1548.44, -1583.08, -1623.56, -1364.50, 0.000, 0.000, 0.000, 14:03:59.327
37, -1905.22, -1933.59, -1878.89, -1583.37, 0.000, 0.000, 0.000, 14:03:59.341
38, -1654.36, -1725.16, -1613.02, -1406.17, 0.000, 0.000, 0.000, 14:03:59.341
39, -1231.27, -1286.29, -1296.97, -1121.98, 0.000, 0.000, 0.000, 14:03:59.355
40, -1554.33, -1636.78, -1624.18, -1363.26, 0.000, 0.000, 0.000, 14:03:59.356
41, -1910.70, -2025.05, -1871.08, -1594.61, 0.000, 0.000, 0.000, 14:03:59.370
42, -1645.55, -1712.33, -1640.88, -1403.73, 0.000, 0.000, 0.000, 14:03:59.371
43, -1231.65, -1266.17, -1285.55, -1117.70, 0.000, 0.000, 0.000, 14:03:59.401
44, -1566.58, -1645.66, -1644.40, -1368.86, 0.000, 0.000, 0.000, 14:03:59.402
45, -1902.25, -1990.05, -1878.62, -1591.14, 0.000, 0.000, 0.000, 14:03:59.402
46, -1640.00, -1694.92, -1649.07, -1398.00, 0.000, 0.000, 0.000, 14:03:59.402
47, -1216.85, -1237.39, -1306.86, -1112.73, 0.000, 0.000, 0.000, 14:03:59.402
48, -1557.48, -1657.21, -1629.60, -1369.84, 0.000, 0.000, 0.000, 14:03:59.402
49, -1888.57, -1978.81, -1870.19, -1597.38, 0.000, 0.000, 0.000, 14:03:59.403
50, -1627.19, -1658.32, -1579.53, -1394.98, 0.000, 0.000, 0.000, 14:03:59.403
51, -1219.21, -1262.52, -1286.72, -1116.85, 0.000, 0.000, 0.000, 14:03:59.404
52, -1559.28, -1641.56, -1608.01, -1372.60, 0.000, 0.000, 0.000, 14:03:59.404
53, -1893.05, -1959.56, -1874.33, -1603.33, 0.000, 0.000, 0.000, 14:03:59.416
54, -1627.53, -1688.24, -1601.51, -1396.20, 0.000, 0.000, 0.000, 14:03:59.416
55, -1218.20, -1259.55, -1306.08, -1124.34, 0.000, 0.000, 0.000, 14:03:59.461
56, -1567.11, -1614.55, -1651.94, -1379.63, 0.000, 0.000, 0.000, 14:03:59.461
57, -1891.98, -1987.38, -1865.46, -1591.45, 0.000, 0.000, 0.000, 14:03:59.462
58, -1637.45, -1699.31, -1639.71, -1404.56, 0.000, 0.000, 0.000, 14:03:59.462
59, -1215.20, -1246.07, -1285.97, -1125.80, 0.000, 0.000, 0.000, 14:03:59.462
60, -1575.41, -1629.47, -1627.14, -1379.56, 0.000, 0.000, 0.000, 14:03:59.462
61, -1904.14, -1968.98, -1863.39, -1591.01, 0.000, 0.000, 0.000, 14:03:59.463
62, -1630.27, -1694.12, -1616.99, -1407.04, 0.000, 0.000, 0.000, 14:03:59.463
63, -1210.19, -1248.06, -1254.94, -1109.87, 0.000, 0.000, 0.000, 14:03:59.464
64, -1564.57, -1636.37, -1622.90, -1376.61, 0.000, 0.000, 0.000, 14:03:59.464
65, -1897.78, -1953.55, -1911.74, -1586.49, 0.000, 0.000, 0.000, 14:03:59.476
66, -1614.34, -1670.42, -1595.28, -1392.68, 0.000, 0.000, 0.000, 14:03:59.476
67, -1203.05, -1232.47, -1257.16, -1109.47, 0.000, 0.000, 0.000, 14:03:59.491
68, -1580.45, -1637.66, -1674.32, -1384.04, 0.000, 0.000, 0.000, 14:03:59.491
69, -1897.57, -1965.55, -1834.08, -1597.61, 0.000, 0.000, 0.000, 14:03:59.521
70, -1626.00, -1683.72, -1600.78, -1386.52, 0.000, 0.000, 0.000, 14:03:59.521
71, -1204.37, -1248.26, -1268.37, -1107.48, 0.000, 0.000, 0.000, 14:03:59.521
72, -1577.36, -1620.52, -1600.85, -1387.55, 0.000, 0.000, 0.000, 14:03:59.521
73, -1888.70, -1964.91, -1888.07, -1582.45, 0.000, 0.000, 0.000, 14:03:59.522
74, -1605.51, -1641.11, -1609.31, -1381.55, 0.000, 0.000, 0.000, 14:03:59.522
75, -1207.80, -1258.61, -1307.90, -1105.33, 0.000, 0.000, 0.000, 14:03:59.523
76, -1605.77, -1637.35, -1702.60, -1396.49, 0.000, 0.000, 0.000, 14:03:59.523
77, -1913.20, -2001.32, -1898.68, -1600.96, 0.000, 0.000, 0.000, 14:03:59.536
78, -1620.44, -1657.86, -1632.80, -1396.23, 0.000, 0.000, 0.000, 14:03:59.536
79, -1205.44, -1240.53, -1302.75, -1110.55, 0.000, 0.000, 0.000, 14:03:59.552
80, -1598.64, -1685.78, -1635.67, -1383.87, 0.000, 0.000, 0.000, 14:03:59.555
81, -1901.06, -1996.56, -1887.44, -1582.79, 0.000, 0.000, 0.000, 14:03:59.567
82, -1610.43, -1685.52, -1580.67, -1393.61, 0.000, 0.000, 0.000, 14:03:59.567
83, -1216.73, -1244.91, -1297.29, -1111.62, 0.000, 0.000, 0.000, 14:03:59.567
84, -1600.30, -1665.33, -1688.03, -1397.31, 0.000, 0.000, 0.000, 14:03:59.567
85, -1919.39, -1994.76, -1888.40, -1611.29, 0.000, 0.000, 0.000, 14:03:59.596
86, -1625.77, -1614.80, -1609.00, -1382.15, 0.000, 0.000, 0.000, 14:03:59.596
87, -1204.95, -1250.72, -1283.14, -1115.76, 0.000, 0.000, 0.000, 14:03:59.598
88, -1598.37, -1691.99, -1630.67, -1397.95, 0.000, 0.000, 0.000, 14:03:59.598
89, -1894.83, -1924.69, -1856.97, -1591.62, 0.000, 0.000, 0.000, 14:03:59.611
90, -1605.29, -1638.35, -1581.75, -1371.69, 0.000, 0.000, 0.000, 14:03:59.611
91, -1210.62, -1228.36, -1287.87, -1114.45, 0.000, 0.000, 0.000, 14:03:59.612
92, -1598.14, -1627.80, -1664.78, -1401.61, 0.000, 0.000, 0.000, 14:03:59.612
93, -1902.71, -1958.15, -1890.34, -1595.22, 0.000, 0.000, 0.000, 14:03:59.626
94, -1604.45, -1684.60, -1589.24, -1385.80, 0.000, 0.000, 0.000, 14:03:59.626
95, -1227.75, -1279.09, -1333.47, -1120.06, 0.000, 0.000, 0.000, 14:03:59.626
96, -1601.72, -1685.90, -1690.07, -1402.60, 0.000, 0.000, 0.000, 14:03:59.626
97, -1900.33, -1928.65, -1835.61, -1599.74, 0.000, 0.000, 0.000, 14:03:59.656
98, -1610.93, -1642.84, -1594.26, -1397.08, 0.000, 0.000, 0.000, 14:03:59.656
99, -1226.54, -1261.30, -1299.29, -1124.57, 0.000, 0.000, 0.000, 14:03:59.671
100, -1590.78, -1673.78, -1664.04, -1374.43, 0.000, 0.000, 0.000, 14:03:59.671
101, -1902.53, -2005.72, -1888.87, -1583.75, 0.000, 0.000, 0.000, 14:03:59.672
102, -1580.81, -1643.09, -1616.91, -1345.81, 0.000, 0.000, 0.000, 14:03:59.672
103, -1210.52, -1282.82, -1320.54, -1083.81, 0.000, 0.000, 0.000, 14:03:59.673
104, -1618.42, -1690.48, -1703.74, -1391.48, 0.000, 0.000, 0.000, 14:03:59.673
105, -1891.12, -1975.20, -1876.95, -1568.35, 0.000, 0.000, 0.000, 14:03:59.673
106, -1616.00, -1691.16, -1619.63, -1374.36, 0.000, 0.000, 0.000, 14:03:59.673
107, -1227.17, -1318.47, -1307.03, -1130.05, 0.000, 0.000, 0.000, 14:03:59.686
108, -1577.84, -1668.58, -1663.47, -1370.50, 0.000, 0.000, 0.000, 14:03:59.686
109, -1874.23, -1959.70, -1861.29, -1563.90, 0.000, 0.000, 0.000, 14:03:59.701
110, -1591.56, -1651.45, -1597.15, -1367.74, 0.000, 0.000, 0.000, 14:03:59.701
111, -1200.26, -1243.20, -1294.70, -1104.90, 0.000, 0.000, 0.000, 14:03:59.746
112, -1632.16, -1744.46, -1670.45, -1419.39, 0.000, 0.000, 0.000, 14:03:59.746
113, -1900.98, -1992.09, -1905.95, -1595.63, 0.000, 0.000, 0.000, 14:03:59.747
114, -1592.70, -1703.98, -1577.48, -1379.89, 0.000, 0.000, 0.000, 14:03:59.747
115, -1204.14, -1250.44, -1288.95, -1118.47, 0.000, 0.000, 0.000, 14:03:59.748
116, -1621.15, -1666.41, -1691.85, -1416.98, 0.000, 0.000, 0.000, 14:03:59.748
117, -1890.98, -1987.60, -1875.07, -1580.01, 0.000, 0.000, 0.000, 14:03:59.748
118, -1585.50, -1626.11, -1559.50, -1365.23, 0.000, 0.000, 0.000, 14:03:59.748
119, -1209.33, -1270.17, -1316.28, -1104.88, 0.000, 0.000, 0.000, 14:03:59.749
120, -1625.28, -1700.87, -1664.34, -1410.49, 0.000, 0.000, 0.000, 14:03:59.749
121, -1880.98, -1939.18, -1843.85, -1586.95, 0.000, 0.000, 0.000, 14:03:59.761
122, -1582.52, -1646.95, -1551.30, -1360.70, 0.000, 0.000, 0.000, 14:03:59.761
123, -1212.11, -1261.06, -1331.98, -1114.33, 0.000, 0.000, 0.000, 14:03:59.776
124, -1635.11, -1703.78, -1693.33, -1415.34, 0.000, 0.000, 0.000, 14:03:59.776
125, -1899.07, -1971.64, -1844.47, -1591.05, 0.000, 0.000, 0.000, 14:03:59.777
126, -1586.74, -1665.76, -1582.80, -1375.26, 0.000, 0.000, 0.000, 14:03:59.777
127, -1212.92, -1233.78, -1301.00, -1125.91, 0.000, 0.000, 0.000, 14:03:59.806
128, -1650.27, -1734.84, -1694.35, -1436.73, 0.000, 0.000, 0.000, 14:03:59.806
129, -1894.22, -1977.46, -1861.83, -1588.36, 0.000, 0.000, 0.000, 14:03:59.806
130, -1570.35, -1596.38, -1592.16, -1358.86, 0.000, 0.000, 0.000, 14:03:59.806
131, -1191.48, -1217.13, -1271.27, -1108.01, 0.000, 0.000, 0.000, 14:03:59.807
132, -1633.88, -1680.43, -1693.26, -1428.23, 0.000, 0.000, 0.000, 14:03:59.807
133, -1879.78, -1973.91, -1882.71, -1587.94, 0.000, 0.000, 0.000, 14:03:59.821
134, -1580.14, -1653.77, -1580.77, -1355.97, 0.000, 0.000, 0.000, 14:03:59.821
135, -1199.99, -1203.62, -1300.63, -1117.50, 0.000, 0.000, 0.000, 14:03:59.836
136, -1647.79, -1719.53, -1700.41, -1435.78, 0.000, 0.000, 0.000, 14:03:59.836
137, -1895.79, -1998.22, -1893.84, -1590.30, 0.000, 0.000, 0.000, 14:03:59.836
138, -1567.30, -1638.26, -1588.83, -1363.48, 0.000, 0.000, 0.000, 14:03:59.836
139, -1195.94, -1262.72, -1295.53, -1105.29, 0.000, 0.000, 0.000, 14:03:59.866
140, -1656.62, -1699.71, -1707.10, -1449.40, 0.000, 0.000, 0.000, 14:03:59.866
141, -1911.00, -1996.97, -1886.23, -1602.37, 0.000, 0.000, 0.000, 14:03:59.867
142, -1560.44, -1641.52, -1566.79, -1349.05, 0.000, 0.000, 0.000, 14:03:59.867
143, -1179.15, -1178.47, -1284.11, -1093.07, 0.000, 0.000, 0.000, 14:03:59.868
144, -1624.11, -1683.81, -1685.09, -1413.51, 0.000, 0.000, 0.000, 14:03:59.868
145, -1869.62, -1938.38, -1855.16, -1580.97, 0.000, 0.000, 0.000, 14:03:59.881
146, -1555.41, -1607.28, -1555.47, -1349.93, 0.000, 0.000, 0.000, 14:03:59.881
147, -1203.92, -1264.78, -1297.86, -1110.80, 0.000, 0.000, 0.000, 14:03:59.896
148, -1646.01, -1739.84, -1671.24, -1434.65, 0.000, 0.000, 0.000, 14:03:59.896
149, -1901.35, -2007.24, -1852.99, -1594.47, 0.000, 0.000, 0.000, 14:03:59.904
150, -1569.07, -1644.74, -1567.14, -1371.37, 0.000, 0.000, 0.000, 14:03:59.904
151, -1202.37, -1251.39, -1270.30, -1120.99, 0.000, 0.000, 0.000, 14:03:59.911
152, -1651.66, -1774.43, -1704.07, -1439.95, 0.000, 0.000, 0.000, 14:03:59.911
153, -1892.91, -1990.03, -1838.81, -1587.45, 0.000, 0.000, 0.000, 14:03:59.926
154, -1553.28, -1604.13, -1575.86, -1357.94, 0.000, 0.000, 0.000, 14:03:59.926
155, -1214.11, -1269.56, -1313.66, -1104.27, 0.000, 0.000, 0.000, 14:03:59.926
156, -1665.88, -1746.46, -1695.00, -1432.07, 0.000, 0.000, 0.000, 14:03:59.926
157, -1890.70, -1962.26, -1846.21, -1585.41, 0.000, 0.000, 0.000, 14:03:59.956
158, -1569.14, -1630.49, -1557.13, -1353.94, 0.000, 0.000, 0.000, 14:03:59.956
159, -1172.75, -1214.44, -1293.86, -1099.70, 0.000, 0.000, 0.000, 14:03:59.956
160, -1630.30, -1726.61, -1655.95, -1433.57, 0.000, 0.000, 0.000, 14:03:59.956
161, -1892.35, -1926.66, -1804.52, -1586.51, 0.000, 0.000, 0.000, 14:03:59.957
162, -1552.57, -1612.99, -1572.55, -1348.64, 0.000, 0.000, 0.000, 14:03:59.957
163, -1198.36, -1259.19, -1321.58, -1109.73, 0.000, 0.000, 0.000, 14:03:59.971
164, -1657.58, -1770.30, -1704.67, -1446.45, 0.000, 0.000, 0.000, 14:03:59.971
165, -1882.06, -1998.26, -1888.12, -1590.14, 0.000, 0.000, 0.000, 14:04:00.016
166, -1540.36, -1632.44, -1555.28, -1344.03, 0.000, 0.000, 0.000, 14:04:00.016
167, -1185.92, -1274.74, -1286.66, -1105.43, 0.000, 0.000, 0.000, 14:04:00.017
168, -1662.13, -1787.44, -1741.31, -1443.33, 0.000, 0.000, 0.000, 14:04:00.018
169, -1851.88, -2008.60, -1867.56, -1572.65, 0.000, 0.000, 0.000, 14:04:00.018
170, -1500.89, -1598.56, -1567.88, -1339.79, 0.000, 0.000, 0.000, 14:04:00.018
171, -1135.48, -1284.59, -1314.73, -1108.01, 0.000, 0.000, 0.000, 14:04:00.018
172, -1587.49, -1817.11, -1694.88, -1438.92, 0.000, 0.000, 0.000, 14:04:00.018
173, -1755.87, -2010.62, -1825.47, -1552.64, 0.000, 0.000, 0.000, 14:04:00.019
174, -1412.26, -1708.00, -1587.55, -1326.05, 0.000, 0.000, 0.000, 14:04:00.019
175, -1015.56, -1301.81, -1320.68, -1100.49, 0.000, 0.000, 0.000, 14:04:00.031
176, -1461.98, -1862.26, -1721.88, -1443.40, 0.000, 0.000, 0.000, 14:04:00.031
177, -1619.64, -2073.84, -1875.92, -1550.87, 0.000, 0.000, 0.000, 14:04:00.047
178, -1298.99, -1777.42, -1576.08, -1327.47, 0.000, 0.000, 0.000, 14:04:00.047
179, -940.15, -1416.59, -1321.33, -1093.83, 0.000, 0.000, 0.000, 14:04:00.048
180, -1404.71, -1885.43, -1671.14, -1437.55, 0.000, 0.000, 0.000, 14:04:00.048
181, -1615.23, -2100.92, -1852.11, -1555.55, 0.000, 0.000, 0.000, 14:04:00.076
182, -1324.60, -1745.90, -1535.63, -1314.53, 0.000, 0.000, 0.000, 14:04:00.076
183, -1025.69, -1390.84, -1320.02, -1101.87, 0.000, 0.000, 0.000, 14:04:00.077
184, -1542.13, -1884.14, -1747.58, -1445.14, 0.000, 0.000, 0.000, 14:04:00.077
185, -1786.32, -2028.20, -1865.94, -1570.74, 0.000, 0.000, 0.000, 14:04:00.077
186, -1458.93, -1639.73, -1560.89, -1321.18, 0.000, 0.000, 0.000, 14:04:00.078
187, -1158.16, -1295.01, -1299.42, -1105.76, 0.000, 0.000, 0.000, 14:04:00.091
188, -1676.31, -1742.02, -1743.09, -1464.06, 0.000, 0.000, 0.000, 14:04:00.091
189, -1902.14, -1970.33, -1876.05, -1579.96, 0.000, 0.000, 0.000, 14:04:00.106
190, -1590.22, -1610.56, -1548.02, -1348.97, 0.000, 0.000, 0.000, 14:04:00.106
191, -1271.12, -1217.57, -1300.39, -1114.21, 0.000, 0.000, 0.000, 14:04:00.106
192, -1766.09, -1736.55, -1777.03, -1466.20, 0.000, 0.000, 0.000, 14:04:00.107
193, -1980.17, -1935.40, -1842.82, -1600.72, 0.000, 0.000, 0.000, 14:04:00.121
194, -1630.12, -1478.60, -1508.49, -1339.70, 0.000, 0.000, 0.000, 14:04:00.121
195, -1305.40, -1216.90, -1266.19, -1125.33, 0.000, 0.000, 0.000, 14:04:00.151
196, -1803.28, -1734.23, -1742.46, -1482.83, 0.000, 0.000, 0.000, 14:04:00.151
197, -1989.63, -1854.44, -1851.23, -1582.78, 0.000, 0.000, 0.000, 14:04:00.151
198, -1641.79, -1542.45, -1554.63, -1338.10, 0.000, 0.000, 0.000, 14:04:00.152
199, -1313.93, -1202.01, -1328.66, -1128.16, 0.000, 0.000, 0.000, 14:04:00.152
200, -1799.19, -1690.98, -1741.57, -1468.50, 0.000, 0.000, 0.000, 14:04:00.152
0, -1990.29, -1906.34, -1838.05, -1592.71, 0.000, 0.000, 0.000, 14:04:00.153
1, -1632.88, -1537.84, -1534.59, -1342.15, 0.000, 0.000, 0.000, 14:04:00.166
2, -1300.66, -1236.13, -1284.35, -1128.90, 0.000, 0.000, 0.000, 14:04:00.167
3, -1792.79, -1732.25, -1781.22, -1477.64, 0.000, 0.000, 0.000, 14:04:00.181
4, -1956.40, -1890.30, -1821.08, -1575.82, 0.000, 0.000, 0.000, 14:04:00.181
5, -1607.25, -1472.26, -1572.49, -1327.80, 0.000, 0.000, 0.000, 14:04:00.196
6, -1274.20, -1183.67, -1277.18, -1113.51, 0.000, 0.000, 0.000, 14:04:00.196
7, -1775.88, -1757.01, -1728.39, -1467.09, 0.000, 0.000, 0.000, 14:04:00.211
8, -1945.58, -1882.49, -1839.60, -1582.61, 0.000, 0.000, 0.000, 14:04:00.211
9, -1593.31, -1566.46, -1517.67, -1326.06, 0.000, 0.000, 0.000, 14:04:00.212
10, -1283.10, -1225.74, -1301.63, -1119.50, 0.000, 0.000, 0.000, 14:04:00.212
11, -1769.71, -1724.16, -1706.22, -1475.55, 0.000, 0.000, 0.000, 14:04:00.212
12, -1922.33, -1927.39, -1794.21, -1565.05, 0.000, 0.000, 0.000, 14:04:00.212
13, -1575.09, -1524.06, -1535.90, -1317.16, 0.000, 0.000, 0.000, 14:04:00.226
14, -1261.16, -1243.84, -1308.46, -1128.06, 0.000, 0.000, 0.000, 14:04:00.226
15, -1748.24, -1763.09, -1791.92, -1467.37, 0.000, 0.000, 0.000, 14:04:00.241
16, -1909.51, -1915.30, -1886.33, -1577.23, 0.000, 0.000, 0.000, 14:04:00.241
17, -1540.93, -1538.02, -1558.58, -1308.69, 0.000, 0.000, 0.000, 14:04:00.242
18, -1241.14, -1222.81, -1327.46, -1105.71, 0.000, 0.000, 0.000, 14:04:00.242
19, -1727.24, -1759.26, -1771.92, -1458.94, 0.000, 0.000, 0.000, 14:04:00.256
20, -1883.24, -1902.09, -1838.32, -1565.46, 0.000, 0.000, 0.000, 14:04:00.256
21, -1529.08, -1516.78, -1555.65, -1308.39, 0.000, 0.000, 0.000, 14:04:00.271
22, -1224.47, -1199.98, -1304.84, -1110.56, 0.000, 0.000, 0.000, 14:04:00.271
23, -1725.67, -1757.13, -1744.51, -1474.74, 0.000, 0.000, 0.000, 14:04:00.272
24, -1882.89, -1919.23, -1815.82, -1568.55, 0.000, 0.000, 0.000, 14:04:00.272
25, -1525.16, -1533.38, -1536.26, -1317.11, 0.000, 0.000, 0.000, 14:04:00.286
26, -1228.53, -1231.48, -1329.98, -1120.14, 0.000, 0.000, 0.000, 14:04:00.286
27, -1733.83, -1794.94, -1754.45, -1472.79, 0.000, 0.000, 0.000, 14:04:00.301
28, -1885.25, -1979.09, -1870.90, -1578.67, 0.000, 0.000, 0.000, 14:04:00.301
29, -1507.89, -1527.17, -1498.84, -1311.98, 0.000, 0.000, 0.000, 14:04:00.301
30, -1214.30, -1260.65, -1257.26, -1117.24, 0.000, 0.000, 0.000, 14:04:00.301
31, -1724.06, -1752.81, -1701.61, -1485.88, 0.000, 0.000, 0.000, 14:04:00.323
32, -1872.79, -1944.70, -1849.26, -1565.49, 0.000, 0.000, 0.000, 14:04:00.323
33, -1520.29, -1557.18, -1482.41, -1323.42, 0.000, 0.000, 0.000, 14:04:00.331
34, -1220.01, -1261.89, -1302.87, -1121.86, 0.000, 0.000, 0.000, 14:04:00.331
35, -1726.91, -1806.12, -1722.15, -1487.11, 0.000, 0.000, 0.000, 14:04:00.331
36, -1872.17, -1967.51, -1849.57, -1576.96, 0.000, 0.000, 0.000, 14:04:00.331
37, -1513.77, -1537.84, -1548.56, -1316.95, 0.000, 0.000, 0.000, 14:04:00.361
38, -1223.32, -1269.00, -1309.00, -1124.27, 0.000, 0.000, 0.000, 14:04:00.362
39, -1735.71, -1798.43, -1722.91, -1489.22, 0.000, 0.000, 0.000, 14:04:00.362
40, -1876.68, -1910.61, -1867.82, -1570.15, 0.000, 0.000, 0.000, 14:04:00.362
41, -1502.96, -1552.82, -1549.64, -1311.45, 0.000, 0.000, 0.000, 14:04:00.363
42, -1211.92, -1257.56, -1335.47, -1123.24, 0.000, 0.000, 0.000, 14:04:00.363
43, -1724.41, -1808.08, -1743.38, -1488.51, 0.000, 0.000, 0.000, 14:04:00.376
44, -1862.96, -1923.62, -1875.68, -1566.13, 0.000, 0.000, 0.000, 14:04:00.376
45, -1501.82, -1562.06, -1525.59, -1314.54, 0.000, 0.000, 0.000, 14:04:00.391
46, -1211.27, -1289.32, -1316.61, -1121.31, 0.000, 0.000, 0.000, 14:04:00.391
47, -1729.14, -1798.16, -1707.57, -1481.41, 0.000, 0.000, 0.000, 14:04:00.391
48, -1869.88, -1941.25, -1843.78, -1563.37, 0.000, 0.000, 0.000, 14:04:00.391
49, -1501.94, -1528.78, -1500.51, -1293.91, 0.000, 0.000, 0.000, 14:04:00.406
50, -1217.35, -1292.97, -1322.66, -1121.19, 0.000, 0.000, 0.000, 14:04:00.406
51, -1736.37, -1794.77, -1803.47, -1504.96, 0.000, 0.000, 0.000, 14:04:00.421
52, -1856.61, -1962.85, -1854.06, -1566.41, 0.000, 0.000, 0.000, 14:04:00.421
53, -1495.00, -1556.96, -1545.37, -1315.11, 0.000, 0.000, 0.000, 14:04:00.436
54, -1208.94, -1260.81, -1309.38, -1125.11, 0.000, 0.000, 0.000, 14:04:00.436
55, -1740.35, -1818.38, -1816.17, -1513.15, 0.000, 0.000, 0.000, 14:04:00.437
56, -1880.86, -1974.41, -1834.53, -1582.02, 0.000, 0.000, 0.000, 14:04:00.437
57, -1471.02, -1552.65, -1496.20, -1301.86, 0.000, 0.000, 0.000, 14:04:00.451
58, -1170.76, -1275.08, -1301.66, -1132.53, 0.000, 0.000, 0.000, 14:04:00.451
59, -1675.63, -1830.57, -1769.36, -1488.30, 0.000, 0.000, 0.000, 14:04:00.452
60, -1768.23, -1942.86, -1807.86, -1575.97, 0.000, 0.000, 0.000, 14:04:00.452
61, -1405.66, -1643.34, -1530.02, -1315.46, 0.000, 0.000, 0.000, 14:04:00.466
62, -1103.25, -1323.98, -1301.74, -1128.45, 0.000, 0.000, 0.000, 14:04:00.466
63, -1654.77, -1907.84, -1773.66, -1513.92, 0.000, 0.000, 0.000, 14:04:00.482
64, -1767.69, -1993.81, -1816.55, -1558.89, 0.000, 0.000, 0.000, 14:04:00.482
65, -1407.64, -1593.25, -1494.05, -1293.38, 0.000, 0.000, 0.000, 14:04:00.482
66, -1156.90, -1346.40, -1306.57, -1135.23, 0.000, 0.000, 0.000, 14:04:00.482
67, -1714.57, -1916.10, -1781.94, -1515.23, 0.000, 0.000, 0.000, 14:04:00.496
68, -1826.15, -1995.32, -1840.52, -1563.05, 0.000, 0.000, 0.000, 14:04:00.496
69, -1449.36, -1603.39, -1499.75, -1296.60, 0.000, 0.000, 0.000, 14:04:00.511
70, -1192.79, -1333.39, -1310.63, -1132.23, 0.000, 0.000, 0.000, 14:04:00.512
71, -1739.34, -1897.13, -1816.53, -1502.47, 0.000, 0.000, 0.000, 14:04:00.512
72, -1843.45, -1977.59, -1780.52, -1568.82, 0.000, 0.000, 0.000, 14:04:00.512
73, -1463.21, -1525.04, -1460.25, -1298.26, 0.000, 0.000, 0.000, 14:04:00.556
74, -1209.75, -1274.86, -1323.96, -1135.19, 0.000, 0.000, 0.000, 14:04:00.556
75, -1754.22, -1871.19, -1757.56, -1504.52, 0.000, 0.000, 0.000, 14:04:00.557
76, -1850.09, -1915.06, -1769.87, -1557.86, 0.000, 0.000, 0.000, 14:04:00.557
77, -1469.83, -1535.66, -1532.94, -1293.81, 0.000, 0.000, 0.000, 14:04:00.557
78, -1221.95, -1271.91, -1320.74, -1130.92, 0.000, 0.000, 0.000, 14:04:00.557
79, -1761.81, -1857.62, -1763.38, -1505.24, 0.000, 0.000, 0.000, 14:04:00.558
80, -1854.21, -1952.27, -1840.95, -1556.77, 0.000, 0.000, 0.000, 14:04:00.558
81, -1472.21, -1542.02, -1474.04, -1293.10, 0.000, 0.000, 0.000, 14:04:00.562
82, -1216.52, -1282.15, -1305.20, -1124.20, 0.000, 0.000, 0.000, 14:04:00.562
83, -1761.70, -1857.43, -1807.35, -1504.03, 0.000, 0.000, 0.000, 14:04:00.572
84, -1848.16, -1930.50, -1846.82, -1556.36, 0.000, 0.000, 0.000, 14:04:00.573
85, -1470.67, -1537.41, -1508.52, -1282.13, 0.000, 0.000, 0.000, 14:04:00.586
86, -1211.50, -1269.30, -1337.19, -1125.79, 0.000, 0.000, 0.000, 14:04:00.586
87, -1746.30, -1863.66, -1782.17, -1506.89, 0.000, 0.000, 0.000, 14:04:00.601
88, -1855.41, -1907.51, -1862.23, -1556.01, 0.000, 0.000, 0.000, 14:04:00.601
89, -1461.15, -1548.54, -1450.72, -1282.51, 0.000, 0.000, 0.000, 14:04:00.602
90, -1221.52, -1279.86, -1312.88, -1130.92, 0.000, 0.000, 0.000, 14:04:00.602
91, -1762.15, -1841.59, -1818.18, -1506.95, 0.000, 0.000, 0.000, 14:04:00.616
92, -1838.23, -1907.75, -1847.03, -1555.68, 0.000, 0.000, 0.000, 14:04:00.616
93, -1462.20, -1534.19, -1455.12, -1290.31, 0.000, 0.000, 0.000, 14:04:00.631
94, -1229.20, -1291.29, -1331.69, -1135.02, 0.000, 0.000, 0.000, 14:04:00.631
95, -1763.16, -1872.67, -1815.74, -1517.65, 0.000, 0.000, 0.000, 14:04:00.632
96, -1834.40, -1936.58, -1831.04, -1553.53, 0.000, 0.000, 0.000, 14:04:00.632
97, -1457.26, -1495.52, -1458.04, -1284.76, 0.000, 0.000, 0.000, 14:04:00.647
98, -1223.49, -1253.24, -1331.61, -1129.93, 0.000, 0.000, 0.000, 14:04:00.647
99, -1770.68, -1875.78, -1771.62, -1511.74, 0.000, 0.000, 0.000, 14:04:00.661
100, -1837.55, -1950.97, -1827.63, -1554.01, 0.000, 0.000, 0.000, 14:04:00.661
101, -1462.59, -1535.43, -1492.87, -1290.04, 0.000, 0.000, 0.000, 14:04:00.662
102, -1230.22, -1268.29, -1324.20, -1134.89, 0.000, 0.000, 0.000, 14:04:00.662
103, -1776.02, -1840.06, -1795.60, -1516.84, 0.000, 0.000, 0.000, 14:04:00.676
104, -1842.53, -1926.65, -1803.33, -1545.70, 0.000, 0.000, 0.000, 14:04:00.676
105, -1449.16, -1498.39, -1482.57, -1274.73, 0.000, 0.000, 0.000, 14:04:00.706
106, -1226.32, -1293.66, -1326.92, -1122.01, 0.000, 0.000, 0.000, 14:04:00.706
107, -1793.53, -1888.52, -1781.16, -1531.72, 0.000, 0.000, 0.000, 14:04:00.706
108, -1845.90, -1911.45, -1836.12, -1548.59, 0.000, 0.000, 0.000, 14:04:00.706
109, -1451.88, -1509.87, -1454.67, -1275.89, 0.000, 0.000, 0.000, 14:04:00.707
110, -1225.56, -1302.21, -1337.03, -1133.40, 0.000, 0.000, 0.000, 14:04:00.707
111, -1778.95, -1852.18, -1804.26, -1520.84, 0.000, 0.000, 0.000, 14:04:00.708
112, -1833.06, -1846.98, -1797.84, -1551.30, 0.000, 0.000, 0.000, 14:04:00.708
113, -1446.70, -1468.94, -1468.17, -1267.53, 0.000, 0.000, 0.000, 14:04:00.721
114, -1239.15, -1299.34, -1337.40, -1132.31, 0.000, 0.000, 0.000, 14:04:00.721
115, -1781.23, -1843.43, -1787.85, -1523.81, 0.000, 0.000, 0.000, 14:04:00.736
116, -1836.88, -1899.99, -1797.53, -1560.25, 0.000, 0.000, 0.000, 14:04:00.736
117, -1456.88, -1523.33, -1434.26, -1280.26, 0.000, 0.000, 0.000, 14:04:00.751
118, -1236.15, -1318.92, -1344.85, -1140.36, 0.000, 0.000, 0.000, 14:04:00.751
119, -1769.28, -1888.71, -1826.07, -1522.44, 0.000, 0.000, 0.000, 14:04:00.766
120, -1845.53, -1900.17, -1843.12, -1553.83, 0.000, 0.000, 0.000, 14:04:00.766
121, -1458.69, -1491.99, -1471.73, -1291.05, 0.000, 0.000, 0.000, 14:04:00.767
122, -1242.07, -1317.39, -1334.80, -1147.73, 0.000, 0.000, 0.000, 14:04:00.767
123, -1789.10, -1896.92, -1829.10, -1527.88, 0.000, 0.000, 0.000, 14:04:00.781
124, -1827.50, -1926.78, -1773.54, -1533.29, 0.000, 0.000, 0.000, 14:04:00.781
125, -1422.25, -1458.12, -1441.25, -1265.68, 0.000, 0.000, 0.000, 14:04:00.797
126, -1246.25, -1324.93, -1355.84, -1143.90, 0.000, 0.000, 0.000, 14:04:00.797
127, -1790.78, -1909.78, -1810.35, -1528.88, 0.000, 0.000, 0.000, 14:04:00.797
128, -1836.76, -1943.66, -1820.85, -1534.97, 0.000, 0.000, 0.000, 14:04:00.797
129, -1422.83, -1503.65, -1451.26, -1256.07, 0.000, 0.000, 0.000, 14:04:00.811
130, -1238.98, -1292.45, -1347.86, -1150.64, 0.000, 0.000, 0.000, 14:04:00.811
131, -1789.55, -1859.73, -1805.99, -1523.35, 0.000, 0.000, 0.000, 14:04:00.812
132, -1837.20, -1890.98, -1836.63, -1550.67, 0.000, 0.000, 0.000, 14:04:00.812
133, -1430.71, -1455.73, -1460.01, -1248.78, 0.000, 0.000, 0.000, 14:04:00.826
134, -1238.72, -1310.82, -1326.71, -1135.23, 0.000, 0.000, 0.000, 14:04:00.826
135, -1795.43, -1909.09, -1814.42, -1531.27, 0.000, 0.000, 0.000, 14:04:00.842
136, -1826.60, -1893.38, -1787.79, -1516.10, 0.000, 0.000, 0.000, 14:04:00.842
137, -1423.05, -1483.48, -1448.48, -1257.04, 0.000, 0.000, 0.000, 14:04:00.842
138, -1247.65, -1380.47, -1346.10, -1143.06, 0.000, 0.000, 0.000, 14:04:00.842
139, -1781.29, -1851.81, -1817.91, -1517.67, 0.000, 0.000, 0.000, 14:04:00.856
140, -1825.08, -1916.98, -1788.56, -1544.01, 0.000, 0.000, 0.000, 14:04:00.856
141, -1437.35, -1484.42, -1467.85, -1284.24, 0.000, 0.000, 0.000, 14:04:00.871
142, -1247.31, -1341.44, -1354.51, -1135.73, 0.000, 0.000, 0.000, 14:04:00.871
143, -1800.17, -1865.90, -1804.62, -1537.73, 0.000, 0.000, 0.000, 14:04:00.871
144, -1844.48, -1966.36, -1804.11, -1525.41, 0.000, 0.000, 0.000, 14:04:00.871
145, -1450.74, -1409.10, -1489.49, -1224.05, 0.000, 0.000, 0.000, 14:04:00.916
146, -1285.67, -1226.70, -1347.22, -1124.62, 0.000, 0.000, 0.000, 14:04:00.916
147, -1833.75, -1838.37, -1822.36, -1482.35, 0.000, 0.000, 0.000, 14:04:00.917
148, -1865.37, -1882.73, -1789.97, -1540.51, 0.000, 0.000, 0.000, 14:04:00.917
149, -1448.53, -1370.22, -1427.03, -1220.09, 0.000, 0.000, 0.000, 14:04:00.917
150, -1280.05, -1192.98, -1336.02, -1162.63, 0.000, 0.000, 0.000, 14:04:00.917
151, -1856.48, -1868.37, -1816.95, -1562.43, 0.000, 0.000, 0.000, 14:04:00.918
152, -1854.47, -1825.73, -1784.86, -1499.45, 0.000, 0.000, 0.000, 14:04:00.918
153, -1455.72, -1409.50, -1458.57, -1251.39, 0.000, 0.000, 0.000, 14:04:00.918
154, -1262.03, -1270.91, -1344.11, -1131.71, 0.000, 0.000, 0.000, 14:04:00.918
155, -1827.95, -1862.86, -1839.17, -1518.33, 0.000, 0.000, 0.000, 14:04:00.932
156, -1833.98, -1848.28, -1776.66, -1527.09, 0.000, 0.000, 0.000, 14:04:00.932
157, -1451.63, -1454.92, -1434.22, -1265.57, 0.000, 0.000, 0.000, 14:04:00.947
158, -1255.76, -1296.33, -1322.05, -1130.92, 0.000, 0.000, 0.000, 14:04:00.947
159, -1823.68, -1907.90, -1842.65, -1536.87, 0.000, 0.000, 0.000, 14:04:00.961
160, -1829.12, -1897.65, -1822.45, -1525.71, 0.000, 0.000, 0.000, 14:04:00.961
161, -1420.89, -1472.62, -1425.69, -1241.54, 0.000, 0.000, 0.000, 14:04:00.961
162, -1237.44, -1286.14, -1298.61, -1134.94, 0.000, 0.000, 0.000, 14:04:00.962
163, -1811.51, -1875.99, -1858.70, -1541.24, 0.000, 0.000, 0.000, 14:04:00.976
164, -1817.61, -1909.51, -1784.21, -1523.50, 0.000, 0.000, 0.000, 14:04:00.976
165, -1398.64, -1422.49, -1396.77, -1220.93, 0.000, 0.000, 0.000, 14:04:00.991
166, -1227.72, -1290.65, -1363.42, -1140.28, 0.000, 0.000, 0.000, 14:04:00.991
167, -1821.83, -1922.25, -1775.25, -1541.04, 0.000, 0.000, 0.000, 14:04:00.991
168, -1822.64, -1911.40, -1780.61, -1532.70, 0.000, 0.000, 0.000, 14:04:00.992
169, -1397.58, -1517.17, -1392.83, -1222.25, 0.000, 0.000, 0.000, 14:04:01.006
170, -1230.43, -1245.32, -1307.12, -1148.25, 0.000, 0.000, 0.000, 14:04:01.006
171, -1820.46, -1887.76, -1812.65, -1540.22, 0.000, 0.000, 0.000, 14:04:01.021
172, -1826.66, -1897.32, -1798.25, -1543.79, 0.000, 0.000, 0.000, 14:04:01.021
173, -1402.13, -1447.06, -1410.95, -1242.79, 0.000, 0.000, 0.000, 14:04:01.021
174, -1249.72, -1302.49, -1339.14, -1138.52, 0.000, 0.000, 0.000, 14:04:01.021
175, -1823.93, -1948.93, -1806.39, -1543.14, 0.000, 0.000, 0.000, 14:04:01.036
176, -1828.67, -1906.44, -1804.01, -1529.16, 0.000, 0.000, 0.000, 14:04:01.036
177, -1406.00, -1502.44, -1462.64, -1238.40, 0.000, 0.000, 0.000, 14:04:01.051
178, -1237.65, -1334.48, -1363.13, -1115.20, 0.000, 0.000, 0.000, 14:04:01.051
179, -1838.31, -1942.92, -1884.92, -1567.50, 0.000, 0.000, 0.000, 14:04:01.052
180, -1821.21, -1879.98, -1773.74, -1531.21, 0.000, 0.000, 0.000, 14:04:01.052
181, -1402.18, -1485.54, -1368.59, -1238.17, 0.000, 0.000, 0.000, 14:04:01.066
182, -1236.32, -1351.02, -1326.91, -1125.13, 0.000, 0.000, 0.000, 14:04:01.067
183, -1845.94, -1951.21, -1848.09, -1540.81, 0.000, 0.000, 0.000, 14:04:01.081
184, -1832.61, -1832.10, -1761.54, -1563.37, 0.000, 0.000, 0.000, 14:04:01.081
185, -1404.51, -1437.20, -1405.80, -1213.37, 0.000, 0.000, 0.000, 14:04:01.112
186, -1256.76, -1332.78, -1326.67, -1153.87, 0.000, 0.000, 0.000, 14:04:01.112
187, -1853.40, -1923.47, -1847.26, -1584.60, 0.000, 0.000, 0.000, 14:04:01.112
188, -1839.35, -1966.50, -1821.94, -1529.39, 0.000, 0.000, 0.000, 14:04:01.112
189, -1405.54, -1440.85, -1446.35, -1246.67, 0.000, 0.000, 0.000, 14:04:01.112
190, -1239.47, -1225.49, -1299.44, -1149.62, 0.000, 0.000, 0.000, 14:04:01.112
191, -1821.82, -1924.74, -1829.23, -1531.22, 0.000, 0.000, 0.000, 14:04:01.114
192, -1830.61, -1866.91, -1801.95, -1515.13, 0.000, 0.000, 0.000, 14:04:01.114
193, -1412.78, -1443.78, -1400.73, -1251.38, 0.000, 0.000, 0.000, 14:04:01.126
194, -1295.71, -1304.21, -1379.05, -1144.44, 0.000, 0.000, 0.000, 14:04:01.126
195, -1874.31, -1882.15, -1846.06, -1562.86, 0.000, 0.000, 0.000, 14:04:01.141
196, -1857.61, -1893.94, -1769.65, -1548.89, 0.000, 0.000, 0.000, 14:04:01.141
197, -1379.81, -1352.10, -1404.32, -1194.02, 0.000, 0.000, 0.000, 14:04:01.141
198, -1277.39, -1281.26, -1374.64, -1181.26, 0.000, 0.000, 0.000, 14:04:01.141
199, -1851.65, -1924.29, -1860.86, -1551.11, 0.000, 0.000, 0.000, 14:04:01.156
200, -1841.57, -1929.12, -1779.23, -1542.20, 0.000, 0.000, 0.000, 14:04:01.156
0, -1385.01, -1390.56, -1432.84, -1233.59, 0.000, 0.000, 0.000, 14:04:01.157
1, -1266.15, -1327.74, -1345.70, -1144.22, 0.000, 0.000, 0.000, 14:04:01.178
2, -1855.51, -1958.19, -1800.80, -1580.85, 0.000, 0.000, 0.000, 14:04:01.178
3, -1825.87, -1845.74, -1817.38, -1532.00, 0.000, 0.000, 0.000, 14:04:01.186
4, -1368.96, -1416.10, -1409.06, -1217.54, 0.000, 0.000, 0.000, 14:04:01.186
5, -1273.19, -1328.57, -1391.08, -1167.55, 0.000, 0.000, 0.000, 14:04:01.186
6, -1841.89, -1917.55, -1859.86, -1586.58, 0.000, 0.000, 0.000, 14:04:01.186
7, -1836.27, -1903.42, -1775.92, -1534.14, 0.000, 0.000, 0.000, 14:04:01.201
8, -1394.96, -1458.72, -1403.05, -1228.22, 0.000, 0.000, 0.000, 14:04:01.201
9, -1271.70, -1341.37, -1395.22, -1168.97, 0.000, 0.000, 0.000, 14:04:01.216
10, -1852.49, -1896.71, -1829.44, -1562.89, 0.000, 0.000, 0.000, 14:04:01.216
11, -1827.35, -1891.54, -1776.06, -1536.52, 0.000, 0.000, 0.000, 14:04:01.217
12, -1374.99, -1417.61, -1367.32, -1230.21, 0.000, 0.000, 0.000, 14:04:01.218
13, -1269.46, -1320.85, -1353.78, -1170.46, 0.000, 0.000, 0.000, 14:04:01.232
14, -1873.20, -1950.70, -1801.25, -1569.59, 0.000, 0.000, 0.000, 14:04:01.232
15, -1833.09, -1900.34, -1759.38, -1530.74, 0.000, 0.000, 0.000, 14:04:01.262
16, -1363.73, -1431.50, -1369.97, -1224.98, 0.000, 0.000, 0.000, 14:04:01.262
17, -1284.19, -1315.66, -1353.30, -1178.30, 0.000, 0.000, 0.000, 14:04:01.262
18, -1861.28, -1952.74, -1848.23, -1567.88, 0.000, 0.000, 0.000, 14:04:01.263
19, -1803.27, -1874.76, -1753.56, -1535.38, 0.000, 0.000, 0.000, 14:04:01.263
20, -1377.54, -1402.00, -1401.35, -1216.02, 0.000, 0.000, 0.000, 14:04:01.263
21, -1272.78, -1288.88, -1377.24, -1165.85, 0.000, 0.000, 0.000, 14:04:01.264
22, -1847.75, -1918.56, -1878.07, -1570.85, 0.000, 0.000, 0.000, 14:04:01.264
23, -1806.09, -1835.75, -1826.37, -1514.29, 0.000, 0.000, 0.000, 14:04:01.276
24, -1352.62, -1345.83, -1399.16, -1204.44, 0.000, 0.000, 0.000, 14:04:01.276
25, -1280.87, -1334.59, -1383.42, -1175.84, 0.000, 0.000, 0.000, 14:04:01.290
26, -1876.65, -1987.02, -1839.44, -1584.00, 0.000, 0.000, 0.000, 14:04:01.291
27, -1812.74, -1898.35, -1755.14, -1528.56, 0.000, 0.000, 0.000, 14:04:01.321
28, -1366.94, -1435.14, -1402.67, -1210.84, 0.000, 0.000, 0.000, 14:04:01.321
29, -1264.13, -1364.71, -1393.66, -1168.37, 0.000, 0.000, 0.000, 14:04:01.321
30, -1857.29, -1926.23, -1841.43, -1560.87, 0.000, 0.000, 0.000, 14:04:01.321
31, -1808.96, -1869.95, -1806.33, -1530.79, 0.000, 0.000, 0.000, 14:04:01.322
32, -1359.56, -1379.15, -1408.08, -1214.49, 0.000, 0.000, 0.000, 14:04:01.322
33, -1281.16, -1363.69, -1349.71, -1176.58, 0.000, 0.000, 0.000, 14:04:01.323
34, -1848.92, -2006.55, -1836.55, -1575.79, 0.000, 0.000, 0.000, 14:04:01.323
35, -1808.94, -1892.75, -1742.04, -1523.61, 0.000, 0.000, 0.000, 14:04:01.351
36, -1339.57, -1356.45, -1398.69, -1237.62, 0.000, 0.000, 0.000, 14:04:01.352
37, -1280.16, -1327.54, -1406.20, -1166.10, 0.000, 0.000, 0.000, 14:04:01.352
38, -1850.64, -1982.72, -1909.83, -1573.13, 0.000, 0.000, 0.000, 14:04:01.352
39, -1801.89, -1904.02, -1806.63, -1538.38, 0.000, 0.000, 0.000, 14:04:01.368
40, -1362.17, -1395.14, -1388.10, -1204.59, 0.000, 0.000, 0.000, 14:04:01.369
41, -1292.00, -1325.09, -1398.39, -1198.88, 0.000, 0.000, 0.000, 14:04:01.369
42, -1858.28, -1898.44, -1840.69, -1582.68, 0.000, 0.000, 0.000, 14:04:01.369
43, -1805.78, -1832.14, -1776.87, -1524.10, 0.000, 0.000, 0.000, 14:04:01.382
44, -1354.78, -1416.09, -1423.03, -1204.18, 0.000, 0.000, 0.000, 14:04:01.382
45, -1280.34, -1331.90, -1370.58, -1181.07, 0.000, 0.000, 0.000, 14:04:01.396
46, -1880.42, -1908.89, -1854.75, -1566.86, 0.000, 0.000, 0.000, 14:04:01.396
47, -1803.19, -1831.64, -1775.28, -1525.46, 0.000, 0.000, 0.000, 14:04:01.397
48, -1355.03, -1414.45, -1374.42, -1201.77, 0.000, 0.000, 0.000, 14:04:01.397
49, -1316.94, -1314.02, -1431.67, -1204.25, 0.000, 0.000, 0.000, 14:04:01.411
50, -1893.55, -1955.08, -1883.89, -1584.60, 0.000, 0.000, 0.000, 14:04:01.411
51, -1807.93, -1854.41, -1757.15, -1511.52, 0.000, 0.000, 0.000, 14:04:01.426
52, -1359.56, -1361.24, -1408.12, -1217.48, 0.000, 0.000, 0.000, 14:04:01.426
53, -1311.58, -1306.00, -1370.45, -1175.81, 0.000, 0.000, 0.000, 14:04:01.426
54, -1882.74, -1923.55, -1843.16, -1574.16, 0.000, 0.000, 0.000, 14:04:01.427
55, -1812.17, -1878.82, -1720.57, -1537.55, 0.000, 0.000, 0.000, 14:04:01.441
56, -1358.92, -1378.91, -1387.58, -1190.40, 0.000, 0.000, 0.000, 14:04:01.441
57, -1297.14, -1354.56, -1393.87, -1190.34, 0.000, 0.000, 0.000, 14:04:01.471
58, -1868.56, -1897.52, -1882.38, -1574.88, 0.000, 0.000, 0.000, 14:04:01.471
59, -1810.83, -1848.86, -1776.66, -1516.04, 0.000, 0.000, 0.000, 14:04:01.472
60, -1356.44, -1360.25, -1411.78, -1218.29, 0.000, 0.000, 0.000, 14:04:01.472
61, -1303.34, -1364.34, -1391.66, -1181.50, 0.000, 0.000, 0.000, 14:04:01.472
62, -1883.97, -1904.35, -1843.68, -1590.05, 0.000, 0.000, 0.000, 14:04:01.472
63, -1796.89, -1849.61, -1780.43, -1512.78, 0.000, 0.000, 0.000, 14:04:01.473
64, -1341.53, -1415.51, -1416.23, -1204.40, 0.000, 0.000, 0.000, 14:04:01.473
65, -1322.11, -1395.70, -1426.18, -1223.09, 0.000, 0.000, 0.000, 14:04:01.492
66, -1861.09, -1998.63, -1842.96, -1574.45, 0.000, 0.000, 0.000, 14:04:01.493
67, -1783.05, -1850.26, -1759.34, -1513.59, 0.000, 0.000, 0.000, 14:04:01.501
68, -1341.94, -1410.70, -1387.06, -1197.77, 0.000, 0.000, 0.000, 14:04:01.501
69, -1280.88, -1370.79, -1439.98, -1190.57, 0.000, 0.000, 0.000, 14:04:01.516
70, -1829.39, -1965.93, -1869.45, -1575.09, 0.000, 0.000, 0.000, 14:04:01.516
71, -1713.08, -1942.72, -1738.30, -1507.33, 0.000, 0.000, 0.000, 14:04:01.518
72, -1242.73, -1438.28, -1383.16, -1209.72, 0.000, 0.000, 0.000, 14:04:01.518
73, -1153.46, -1396.45, -1407.03, -1146.84, 0.000, 0.000, 0.000, 14:04:01.531
74, -1673.29, -1970.82, -1818.46, -1549.64, 0.000, 0.000, 0.000, 14:04:01.531
75, -1579.39, -1961.57, -1747.67, -1493.48, 0.000, 0.000, 0.000, 14:04:01.547
76, -1102.34, -1488.96, -1382.21, -1181.99, 0.000, 0.000, 0.000, 14:04:01.547
77, -1071.07, -1506.87, -1381.36, -1194.29, 0.000, 0.000, 0.000, 14:04:01.547
78, -1635.53, -2096.71, -1820.32, -1565.02, 0.000, 0.000, 0.000, 14:04:01.547
79, -1556.18, -1949.89, -1762.37, -1490.12, 0.000, 0.000, 0.000, 14:04:01.561
80, -1140.31, -1459.61, -1361.77, -1179.77, 0.000, 0.000, 0.000, 14:04:01.562
81, -1168.91, -1489.68, -1423.27, -1191.21, 0.000, 0.000, 0.000, 14:04:01.576
82, -1776.08, -2049.50, -1851.89, -1586.50, 0.000, 0.000, 0.000, 14:04:01.576
83, -1712.73, -1920.37, -1754.25, -1506.12, 0.000, 0.000, 0.000, 14:04:01.591
84, -1295.19, -1400.33, -1397.26, -1208.25, 0.000, 0.000, 0.000, 14:04:01.591
85, -1316.82, -1366.94, -1408.74, -1217.00, 0.000, 0.000, 0.000, 14:04:01.591
86, -1890.20, -1938.78, -1864.53, -1587.16, 0.000, 0.000, 0.000, 14:04:01.591
87, -1814.43, -1782.51, -1759.07, -1504.50, 0.000, 0.000, 0.000, 14:04:01.606
88, -1381.49, -1353.78, -1403.37, -1213.74, 0.000, 0.000, 0.000, 14:04:01.606
89, -1389.02, -1348.51, -1423.00, -1225.16, 0.000, 0.000, 0.000, 14:04:01.607
90, -1952.58, -1903.14, -1882.01, -1592.19, 0.000, 0.000, 0.000, 14:04:01.607
91, -1864.01, -1811.08, -1777.60, -1533.75, 0.000, 0.000, 0.000, 14:04:01.621
92, -1426.89, -1316.10, -1397.92, -1204.53, 0.000, 0.000, 0.000, 14:04:01.621
93, -1425.77, -1324.85, -1441.53, -1230.35, 0.000, 0.000, 0.000, 14:04:01.636
94, -1968.00, -1884.36, -1857.58, -1590.95, 0.000, 0.000, 0.000, 14:04:01.636
95, -1863.47, -1787.90, -1746.53, -1500.64, 0.000, 0.000, 0.000, 14:04:01.666
96, -1420.60, -1329.03, -1396.60, -1226.07, 0.000, 0.000, 0.000, 14:04:01.667
97, -1431.23, -1311.79, -1458.35, -1226.37, 0.000, 0.000, 0.000, 14:04:01.667
98, -1961.21, -1869.08, -1873.58, -1575.99, 0.000, 0.000, 0.000, 14:04:01.667
99, -1841.56, -1814.57, -1733.86, -1493.21, 0.000, 0.000, 0.000, 14:04:01.667
100, -1407.38, -1326.50, -1363.83, -1213.53, 0.000, 0.000, 0.000, 14:04:01.667
101, -1411.84, -1329.99, -1447.20, -1239.01, 0.000, 0.000, 0.000, 14:04:01.667
102, -1932.27, -1890.28, -1854.40, -1569.54, 0.000, 0.000, 0.000, 14:04:01.667
103, -1827.82, -1759.49, -1737.88, -1500.32, 0.000, 0.000, 0.000, 14:04:01.681
104, -1403.46, -1285.86, -1393.08, -1204.83, 0.000, 0.000, 0.000, 14:04:01.681
105, -1402.96, -1347.76, -1446.21, -1234.33, 0.000, 0.000, 0.000, 14:04:01.697
106, -1929.40, -1866.79, -1855.10, -1583.31, 0.000, 0.000, 0.000, 14:04:01.697
107, -1813.26, -1785.51, -1732.65, -1503.50, 0.000, 0.000, 0.000, 14:04:01.697
108, -1371.10, -1349.71, -1380.60, -1197.83, 0.000, 0.000, 0.000, 14:04:01.697
109, -1393.44, -1378.64, -1434.04, -1238.42, 0.000, 0.000, 0.000, 14:04:01.711
110, -1924.87, -1942.64, -1873.90, -1600.67, 0.000, 0.000, 0.000, 14:04:01.711
111, -1800.57, -1775.56, -1728.20, -1505.81, 0.000, 0.000, 0.000, 14:04:01.726
112, -1361.00, -1337.72, -1376.27, -1188.46, 0.000, 0.000, 0.000, 14:04:01.726
113, -1381.15, -1348.05, -1452.98, -1231.73, 0.000, 0.000, 0.000, 14:04:01.726
114, -1918.42, -1945.83, -1865.11, -1607.21, 0.000, 0.000, 0.000, 14:04:01.726
115, -1803.52, -1806.31, -1740.99, -1497.26, 0.000, 0.000, 0.000, 14:04:01.741
116, -1350.19, -1309.89, -1388.78, -1194.11, 0.000, 0.000, 0.000, 14:04:01.742
117, -1379.87, -1365.62, -1433.00, -1227.84, 0.000, 0.000, 0.000, 14:04:01.756
118, -1907.26, -1973.64, -1872.12, -1582.64, 0.000, 0.000, 0.000, 14:04:01.756
119, -1786.42, -1818.29, -1735.92, -1507.69, 0.000, 0.000, 0.000, 14:04:01.757
120, -1336.99, -1344.47, -1396.25, -1203.44, 0.000, 0.000, 0.000, 14:04:01.757
121, -1364.85, -1413.54, -1452.69, -1234.24, 0.000, 0.000, 0.000, 14:04:01.771
122, -1895.08, -1986.71, -1875.99, -1588.69, 0.000, 0.000, 0.000, 14:04:01.771
123, -1767.15, -1782.63, -1726.18, -1492.20, 0.000, 0.000, 0.000, 14:04:01.786
124, -1319.91, -1327.64, -1384.45, -1192.46, 0.000, 0.000, 0.000, 14:04:01.786
125, -1363.41, -1391.20, -1462.42, -1226.63, 0.000, 0.000, 0.000, 14:04:01.786
126, -1903.48, -1985.79, -1862.24, -1601.13, 0.000, 0.000, 0.000, 14:04:01.786
127, -1777.94, -1836.79, -1744.06, -1497.34, 0.000, 0.000, 0.000, 14:04:01.815
128, -1330.22, -1378.83, -1385.03, -1208.24, 0.000, 0.000, 0.000, 14:04:01.816
129, -1371.03, -1380.20, -1453.61, -1249.47, 0.000, 0.000, 0.000, 14:04:01.817
130, -1883.87, -1918.10, -1864.20, -1593.32, 0.000, 0.000, 0.000, 14:04:01.817
131, -1768.77, -1821.28, -1752.18, -1478.29, 0.000, 0.000, 0.000, 14:04:01.817
132, -1318.28, -1317.62, -1363.59, -1202.51, 0.000, 0.000, 0.000, 14:04:01.817
133, -1393.28, -1448.64, -1494.27, -1261.54, 0.000, 0.000, 0.000, 14:04:01.831
134, -1908.83, -2009.08, -1887.55, -1611.13, 0.000, 0.000, 0.000, 14:04:01.831
135, -1773.47, -1794.45, -1737.35, -1504.88, 0.000, 0.000, 0.000, 14:04:01.847
136, -1309.45, -1348.81, -1356.83, -1176.56, 0.000, 0.000, 0.000, 14:04:01.847
137, -1377.49, -1443.76, -1477.35, -1232.86, 0.000, 0.000, 0.000, 14:04:01.847
138, -1923.91, -1993.17, -1920.44, -1611.46, 0.000, 0.000, 0.000, 14:04:01.847
139, -1754.04, -1840.83, -1729.15, -1485.21, 0.000, 0.000, 0.000, 14:04:01.876
140, -1332.40, -1375.49, -1381.23, -1180.30, 0.000, 0.000, 0.000, 14:04:01.877
141, -1375.55, -1404.76, -1456.85, -1256.98, 0.000, 0.000, 0.000, 14:04:01.877
142, -1907.10, -1986.88, -1899.96, -1610.34, 0.000, 0.000, 0.000, 14:04:01.877
143, -1767.18, -1870.95, -1740.35, -1481.25, 0.000, 0.000, 0.000, 14:04:01.878
144, -1313.40, -1329.30, -1376.15, -1195.90, 0.000, 0.000, 0.000, 14:04:01.879
145, -1376.93, -1416.91, -1460.13, -1249.88, 0.000, 0.000, 0.000, 14:04:01.891
146, -1891.81, -1964.06, -1864.97, -1597.30, 0.000, 0.000, 0.000, 14:04:01.891
147, -1751.94, -1812.59, -1725.27, -1484.74, 0.000, 0.000, 0.000, 14:04:01.906
148, -1307.41, -1339.89, -1364.53, -1180.48, 0.000, 0.000, 0.000, 14:04:01.906
149, -1377.89, -1440.80, -1478.58, -1249.17, 0.000, 0.000, 0.000, 14:04:01.906
150, -1890.06, -1943.96, -1883.40, -1592.19, 0.000, 0.000, 0.000, 14:04:01.907
151, -1747.45, -1774.18, -1691.94, -1483.61, 0.000, 0.000, 0.000, 14:04:01.921
152, -1305.24, -1395.79, -1386.51, -1195.84, 0.000, 0.000, 0.000, 14:04:01.921
153, -1376.09, -1461.61, -1486.60, -1239.47, 0.000, 0.000, 0.000, 14:04:01.936
154, -1888.51, -2007.89, -1899.37, -1592.33, 0.000, 0.000, 0.000, 14:04:01.936
155, -1734.07, -1799.31, -1740.92, -1477.05, 0.000, 0.000, 0.000, 14:04:01.937
156, -1264.31, -1292.02, -1310.37, -1149.63, 0.000, 0.000, 0.000, 14:04:01.937
157, -1380.87, -1433.72, -1462.41, -1244.98, 0.000, 0.000, 0.000, 14:04:01.951
158, -1895.01, -1919.51, -1903.57, -1619.59, 0.000, 0.000, 0.000, 14:04:01.951
159, -1736.64, -1778.96, -1717.40, -1472.69, 0.000, 0.000, 0.000, 14:04:01.966
160, -1290.92, -1367.12, -1371.31, -1171.12, 0.000, 0.000, 0.000, 14:04:01.966
161, -1399.55, -1474.80, -1489.06, -1261.53, 0.000, 0.000, 0.000, 14:04:01.981
162, -1898.59, -1972.60, -1899.18, -1585.32, 0.000, 0.000, 0.000, 14:04:01.982
163, -1737.71, -1817.52, -1724.42, -1458.81, 0.000, 0.000, 0.000, 14:04:01.982
164, -1283.89, -1343.22, -1353.28, -1166.76, 0.000, 0.000, 0.000, 14:04:01.982
165, -1377.34, -1421.64, -1479.95, -1243.20, 0.000, 0.000, 0.000, 14:04:01.997
166, -1883.08, -1941.28, -1871.20, -1589.03, 0.000, 0.000, 0.000, 14:04:01.997
167, -1724.04, -1775.95, -1705.72, -1490.40, 0.000, 0.000, 0.000, 14:04:01.997
168, -1280.92, -1282.41, -1336.09, -1168.89, 0.000, 0.000, 0.000, 14:04:01.997
169, -1385.05, -1474.61, -1498.29, -1251.10, 0.000, 0.000, 0.000, 14:04:02.026
170, -1888.74, -1982.95, -1884.02, -1586.30, 0.000, 0.000, 0.000, 14:04:02.026
171, -1738.60, -1799.70, -1705.35, -1483.93, 0.000, 0.000, 0.000, 14:04:02.027
172, -1250.93, -1265.11, -1325.47, -1135.61, 0.000, 0.000, 0.000, 14:04:02.027
173, -1394.21, -1428.73, -1476.76, -1261.98, 0.000, 0.000, 0.000, 14:04:02.028
174, -1899.54, -1959.31, -1879.99, -1589.96, 0.000, 0.000, 0.000, 14:04:02.028
175, -1727.99, -1835.72, -1712.49, -1478.18, 0.000, 0.000, 0.000, 14:04:02.041
176, -1274.14, -1312.24, -1355.83, -1156.78, 0.000, 0.000, 0.000, 14:04:02.041
177, -1384.35, -1451.87, -1476.93, -1264.86, 0.000, 0.000, 0.000, 14:04:02.056
178, -1888.72, -1959.85, -1859.89, -1598.84, 0.000, 0.000, 0.000, 14:04:02.056
179, -1738.41, -1798.04, -1738.46, -1493.39, 0.000, 0.000, 0.000, 14:04:02.057
180, -1293.80, -1349.34, -1383.49, -1195.17, 0.000, 0.000, 0.000, 14:04:02.057
181, -1423.52, -1518.56, -1504.25, -1284.98, 0.000, 0.000, 0.000, 14:04:02.071
182, -1912.81, -1999.60, -1944.81, -1619.71, 0.000, 0.000, 0.000, 14:04:02.072
183, -1760.35, -1842.50, -1739.54, -1493.87, 0.000, 0.000, 0.000, 14:04:02.086
184, -1280.11, -1346.78, -1367.57, -1164.51, 0.000, 0.000, 0.000, 14:04:02.086
185, -1415.16, -1490.06, -1498.48, -1285.50, 0.000, 0.000, 0.000, 14:04:02.087
186, -1908.58, -2041.27, -1906.63, -1609.74, 0.000, 0.000, 0.000, 14:04:02.087
187, -1724.08, -1819.77, -1685.09, -1480.65, 0.000, 0.000, 0.000, 14:04:02.101
188, -1272.27, -1354.17, -1343.16, -1172.69, 0.000, 0.000, 0.000, 14:04:02.101
189, -1397.12, -1458.85, -1516.65, -1276.49, 0.000, 0.000, 0.000, 14:04:02.116
190, -1917.88, -1998.63, -1907.16, -1614.72, 0.000, 0.000, 0.000, 14:04:02.117
191, -1728.09, -1794.16, -1693.42, -1463.89, 0.000, 0.000, 0.000, 14:04:02.117
192, -1262.61, -1295.36, -1354.26, -1162.41, 0.000, 0.000, 0.000, 14:04:02.117
193, -1408.23, -1500.56, -1522.42, -1277.03, 0.000, 0.000, 0.000, 14:04:02.131
194, -1897.48, -1978.54, -1897.76, -1608.70, 0.000, 0.000, 0.000, 14:04:02.131
195, -1721.38, -1782.97, -1681.68, -1476.59, 0.000, 0.000, 0.000, 14:04:02.147
196, -1284.23, -1374.74, -1337.24, -1160.31, 0.000, 0.000, 0.000, 14:04:02.147
197, -1422.59, -1482.92, -1527.68, -1286.35, 0.000, 0.000, 0.000, 14:04:02.147
198, -1904.78, -1991.45, -1880.69, -1610.49, 0.000, 0.000, 0.000, 14:04:02.147
199, -1712.45, -1789.54, -1682.12, -1464.74, 0.000, 0.000, 0.000, 14:04:02.161
200, -1268.41, -1334.90, -1357.19, -1163.81, 0.000, 0.000, 0.000, 14:04:02.161
0, -1409.31, -1507.19, -1516.52, -1284.93, 0.000, 0.000, 0.000, 14:04:02.162
1, -1903.74, -1972.74, -1875.79, -1594.27, 0.000, 0.000, 0.000, 14:04:02.176
2, -1712.81, -1794.60, -1696.68, -1461.88, 0.000, 0.000, 0.000, 14:04:02.176
3, -1272.92, -1324.90, -1349.37, -1177.14, 0.000, 0.000, 0.000, 14:04:02.191
4, -1420.05, -1513.92, -1502.15, -1279.97, 0.000, 0.000, 0.000, 14:04:02.191
5, -1880.93, -1983.57, -1886.99, -1598.28, 0.000, 0.000, 0.000, 14:04:02.221
6, -1716.95, -1808.71, -1642.88, -1464.37, 0.000, 0.000, 0.000, 14:04:02.221
7, -1264.81, -1306.81, -1332.02, -1170.58, 0.000, 0.000, 0.000, 14:04:02.222
8, -1414.36, -1491.17, -1506.60, -1277.01, 0.000, 0.000, 0.000, 14:04:02.222
9, -1908.33, -2035.28, -1875.86, -1615.92, 0.000, 0.000, 0.000, 14:04:02.222
10, -1717.93, -1804.92, -1711.68, -1458.48, 0.000, 0.000, 0.000, 14:04:02.222
11, -1240.81, -1292.90, -1320.81, -1151.38, 0.000, 0.000, 0.000, 14:04:02.223
12, -1417.21, -1496.31, -1504.29, -1277.76, 0.000, 0.000, 0.000, 14:04:02.223
13, -1903.58, -2020.99, -1929.12, -1613.71, 0.000, 0.000, 0.000, 14:04:02.243
14, -1710.83, -1812.63, -1700.82, -1481.79, 0.000, 0.000, 0.000, 14:04:02.243
15, -1247.47, -1286.32, -1327.20, -1162.60, 0.000, 0.000, 0.000, 14:04:02.251
16, -1433.18, -1517.73, -1532.06, -1286.63, 0.000, 0.000, 0.000, 14:04:02.251
17, -1899.21, -1983.43, -1896.94, -1589.57, 0.000, 0.000, 0.000, 14:04:02.252
18, -1705.80, -1805.63, -1688.52, -1472.48, 0.000, 0.000, 0.000, 14:04:02.252
19, -1251.99, -1305.03, -1332.75, -1162.26, 0.000, 0.000, 0.000, 14:04:02.266
20, -1420.49, -1495.05, -1512.83, -1293.45, 0.000, 0.000, 0.000, 14:04:02.267
21, -1891.19, -1981.41, -1886.95, -1599.74, 0.000, 0.000, 0.000, 14:04:02.281
22, -1679.37, -1759.79, -1694.07, -1458.19, 0.000, 0.000, 0.000, 14:04:02.281
23, -1239.79, -1321.73, -1330.17, -1162.16, 0.000, 0.000, 0.000, 14:04:02.282
24, -1416.92, -1532.47, -1527.20, -1294.79, 0.000, 0.000, 0.000, 14:04:02.282
25, -1871.07, -1961.73, -1873.33, -1602.45, 0.000, 0.000, 0.000, 14:04:02.297
26, -1679.48, -1791.11, -1688.30, -1451.86, 0.000, 0.000, 0.000, 14:04:02.297
27, -1231.09, -1323.80, -1321.01, -1140.16, 0.000, 0.000, 0.000, 14:04:02.311
28, -1427.73, -1513.91, -1533.68, -1307.17, 0.000, 0.000, 0.000, 14:04:02.312
29, -1897.80, -2016.83, -1888.46, -1602.46, 0.000, 0.000, 0.000, 14:04:02.312
30, -1706.48, -1802.00, -1708.18, -1464.63, 0.000, 0.000, 0.000, 14:04:02.312
31, -1249.08, -1309.61, -1337.42, -1160.02, 0.000, 0.000, 0.000, 14:04:02.326
32, -1436.09, -1522.03, -1533.37, -1278.01, 0.000, 0.000, 0.000, 14:04:02.326
33, -1900.02, -1998.65, -1889.55, -1602.46, 0.000, 0.000, 0.000, 14:04:02.341
34, -1701.88, -1791.52, -1698.02, -1469.30, 0.000, 0.000, 0.000, 14:04:02.341
35, -1257.75, -1313.94, -1334.90, -1149.75, 0.000, 0.000, 0.000, 14:04:02.342
36, -1443.51, -1539.58, -1538.76, -1302.02, 0.000, 0.000, 0.000, 14:04:02.342
37, -1893.17, -1963.30, -1866.95, -1591.13, 0.000, 0.000, 0.000, 14:04:02.356
38, -1693.40, -1688.36, -1683.08, -1449.60, 0.000, 0.000, 0.000, 14:04:02.356
39, -1253.78, -1307.65, -1337.88, -1151.18, 0.000, 0.000, 0.000, 14:04:02.371
40, -1444.70, -1534.58, -1524.79, -1303.71, 0.000, 0.000, 0.000, 14:04:02.371
41, -1901.37, -1981.06, -1877.99, -1617.62, 0.000, 0.000, 0.000, 14:04:02.371
42, -1690.92, -1735.62, -1695.49, -1440.17, 0.000, 0.000, 0.000, 14:04:02.371
43, -1253.63, -1274.61, -1332.75, -1135.09, 0.000, 0.000, 0.000, 14:04:02.401
44, -1452.38, -1523.38, -1537.13, -1306.19, 0.000, 0.000, 0.000, 14:04:02.401
45, -1892.65, -1975.17, -1893.07, -1599.34, 0.000, 0.000, 0.000, 14:04:02.402
46, -1683.32, -1709.29, -1678.34, -1438.44, 0.000, 0.000, 0.000, 14:04:02.402
47, -1249.74, -1272.48, -1328.06, -1154.36, 0.000, 0.000, 0.000, 14:04:02.402
48, -1462.90, -1491.37, -1551.04, -1305.90, 0.000, 0.000, 0.000, 14:04:02.402
49, -1901.01, -1971.54, -1886.32, -1598.29, 0.000, 0.000, 0.000, 14:04:02.431
50, -1692.12, -1763.91, -1682.33, -1448.69, 0.000, 0.000, 0.000, 14:04:02.431
51, -1261.35, -1286.46, -1342.80, -1158.68, 0.000, 0.000, 0.000, 14:04:02.431
52, -1480.78, -1537.91, -1558.29, -1324.98, 0.000, 0.000, 0.000, 14:04:02.431
53, -1896.08, -1986.67, -1870.50, -1598.95, 0.000, 0.000, 0.000, 14:04:02.432
54, -1704.75, -1796.88, -1695.32, -1446.25, 0.000, 0.000, 0.000, 14:04:02.432
55, -1256.67, -1287.10, -1340.04, -1155.75, 0.000, 0.000, 0.000, 14:04:02.446
56, -1472.80, -1541.76, -1555.31, -1318.96, 0.000, 0.000, 0.000, 14:04:02.446
57, -1902.30, -2023.26, -1873.07, -1595.37, 0.000, 0.000, 0.000, 14:04:02.461
58, -1678.61, -1724.65, -1675.72, -1440.72, 0.000, 0.000, 0.000, 14:04:02.461
59, -1240.74, -1322.09, -1326.65, -1145.61, 0.000, 0.000, 0.000, 14:04:02.462
60, -1451.62, -1557.86, -1556.71, -1310.21, 0.000, 0.000, 0.000, 14:04:02.462
61, -1899.85, -2054.78, -1879.81, -1611.78, 0.000, 0.000, 0.000, 14:04:02.476
62, -1641.91, -1805.85, -1681.81, -1439.43, 0.000, 0.000, 0.000, 14:04:02.476
63, -1199.34, -1298.36, -1312.51, -1149.51, 0.000, 0.000, 0.000, 14:04:02.491
64, -1372.98, -1587.45, -1545.47, -1309.62, 0.000, 0.000, 0.000, 14:04:02.491
65, -1751.71, -1993.62, -1873.02, -1567.42, 0.000, 0.000, 0.000, 14:04:02.492
66, -1480.76, -1786.46, -1636.06, -1398.75, 0.000, 0.000, 0.000, 14:04:02.492
67, -958.52, -1368.66, -1267.76, -1095.65, 0.000, 0.000, 0.000, 14:04:02.506
68, -1166.82, -1658.21, -1536.76, -1288.21, 0.000, 0.000, 0.000, 14:04:02.506
69, -1577.21, -2097.32, -1851.30, -1560.94, 0.000, 0.000, 0.000, 14:04:02.521
70, -1380.49, -1851.30, -1639.47, -1405.44, 0.000, 0.000, 0.000, 14:04:02.521
71, -954.55, -1424.86, -1294.77, -1112.37, 0.000, 0.000, 0.000, 14:04:02.521
72, -1232.17, -1691.39, -1536.43, -1294.16, 0.000, 0.000, 0.000, 14:04:02.522
73, -1696.17, -2123.34, -1869.88, -1570.59, 0.000, 0.000, 0.000, 14:04:02.536
74, -1521.91, -1860.06, -1666.11, -1434.06, 0.000, 0.000, 0.000, 14:04:02.536
75, -1136.82, -1384.31, -1327.46, -1144.27, 0.000, 0.000, 0.000, 14:04:02.551
76, -1415.38, -1602.01, -1577.64, -1320.64, 0.000, 0.000, 0.000, 14:04:02.551
77, -1880.73, -2016.82, -1841.24, -1595.11, 0.000, 0.000, 0.000, 14:04:02.552
78, -1686.10, -1723.72, -1680.63, -1440.66, 0.000, 0.000, 0.000, 14:04:02.552
79, -1281.89, -1259.50, -1325.64, -1151.99, 0.000, 0.000, 0.000, 14:04:02.581
80, -1568.71, -1570.44, -1574.96, -1341.77, 0.000, 0.000, 0.000, 14:04:02.582
81, -1997.40, -1941.63, -1843.21, -1610.27, 0.000, 0.000, 0.000, 14:04:02.582
82, -1779.25, -1639.88, -1635.17, -1448.26, 0.000, 0.000, 0.000, 14:04:02.582
83, -1356.68, -1208.86, -1358.12, -1148.25, 0.000, 0.000, 0.000, 14:04:02.583
84, -1613.82, -1495.58, -1605.74, -1371.46, 0.000, 0.000, 0.000, 14:04:02.583
85, -2026.95, -1908.77, -1901.76, -1610.37, 0.000, 0.000, 0.000, 14:04:02.596
86, -1795.25, -1644.35, -1687.15, -1444.46, 0.000, 0.000, 0.000, 14:04:02.596
87, -1356.20, -1221.42, -1344.20, -1152.85, 0.000, 0.000, 0.000, 14:04:02.612
88, -1627.82, -1552.01, -1597.34, -1353.65, 0.000, 0.000, 0.000, 14:04:02.612
89, -2019.05, -1889.86, -1884.04, -1610.09, 0.000, 0.000, 0.000, 14:04:02.612
90, -1781.81, -1655.53, -1673.81, -1440.37, 0.000, 0.000, 0.000, 14:04:02.612
91, -1352.33, -1246.51, -1330.37, -1154.71, 0.000, 0.000, 0.000, 14:04:02.626
92, -1613.70, -1535.92, -1615.73, -1347.31, 0.000, 0.000, 0.000, 14:04:02.627
93, -2002.28, -1955.72, -1889.36, -1607.69, 0.000, 0.000, 0.000, 14:04:02.641
94, -1767.08, -1684.64, -1656.87, -1432.37, 0.000, 0.000, 0.000, 14:04:02.641
95, -1335.83, -1217.74, -1293.88, -1161.97, 0.000, 0.000, 0.000, 14:04:02.648
96, -1593.06, -1543.05, -1570.21, -1338.52, 0.000, 0.000, 0.000, 14:04:02.648
97, -1985.03, -1958.52, -1877.51, -1600.90, 0.000, 0.000, 0.000, 14:04:02.656
98, -1745.04, -1683.53, -1662.02, -1434.65, 0.000, 0.000, 0.000, 14:04:02.656
99, -1306.86, -1226.17, -1338.09, -1135.54, 0.000, 0.000, 0.000, 14:04:02.671
100, -1571.61, -1531.53, -1568.77, -1342.83, 0.000, 0.000, 0.000, 14:04:02.671
101, -1982.38, -1902.93, -1859.96, -1602.22, 0.000, 0.000, 0.000, 14:04:02.672
102, -1727.47, -1708.08, -1672.02, -1429.62, 0.000, 0.000, 0.000, 14:04:02.672
103, -1289.71, -1240.26, -1362.19, -1143.35, 0.000, 0.000, 0.000, 14:04:02.686
104, -1570.14, -1543.46, -1623.11, -1343.67, 0.000, 0.000, 0.000, 14:04:02.686
105, -1956.14, -1970.22, -1889.96, -1608.76, 0.000, 0.000, 0.000, 14:04:02.701
106, -1710.39, -1699.87, -1623.23, -1425.46, 0.000, 0.000, 0.000, 14:04:02.702
107, -1278.62, -1269.44, -1323.42, -1146.10, 0.000, 0.000, 0.000, 14:04:02.702
108, -1559.46, -1579.91, -1602.59, -1353.35, 0.000, 0.000, 0.000, 14:04:02.702
109, -1945.33, -1974.04, -1873.42, -1604.38, 0.000, 0.000, 0.000, 14:04:02.716
110, -1695.35, -1694.99, -1632.03, -1434.87, 0.000, 0.000, 0.000, 14:04:02.717
111, -1269.73, -1247.50, -1297.20, -1142.45, 0.000, 0.000, 0.000, 14:04:02.731
112, -1552.08, -1544.21, -1632.94, -1352.66, 0.000, 0.000, 0.000, 14:04:02.731
113, -1921.80, -1913.47, -1874.14, -1600.59, 0.000, 0.000, 0.000, 14:04:02.732
114, -1684.49, -1711.06, -1634.01, -1418.99, 0.000, 0.000, 0.000, 14:04:02.732
115, -1255.43, -1261.38, -1325.22, -1132.57, 0.000, 0.000, 0.000, 14:04:02.746
116, -1545.18, -1535.56, -1597.55, -1352.00, 0.000, 0.000, 0.000, 14:04:02.746
117, -1917.78, -1915.60, -1866.69, -1600.97, 0.000, 0.000, 0.000, 14:04:02.761
118, -1673.88, -1696.56, -1678.71, -1424.16, 0.000, 0.000, 0.000, 14:04:02.761
119, -1250.24, -1259.44, -1304.08, -1135.46, 0.000, 0.000, 0.000, 14:04:02.762
120, -1550.11, -1560.65, -1620.93, -1354.68, 0.000, 0.000, 0.000, 14:04:02.762
121, -1922.26, -1947.69, -1886.92, -1598.88, 0.000, 0.000, 0.000, 14:04:02.776
122, -1686.83, -1710.28, -1661.03, -1435.78, 0.000, 0.000, 0.000, 14:04:02.776
123, -1250.80, -1271.57, -1321.06, -1133.33, 0.000, 0.000, 0.000, 14:04:02.791
124, -1542.70, -1603.72, -1616.66, -1359.48, 0.000, 0.000, 0.000, 14:04:02.791
125, -1898.53, -1891.10, -1861.23, -1579.97, 0.000, 0.000, 0.000, 14:04:02.792
126, -1653.20, -1644.45, -1646.25, -1412.35, 0.000, 0.000, 0.000, 14:04:02.792
127, -1236.73, -1264.07, -1271.01, -1141.57, 0.000, 0.000, 0.000, 14:04:02.806
128, -1549.50, -1559.10, -1624.29, -1368.83, 0.000, 0.000, 0.000, 14:04:02.807
129, -1901.17, -1920.17, -1907.06, -1603.43, 0.000, 0.000, 0.000, 14:04:02.821
130, -1652.63, -1677.96, -1608.28, -1413.07, 0.000, 0.000, 0.000, 14:04:02.821
131, -1221.61, -1260.23, -1275.41, -1136.11, 0.000, 0.000, 0.000, 14:04:02.822
132, -1552.00, -1627.35, -1568.47, -1363.84, 0.000, 0.000, 0.000, 14:04:02.822
133, -1902.79, -1937.71, -1887.44, -1608.73, 0.000, 0.000, 0.000, 14:04:02.836
134, -1657.78, -1722.66, -1689.32, -1412.45, 0.000, 0.000, 0.000, 14:04:02.836
135, -1224.41, -1245.71, -1319.58, -1133.04, 0.000, 0.000, 0.000, 14:04:02.850
136, -1557.66, -1588.40, -1616.84, -1364.97, 0.000, 0.000, 0.000, 14:04:02.851
137, -1904.93, -1971.14, -1906.02, -1598.86, 0.000, 0.000, 0.000, 14:04:02.851
138, -1643.95, -1707.99, -1618.37, -1415.18, 0.000, 0.000, 0.000, 14:04:02.851
139, -1233.37, -1249.75, -1289.63, -1132.22, 0.000, 0.000, 0.000, 14:04:02.867
140, -1553.01, -1621.42, -1613.18, -1371.99, 0.000, 0.000, 0.000, 14:04:02.867
141, -1904.61, -2008.11, -1888.30, -1599.52, 0.000, 0.000, 0.000, 14:04:02.881
142, -1649.98, -1694.09, -1647.46, -1415.86, 0.000, 0.000, 0.000, 14:04:02.881
143, -1224.50, -1272.45, -1335.34, -1136.15, 0.000, 0.000, 0.000, 14:04:02.882
144, -1544.22, -1615.96, -1611.51, -1375.21, 0.000, 0.000, 0.000, 14:04:02.882
145, -1894.82, -1988.18, -1861.78, -1593.92, 0.000, 0.000, 0.000, 14:04:02.897
146, -1642.41, -1668.52, -1592.90, -1415.43, 0.000, 0.000, 0.000, 14:04:02.897
147, -1217.26, -1260.92, -1317.04, -1136.39, 0.000, 0.000, 0.000, 14:04:02.926
148, -1550.85, -1648.55, -1619.49, -1369.97, 0.000, 0.000, 0.000, 14:04:02.926
149, -1886.16, -2000.98, -1882.86, -1591.10, 0.000, 0.000, 0.000, 14:04:02.926
150, -1629.15, -1722.37, -1641.03, -1416.09, 0.000, 0.000, 0.000, 14:04:02.927
151, -1199.05, -1277.92, -1289.89, -1135.21, 0.000, 0.000, 0.000, 14:04:02.927
152, -1532.19, -1634.91, -1655.38, -1379.14, 0.000, 0.000, 0.000, 14:04:02.927
153, -1883.30, -1978.26, -1844.00, -1596.51, 0.000, 0.000, 0.000, 14:04:02.940
154, -1617.90, -1728.90, -1618.24, -1404.97, 0.000, 0.000, 0.000, 14:04:02.942
155, -1196.23, -1279.14, -1299.56, -1132.86, 0.000, 0.000, 0.000, 14:04:02.948
156, -1535.02, -1646.68, -1630.20, -1387.11, 0.000, 0.000, 0.000, 14:04:02.948
157, -1873.04, -2021.48, -1855.57, -1590.73, 0.000, 0.000, 0.000, 14:04:02.955
158, -1604.99, -1728.46, -1629.45, -1408.87, 0.000, 0.000, 0.000, 14:04:02.956
159, -1205.84, -1296.06, -1316.02, -1136.22, 0.000, 0.000, 0.000, 14:04:02.986
160, -1542.70, -1673.03, -1640.27, -1387.65, 0.000, 0.000, 0.000, 14:04:02.986
161, -1888.01, -2017.68, -1931.52, -1601.71, 0.000, 0.000, 0.000, 14:04:02.987
162, -1605.58, -1707.42, -1682.16, -1401.16, 0.000, 0.000, 0.000, 14:04:02.987
163, -1202.63, -1288.72, -1321.55, -1127.72, 0.000, 0.000, 0.000, 14:04:02.987
164, -1547.78, -1596.83, -1645.72, -1381.66, 0.000, 0.000, 0.000, 14:04:02.987
165, -1871.01, -1963.00, -1900.62, -1592.93, 0.000, 0.000, 0.000, 14:04:02.988
166, -1605.15, -1683.19, -1645.44, -1402.36, 0.000, 0.000, 0.000, 14:04:02.988
167, -1193.66, -1263.87, -1279.50, -1133.71, 0.000, 0.000, 0.000, 14:04:03.001
168, -1556.59, -1653.82, -1654.96, -1383.08, 0.000, 0.000, 0.000, 14:04:03.001
169, -1879.99, -1942.72, -1871.81, -1600.65, 0.000, 0.000, 0.000, 14:04:03.018
170, -1610.05, -1646.44, -1608.86, -1395.13, 0.000, 0.000, 0.000, 14:04:03.018
171, -1213.78, -1292.94, -1284.06, -1129.48, 0.000, 0.000, 0.000, 14:04:03.031
172, -1572.88, -1703.01, -1664.17, -1387.86, 0.000, 0.000, 0.000, 14:04:03.031
173, -1894.84, -2013.74, -1900.42, -1594.07, 0.000, 0.000, 0.000, 14:04:03.031
174, -1612.69, -1658.52, -1591.27, -1392.27, 0.000, 0.000, 0.000, 14:04:03.031
175, -1209.03, -1263.32, -1288.87, -1127.05, 0.000, 0.000, 0.000, 14:04:03.046
176, -1579.94, -1675.90, -1672.40, -1393.84, 0.000, 0.000, 0.000, 14:04:03.046
177, -1890.73, -1978.64, -1856.51, -1587.33, 0.000, 0.000, 0.000, 14:04:03.062
178, -1619.80, -1684.05, -1665.95, -1407.20, 0.000, 0.000, 0.000, 14:04:03.062
179, -1212.94, -1291.68, -1325.40, -1142.55, 0.000, 0.000, 0.000, 14:04:03.062
180, -1590.62, -1684.05, -1682.22, -1395.17, 0.000, 0.000, 0.000, 14:04:03.062
181, -1899.81, -2024.68, -1925.97, -1604.85, 0.000, 0.000, 0.000, 14:04:03.076
182, -1613.22, -1693.88, -1605.94, -1403.04, 0.000, 0.000, 0.000, 14:04:03.076
183, -1205.29, -1248.88, -1262.11, -1135.92, 0.000, 0.000, 0.000, 14:04:03.091
184, -1574.10, -1672.62, -1619.01, -1394.78, 0.000, 0.000, 0.000, 14:04:03.092
185, -1879.79, -1965.56, -1855.75, -1585.76, 0.000, 0.000, 0.000, 14:04:03.092
186, -1606.95, -1621.51, -1599.86, -1390.63, 0.000, 0.000, 0.000, 14:04:03.092
187, -1211.31, -1237.89, -1311.65, -1137.46, 0.000, 0.000, 0.000, 14:04:03.106
188, -1592.85, -1693.01, -1663.98, -1401.47, 0.000, 0.000, 0.000, 14:04:03.106
189, -1890.41, -1967.95, -1880.15, -1597.09, 0.000, 0.000, 0.000, 14:04:03.121
190, -1606.32, -1664.00, -1661.16, -1387.59, 0.000, 0.000, 0.000, 14:04:03.121
191, -1204.29, -1261.26, -1294.96, -1128.37, 0.000, 0.000, 0.000, 14:04:03.136
192, -1588.25, -1708.35, -1652.37, -1406.14, 0.000, 0.000, 0.000, 14:04:03.136
193, -1888.50, -2005.59, -1808.42, -1596.25, 0.000, 0.000, 0.000, 14:04:03.137
194, -1603.75, -1686.74, -1594.60, -1389.73, 0.000, 0.000, 0.000, 14:04:03.137
195, -1220.71, -1274.51, -1345.88, -1133.83, 0.000, 0.000, 0.000, 14:04:03.151
196, -1602.10, -1684.33, -1653.07, -1401.74, 0.000, 0.000, 0.000, 14:04:03.151
197, -1902.00, -1999.73, -1902.25, -1595.87, 0.000, 0.000, 0.000, 14:04:03.151
198, -1610.33, -1675.12, -1644.61, -1396.41, 0.000, 0.000, 0.000, 14:04:03.151
199, -1204.34, -1240.92, -1317.65, -1132.58, 0.000, 0.000, 0.000, 14:04:03.166
200, -1607.72, -1662.50, -1648.41, -1409.43, 0.000, 0.000, 0.000, 14:04:03.167
0, -1895.27, -1926.53, -1835.14, -1597.56, 0.000, 0.000, 0.000, 14:04:03.167
1, -1607.98, -1627.06, -1596.70, -1384.67, 0.000, 0.000, 0.000, 14:04:03.181
2, -1212.04, -1249.88, -1322.20, -1126.99, 0.000, 0.000, 0.000, 14:04:03.181
3, -1604.55, -1721.51, -1659.93, -1405.43, 0.000, 0.000, 0.000, 14:04:03.196
4, -1888.98, -2007.05, -1832.53, -1600.80, 0.000, 0.000, 0.000, 14:04:03.196
5, -1595.81, -1698.46, -1568.56, -1389.76, 0.000, 0.000, 0.000, 14:04:03.197
6, -1191.35, -1295.94, -1321.05, -1128.92, 0.000, 0.000, 0.000, 14:04:03.197
7, -1606.02, -1709.72, -1680.82, -1409.68, 0.000, 0.000, 0.000, 14:04:03.212
8, -1886.89, -1974.44, -1887.17, -1593.22, 0.000, 0.000, 0.000, 14:04:03.212
9, -1570.48, -1661.57, -1597.42, -1384.35, 0.000, 0.000, 0.000, 14:04:03.227
10, -1191.53, -1304.12, -1303.15, -1126.56, 0.000, 0.000, 0.000, 14:04:03.228
11, -1546.76, -1682.57, -1699.36, -1420.45, 0.000, 0.000, 0.000, 14:04:03.228
12, -1803.02, -1987.93, -1855.96, -1577.63, 0.000, 0.000, 0.000, 14:04:03.228
13, -1460.21, -1658.75, -1595.13, -1358.59, 0.000, 0.000, 0.000, 14:04:03.242
14, -1027.30, -1328.23, -1263.16, -1098.15, 0.000, 0.000, 0.000, 14:04:03.242
15, -1374.47, -1765.77, -1654.50, -1386.90, 0.000, 0.000, 0.000, 14:04:03.256
16, -1596.13, -2050.75, -1868.56, -1552.99, 0.000, 0.000, 0.000, 14:04:03.256
17, -1278.12, -1804.53, -1581.49, -1343.33, 0.000, 0.000, 0.000, 14:04:03.256
18, -888.00, -1381.11, -1288.54, -1101.12, 0.000, 0.000, 0.000, 14:04:03.257
19, -1308.13, -1834.41, -1655.65, -1377.93, 0.000, 0.000, 0.000, 14:04:03.271
20, -1612.52, -2102.76, -1858.65, -1562.32, 0.000, 0.000, 0.000, 14:04:03.271
21, -1346.60, -1831.26, -1564.31, -1363.79, 0.000, 0.000, 0.000, 14:04:03.286
22, -1016.66, -1387.19, -1320.63, -1121.76, 0.000, 0.000, 0.000, 14:04:03.286
23, -1481.23, -1799.39, -1706.81, -1419.85, 0.000, 0.000, 0.000, 14:04:03.294
24, -1804.18, -2045.14, -1895.22, -1586.46, 0.000, 0.000, 0.000, 14:04:03.294
25, -1551.07, -1699.13, -1604.76, -1378.80, 0.000, 0.000, 0.000, 14:04:03.317
26, -1215.30, -1304.83, -1318.25, -1138.38, 0.000, 0.000, 0.000, 14:04:03.317
27, -1669.51, -1698.24, -1681.62, -1442.07, 0.000, 0.000, 0.000, 14:04:03.318
28, -1958.48, -1931.73, -1863.49, -1608.40, 0.000, 0.000, 0.000, 14:04:03.318
29, -1677.48, -1581.29, -1593.86, -1380.89, 0.000, 0.000, 0.000, 14:04:03.318
30, -1319.52, -1182.11, -1313.33, -1133.58, 0.000, 0.000, 0.000, 14:04:03.319
31, -1755.84, -1665.56, -1698.62, -1446.95, 0.000, 0.000, 0.000, 14:04:03.331
32, -2019.82, -1929.54, -1887.36, -1601.28, 0.000, 0.000, 0.000, 14:04:03.331
33, -1714.76, -1583.08, -1603.02, -1390.79, 0.000, 0.000, 0.000, 14:04:03.347
34, -1342.91, -1189.59, -1311.95, -1141.88, 0.000, 0.000, 0.000, 14:04:03.347
35, -1776.79, -1664.93, -1696.34, -1433.36, 0.000, 0.000, 0.000, 14:04:03.347
36, -2023.55, -1922.43, -1866.06, -1598.66, 0.000, 0.000, 0.000, 14:04:03.347
37, -1701.65, -1598.11, -1576.79, -1380.17, 0.000, 0.000, 0.000, 14:04:03.363
38, -1323.71, -1178.45, -1311.02, -1131.77, 0.000, 0.000, 0.000, 14:04:03.363
39, -1753.50, -1687.55, -1704.60, -1435.90, 0.000, 0.000, 0.000, 14:04:03.376
40, -1999.58, -1935.54, -1864.18, -1591.08, 0.000, 0.000, 0.000, 14:04:03.376
41, -1688.61, -1598.95, -1593.62, -1374.79, 0.000, 0.000, 0.000, 14:04:03.378
42, -1303.75, -1207.48, -1311.04, -1132.56, 0.000, 0.000, 0.000, 14:04:03.378
43, -1747.76, -1704.08, -1703.20, -1442.78, 0.000, 0.000, 0.000, 14:04:03.391
44, -1979.07, -1883.55, -1844.75, -1590.26, 0.000, 0.000, 0.000, 14:04:03.391
45, -1662.73, -1519.20, -1572.74, -1368.29, 0.000, 0.000, 0.000, 14:04:03.406
46, -1293.33, -1216.81, -1304.11, -1129.02, 0.000, 0.000, 0.000, 14:04:03.406
47, -1726.81, -1653.89, -1712.69, -1435.87, 0.000, 0.000, 0.000, 14:04:03.408
48, -1968.17, -1894.24, -1871.13, -1591.10, 0.000, 0.000, 0.000, 14:04:03.408
49, -1649.12, -1591.38, -1586.83, -1366.09, 0.000, 0.000, 0.000, 14:04:03.436
50, -1268.45, -1220.71, -1313.51, -1135.87, 0.000, 0.000, 0.000, 14:04:03.436
51, -1719.17, -1689.98, -1702.28, -1443.66, 0.000, 0.000, 0.000, 14:04:03.437
52, -1950.52, -1950.61, -1866.99, -1588.61, 0.000, 0.000, 0.000, 14:04:03.437
53, -1631.33, -1595.73, -1605.82, -1374.39, 0.000, 0.000, 0.000, 14:04:03.438
54, -1258.04, -1201.86, -1301.27, -1129.72, 0.000, 0.000, 0.000, 14:04:03.438
55, -1701.80, -1689.56, -1715.54, -1431.94, 0.000, 0.000, 0.000, 14:04:03.451
56, -1931.30, -1959.71, -1873.19, -1590.20, 0.000, 0.000, 0.000, 14:04:03.451
57, -1621.17, -1611.47, -1555.79, -1365.17, 0.000, 0.000, 0.000, 14:04:03.467
58, -1239.51, -1208.71, -1281.70, -1131.43, 0.000, 0.000, 0.000, 14:04:03.467
59, -1686.34, -1687.53, -1699.50, -1441.31, 0.000, 0.000, 0.000, 14:04:03.467
60, -1919.46, -1963.49, -1862.67, -1589.93, 0.000, 0.000, 0.000, 14:04:03.467
61, -1603.45, -1600.78, -1585.59, -1355.77, 0.000, 0.000, 0.000, 14:04:03.482
62, -1241.61, -1259.16, -1304.07, -1126.26, 0.000, 0.000, 0.000, 14:04:03.482
63, -1687.49, -1728.96, -1713.18, -1448.57, 0.000, 0.000, 0.000, 14:04:03.497
64, -1908.51, -1929.19, -1853.95, -1585.95, 0.000, 0.000, 0.000, 14:04:03.497
65, -1584.55, -1583.31, -1576.67, -1363.31, 0.000, 0.000, 0.000, 14:04:03.513
66, -1228.66, -1226.57, -1298.30, -1122.90, 0.000, 0.000, 0.000, 14:04:03.513
67, -1682.99, -1719.39, -1714.14, -1447.99, 0.000, 0.000, 0.000, 14:04:03.513
68, -1890.34, -1883.94, -1841.30, -1579.48, 0.000, 0.000, 0.000, 14:04:03.513
69, -1568.90, -1584.63, -1570.05, -1355.28, 0.000, 0.000, 0.000, 14:04:03.514
70, -1213.91, -1255.25, -1299.87, -1131.12, 0.000, 0.000, 0.000, 14:04:03.514
71, -1674.06, -1749.71, -1700.17, -1450.28, 0.000, 0.000, 0.000, 14:04:03.541
72, -1884.93, -1957.20, -1859.79, -1578.14, 0.000, 0.000, 0.000, 14:04:03.541
73, -1552.04, -1605.11, -1562.19, -1344.46, 0.000, 0.000, 0.000, 14:04:03.542
74, -1222.86, -1246.62, -1325.29, -1130.13, 0.000, 0.000, 0.000, 14:04:03.542
75, -1684.54, -1772.19, -1756.84, -1457.62, 0.000, 0.000, 0.000, 14:04:03.556
76, -1887.47, -1978.56, -1870.89, -1585.69, 0.000, 0.000, 0.000, 14:04:03.556
77, -1554.00, -1600.09, -1565.25, -1353.11, 0.000, 0.000, 0.000, 14:04:03.556
78, -1207.77, -1197.76, -1284.61, -1128.83, 0.000, 0.000, 0.000, 14:04:03.556
79, -1690.58, -1708.65, -1735.78, -1455.49, 0.000, 0.000, 0.000, 14:04:03.572
80, -1893.22, -1976.72, -1834.90, -1576.75, 0.000, 0.000, 0.000, 14:04:03.572
81, -1562.71, -1617.07, -1555.11, -1345.03, 0.000, 0.000, 0.000, 14:04:03.586
82, -1211.26, -1225.21, -1312.74, -1128.28, 0.000, 0.000, 0.000, 14:04:03.587
83, -1679.57, -1716.69, -1750.17, -1453.00, 0.000, 0.000, 0.000, 14:04:03.587
84, -1874.63, -1936.39, -1862.09, -1582.04, 0.000, 0.000, 0.000, 14:04:03.587
85, -1554.42, -1619.61, -1584.09, -1343.45, 0.000, 0.000, 0.000, 14:04:03.601
86, -1200.32, -1276.61, -1307.61, -1120.31, 0.000, 0.000, 0.000, 14:04:03.601
87, -1674.59, -1766.24, -1764.86, -1452.92, 0.000, 0.000, 0.000, 14:04:03.618
88, -1877.35, -1960.04, -1846.33, -1580.73, 0.000, 0.000, 0.000, 14:04:03.618
89, -1540.73, -1624.36, -1537.51, -1353.97, 0.000, 0.000, 0.000, 14:04:03.618
90, -1207.11, -1258.76, -1326.36, -1130.51, 0.000, 0.000, 0.000, 14:04:03.618
91, -1675.23, -1782.27, -1762.81, -1461.73, 0.000, 0.000, 0.000, 14:04:03.631
92, -1850.75, -1985.93, -1866.89, -1571.74, 0.000, 0.000, 0.000, 14:04:03.631
93, -1539.93, -1622.14, -1554.88, -1355.56, 0.000, 0.000, 0.000, 14:04:03.647
94, -1208.12, -1275.55, -1317.99, -1127.83, 0.000, 0.000, 0.000, 14:04:03.647
95, -1678.54, -1759.85, -1715.48, -1464.40, 0.000, 0.000, 0.000, 14:04:03.647
96, -1866.01, -1903.79, -1834.02, -1578.43, 0.000, 0.000, 0.000, 14:04:03.647
97, -1534.60, -1610.43, -1538.79, -1347.17, 0.000, 0.000, 0.000, 14:04:03.661
98, -1206.86, -1271.22, -1308.05, -1135.02, 0.000, 0.000, 0.000, 14:04:03.661
99, -1682.17, -1738.92, -1752.58, -1468.64, 0.000, 0.000, 0.000, 14:04:03.691
100, -1864.91, -1956.90, -1837.08, -1577.88, 0.000, 0.000, 0.000, 14:04:03.691
101, -1531.75, -1583.61, -1527.72, -1344.25, 0.000, 0.000, 0.000, 14:04:03.692
102, -1200.20, -1285.42, -1330.18, -1144.03, 0.000, 0.000, 0.000, 14:04:03.692
103, -1691.04, -1798.03, -1741.21, -1477.01, 0.000, 0.000, 0.000, 14:04:03.693
104, -1866.77, -1979.15, -1875.39, -1581.91, 0.000, 0.000, 0.000, 14:04:03.693
105, -1522.62, -1584.28, -1567.76, -1342.21, 0.000, 0.000, 0.000, 14:04:03.700
106, -1190.28, -1272.79, -1308.42, -1130.44, 0.000, 0.000, 0.000, 14:04:03.700
107, -1682.18, -1783.67, -1742.62, -1469.14, 0.000, 0.000, 0.000, 14:04:03.706
108, -1853.74, -1931.23, -1845.81, -1572.25, 0.000, 0.000, 0.000, 14:04:03.706
109, -1512.31, -1581.63, -1537.16, -1338.70, 0.000, 0.000, 0.000, 14:04:03.721
110, -1195.12, -1264.24, -1300.88, -1133.89, 0.000, 0.000, 0.000, 14:04:03.721
111, -1680.40, -1763.57, -1733.63, -1472.16, 0.000, 0.000, 0.000, 14:04:03.736
112, -1855.49, -1962.87, -1849.54, -1575.71, 0.000, 0.000, 0.000, 14:04:03.736
113, -1516.79, -1596.32, -1540.50, -1336.22, 0.000, 0.000, 0.000, 14:04:03.737
114, -1202.67, -1263.71, -1296.14, -1142.60, 0.000, 0.000, 0.000, 14:04:03.737
115, -1692.13, -1783.15, -1734.28, -1465.06, 0.000, 0.000, 0.000, 14:04:03.751
116, -1871.28, -1951.66, -1834.21, -1577.83, 0.000, 0.000, 0.000, 14:04:03.751
117, -1521.71, -1565.62, -1558.85, -1335.92, 0.000, 0.000, 0.000, 14:04:03.766
118, -1197.67, -1261.61, -1293.59, -1130.20, 0.000, 0.000, 0.000, 14:04:03.766
119, -1706.31, -1772.80, -1730.51, -1482.88, 0.000, 0.000, 0.000, 14:04:03.767
120, -1868.19, -1956.37, -1856.72, -1575.76, 0.000, 0.000, 0.000, 14:04:03.768
121, -1519.82, -1579.58, -1560.01, -1331.50, 0.000, 0.000, 0.000, 14:04:03.781
122, -1206.82, -1254.36, -1315.07, -1132.39, 0.000, 0.000, 0.000, 14:04:03.781
123, -1707.34, -1811.04, -1786.61, -1490.15, 0.000, 0.000, 0.000, 14:04:03.796
124, -1874.72, -1920.98, -1855.04, -1572.82, 0.000, 0.000, 0.000, 14:04:03.797
125, -1522.82, -1557.66, -1547.48, -1334.86, 0.000, 0.000, 0.000, 14:04:03.797
126, -1217.06, -1272.42, -1324.05, -1134.40, 0.000, 0.000, 0.000, 14:04:03.797
127, -1716.40, -1825.79, -1776.52, -1488.22, 0.000, 0.000, 0.000, 14:04:03.811
128, -1872.43, -1933.69, -1854.94, -1571.05, 0.000, 0.000, 0.000, 14:04:03.812
129, -1526.62, -1559.64, -1507.68, -1333.50, 0.000, 0.000, 0.000, 14:04:03.826
130, -1206.50, -1252.90, -1285.58, -1129.55, 0.000, 0.000, 0.000, 14:04:03.826
131, -1711.06, -1830.01, -1715.01, -1481.56, 0.000, 0.000, 0.000, 14:04:03.827
132, -1862.77, -1931.00, -1833.01, -1575.17, 0.000, 0.000, 0.000, 14:04:03.827
133, -1519.92, -1565.03, -1534.11, -1336.36, 0.000, 0.000, 0.000, 14:04:03.841
134, -1221.76, -1268.42, -1321.20, -1131.71, 0.000, 0.000, 0.000, 14:04:03.841
135, -1722.71, -1810.02, -1770.56, -1475.40, 0.000, 0.000, 0.000, 14:04:03.856
136, -1871.28, -1947.28, -1852.88, -1571.96, 0.000, 0.000, 0.000, 14:04:03.856
137, -1509.85, -1548.77, -1535.24, -1322.85, 0.000, 0.000, 0.000, 14:04:03.871
138, -1204.59, -1279.35, -1317.59, -1135.40, 0.000, 0.000, 0.000, 14:04:03.871
139, -1708.81, -1789.34, -1767.50, -1486.31, 0.000, 0.000, 0.000, 14:04:03.872
140, -1871.35, -1959.75, -1854.42, -1569.45, 0.000, 0.000, 0.000, 14:04:03.872
141, -1501.76, -1565.24, -1533.70, -1323.79, 0.000, 0.000, 0.000, 14:04:03.886
142, -1202.71, -1282.75, -1317.21, -1132.65, 0.000, 0.000, 0.000, 14:04:03.886
143, -1719.46, -1814.87, -1774.39, -1491.54, 0.000, 0.000, 0.000, 14:04:03.887
144, -1855.82, -1964.15, -1840.92, -1575.29, 0.000, 0.000, 0.000, 14:04:03.887
145, -1505.96, -1554.40, -1492.34, -1328.37, 0.000, 0.000, 0.000, 14:04:03.901
146, -1207.57, -1238.08, -1289.71, -1135.15, 0.000, 0.000, 0.000, 14:04:03.901
147, -1718.26, -1816.24, -1782.07, -1499.14, 0.000, 0.000, 0.000, 14:04:03.917
148, -1860.69, -1942.24, -1851.96, -1572.42, 0.000, 0.000, 0.000, 14:04:03.918
149, -1495.72, -1570.94, -1545.03, -1322.17, 0.000, 0.000, 0.000, 14:04:03.918
150, -1203.83, -1250.30, -1333.39, -1131.05, 0.000, 0.000, 0.000, 14:04:03.918
151, -1724.05, -1797.22, -1750.16, -1492.54, 0.000, 0.000, 0.000, 14:04:03.931
152, -1853.93, -1972.65, -1875.72, -1570.95, 0.000, 0.000, 0.000, 14:04:03.931
153, -1501.58, -1581.41, -1539.47, -1321.18, 0.000, 0.000, 0.000, 14:04:03.946
154, -1205.86, -1254.81, -1313.36, -1132.83, 0.000, 0.000, 0.000, 14:04:03.946
155, -1722.75, -1825.35, -1748.58, -1496.77, 0.000, 0.000, 0.000, 14:04:03.946
156, -1861.87, -1931.83, -1838.57, -1575.66, 0.000, 0.000, 0.000, 14:04:03.946
157, -1496.82, -1568.99, -1518.81, -1311.01, 0.000, 0.000, 0.000, 14:04:03.961
158, -1213.15, -1267.52, -1328.28, -1137.56, 0.000, 0.000, 0.000, 14:04:03.961
159, -1733.65, -1811.04, -1778.39, -1496.37, 0.000, 0.000, 0.000, 14:04:03.976
160, -1849.39, -1930.24, -1803.31, -1569.34, 0.000, 0.000, 0.000, 14:04:03.976
161, -1491.63, -1509.70, -1519.76, -1314.39, 0.000, 0.000, 0.000, 14:04:03.977
162, -1217.03, -1276.23, -1332.16, -1134.67, 0.000, 0.000, 0.000, 14:04:03.977
163, -1739.34, -1822.34, -1757.28, -1497.67, 0.000, 0.000, 0.000, 14:04:03.991
164, -1869.96, -1974.22, -1865.42, -1568.57, 0.000, 0.000, 0.000, 14:04:03.991
165, -1499.22, -1551.09, -1516.29, -1317.02, 0.000, 0.000, 0.000, 14:04:04.006
166, -1215.21, -1283.78, -1328.87, -1135.88, 0.000, 0.000, 0.000, 14:04:04.006
167, -1741.88, -1806.85, -1783.07, -1498.40, 0.000, 0.000, 0.000, 14:04:04.006
168, -1866.51, -1920.74, -1830.00, -1567.03, 0.000, 0.000, 0.000, 14:04:04.006
169, -1503.22, -1565.17, -1506.01, -1322.02, 0.000, 0.000, 0.000, 14:04:04.036
170, -1227.16, -1278.30, -1334.17, -1146.55, 0.000, 0.000, 0.000, 14:04:04.036
171, -1750.45, -1846.23, -1779.16, -1509.15, 0.000, 0.000, 0.000, 14:04:04.037
172, -1867.82, -1925.90, -1833.11, -1564.06, 0.000, 0.000, 0.000, 14:04:04.037
173, -1500.57, -1575.25, -1525.18, -1311.93, 0.000, 0.000, 0.000, 14:04:04.037
174, -1221.39, -1272.86, -1324.77, -1136.05, 0.000, 0.000, 0.000, 14:04:04.038
175, -1744.17, -1831.90, -1788.45, -1500.30, 0.000, 0.000, 0.000, 14:04:04.051
176, -1856.67, -1936.53, -1832.82, -1563.52, 0.000, 0.000, 0.000, 14:04:04.051
177, -1488.35, -1556.26, -1508.02, -1311.20, 0.000, 0.000, 0.000, 14:04:04.097
178, -1209.99, -1262.57, -1321.16, -1143.57, 0.000, 0.000, 0.000, 14:04:04.097
179, -1729.75, -1804.99, -1776.21, -1504.15, 0.000, 0.000, 0.000, 14:04:04.097
180, -1837.83, -1901.52, -1834.78, -1561.38, 0.000, 0.000, 0.000, 14:04:04.097
181, -1468.84, -1513.03, -1500.02, -1312.66, 0.000, 0.000, 0.000, 14:04:04.097
182, -1195.25, -1283.70, -1311.52, -1135.46, 0.000, 0.000, 0.000, 14:04:04.097
183, -1714.91, -1851.43, -1776.14, -1503.87, 0.000, 0.000, 0.000, 14:04:04.098
184, -1818.63, -1971.37, -1809.06, -1548.11, 0.000, 0.000, 0.000, 14:04:04.098
185, -1447.26, -1575.47, -1486.46, -1313.45, 0.000, 0.000, 0.000, 14:04:04.100
186, -1177.74, -1301.86, -1330.17, -1146.45, 0.000, 0.000, 0.000, 14:04:04.100
187, -1674.02, -1861.93, -1793.89, -1497.13, 0.000, 0.000, 0.000, 14:04:04.112
188, -1754.96, -1972.25, -1821.36, -1552.70, 0.000, 0.000, 0.000, 14:04:04.112
189, -1352.79, -1570.47, -1493.26, -1281.56, 0.000, 0.000, 0.000, 14:04:04.126
190, -1034.60, -1316.94, -1321.20, -1126.47, 0.000, 0.000, 0.000, 14:04:04.126
191, -1516.01, -1914.47, -1760.41, -1485.20, 0.000, 0.000, 0.000, 14:04:04.127
192, -1563.48, -2051.31, -1818.01, -1531.83, 0.000, 0.000, 0.000, 14:04:04.127
193, -1159.76, -1656.47, -1491.00, -1274.67, 0.000, 0.000, 0.000, 14:04:04.141
194, -895.96, -1429.04, -1314.79, -1118.91, 0.000, 0.000, 0.000, 14:04:04.142
195, -1449.57, -1994.28, -1786.06, -1494.31, 0.000, 0.000, 0.000, 14:04:04.171
196, -1574.85, -2057.37, -1812.88, -1538.32, 0.000, 0.000, 0.000, 14:04:04.171
197, -1232.46, -1667.98, -1488.69, -1278.15, 0.000, 0.000, 0.000, 14:04:04.172
198, -1028.16, -1411.40, -1326.08, -1137.41, 0.000, 0.000, 0.000, 14:04:04.172
199, -1618.66, -1950.93, -1793.01, -1510.38, 0.000, 0.000, 0.000, 14:04:04.172
200, -1746.72, -1992.77, -1823.86, -1564.19, 0.000, 0.000, 0.000, 14:04:04.172
0, -1415.69, -1578.27, -1514.60, -1303.86, 0.000, 0.000, 0.000, 14:04:04.173
1, -1222.49, -1310.38, -1342.42, -1158.03, 0.000, 0.000, 0.000, 14:04:04.193
2, -1796.90, -1882.93, -1807.21, -1527.67, 0.000, 0.000, 0.000, 14:04:04.193
3, -1904.25, -1938.80, -1827.52, -1571.00, 0.000, 0.000, 0.000, 14:04:04.201
4, -1549.77, -1491.04, -1511.81, -1319.66, 0.000, 0.000, 0.000, 14:04:04.201
5, -1320.90, -1227.48, -1356.90, -1159.45, 0.000, 0.000, 0.000, 14:04:04.202
6, -1884.61, -1768.33, -1812.13, -1537.60, 0.000, 0.000, 0.000, 14:04:04.202
7, -1967.65, -1867.12, -1827.18, -1571.27, 0.000, 0.000, 0.000, 14:04:04.217
8, -1587.68, -1447.98, -1510.26, -1303.39, 0.000, 0.000, 0.000, 14:04:04.217
9, -1358.02, -1218.47, -1365.23, -1164.13, 0.000, 0.000, 0.000, 14:04:04.246
10, -1901.19, -1815.07, -1773.78, -1534.22, 0.000, 0.000, 0.000, 14:04:04.246
11, -1963.18, -1862.77, -1844.60, -1565.15, 0.000, 0.000, 0.000, 14:04:04.247
12, -1584.11, -1497.94, -1487.22, -1306.29, 0.000, 0.000, 0.000, 14:04:04.247
13, -1349.18, -1233.39, -1348.39, -1158.75, 0.000, 0.000, 0.000, 14:04:04.247
14, -1895.45, -1805.09, -1844.70, -1530.63, 0.000, 0.000, 0.000, 14:04:04.247
15, -1947.09, -1835.95, -1808.79, -1563.85, 0.000, 0.000, 0.000, 14:04:04.248
16, -1560.91, -1439.32, -1513.08, -1290.62, 0.000, 0.000, 0.000, 14:04:04.248
17, -1332.26, -1236.81, -1365.74, -1152.70, 0.000, 0.000, 0.000, 14:04:04.262
18, -1864.81, -1804.16, -1820.03, -1524.38, 0.000, 0.000, 0.000, 14:04:04.262
19, -1928.00, -1885.35, -1805.16, -1566.67, 0.000, 0.000, 0.000, 14:04:04.276
20, -1542.63, -1463.77, -1483.65, -1297.23, 0.000, 0.000, 0.000, 14:04:04.276
21, -1316.32, -1234.44, -1343.56, -1156.98, 0.000, 0.000, 0.000, 14:04:04.291
22, -1855.74, -1831.37, -1842.59, -1526.06, 0.000, 0.000, 0.000, 14:04:04.291
23, -1923.65, -1860.89, -1807.87, -1556.16, 0.000, 0.000, 0.000, 14:04:04.291
24, -1518.04, -1452.13, -1466.83, -1284.41, 0.000, 0.000, 0.000, 14:04:04.291
25, -1302.13, -1271.30, -1310.73, -1154.03, 0.000, 0.000, 0.000, 14:04:04.306
26, -1842.97, -1867.92, -1800.19, -1532.48, 0.000, 0.000, 0.000, 14:04:04.306
27, -1903.66, -1856.44, -1798.33, -1554.22, 0.000, 0.000, 0.000, 14:04:04.321
28, -1505.88, -1473.41, -1484.20, -1289.06, 0.000, 0.000, 0.000, 14:04:04.321
29, -1283.24, -1282.89, -1343.51, -1157.32, 0.000, 0.000, 0.000, 14:04:04.321
30, -1836.72, -1835.68, -1840.28, -1534.89, 0.000, 0.000, 0.000, 14:04:04.321
31, -1876.20, -1911.92, -1817.53, -1551.97, 0.000, 0.000, 0.000, 14:04:04.335
32, -1491.48, -1492.73, -1463.42, -1288.88, 0.000, 0.000, 0.000, 14:04:04.336
33, -1276.57, -1284.60, -1368.29, -1158.62, 0.000, 0.000, 0.000, 14:04:04.351
34, -1820.96, -1871.79, -1779.52, -1538.43, 0.000, 0.000, 0.000, 14:04:04.351
35, -1869.93, -1890.27, -1839.84, -1554.20, 0.000, 0.000, 0.000, 14:04:04.351
36, -1471.64, -1508.28, -1493.10, -1287.47, 0.000, 0.000, 0.000, 14:04:04.352
37, -1253.39, -1240.19, -1313.14, -1157.48, 0.000, 0.000, 0.000, 14:04:04.381
38, -1794.66, -1862.98, -1767.04, -1532.83, 0.000, 0.000, 0.000, 14:04:04.381
39, -1847.72, -1876.15, -1757.60, -1552.12, 0.000, 0.000, 0.000, 14:04:04.381
40, -1452.58, -1487.37, -1446.74, -1279.22, 0.000, 0.000, 0.000, 14:04:04.382
41, -1251.93, -1270.95, -1333.85, -1152.03, 0.000, 0.000, 0.000, 14:04:04.383
42, -1793.46, -1822.28, -1798.74, -1531.39, 0.000, 0.000, 0.000, 14:04:04.383
43, -1850.25, -1899.59, -1771.23, -1560.05, 0.000, 0.000, 0.000, 14:04:04.396
44, -1450.61, -1468.70, -1471.57, -1278.21, 0.000, 0.000, 0.000, 14:04:04.396
45, -1256.84, -1293.97, -1365.72, -1152.39, 0.000, 0.000, 0.000, 14:04:04.412
46, -1804.08, -1861.90, -1822.04, -1533.58, 0.000, 0.000, 0.000, 14:04:04.412
47, -1845.66, -1908.27, -1842.43, -1546.24, 0.000, 0.000, 0.000, 14:04:04.412
48, -1450.06, -1456.93, -1531.10, -1281.67, 0.000, 0.000, 0.000, 14:04:04.412
49, -1247.54, -1286.56, -1379.32, -1157.42, 0.000, 0.000, 0.000, 14:04:04.441
50, -1815.41, -1879.73, -1836.98, -1545.81, 0.000, 0.000, 0.000, 14:04:04.441
51, -1836.75, -1891.43, -1767.65, -1546.81, 0.000, 0.000, 0.000, 14:04:04.441
52, -1444.63, -1468.90, -1466.36, -1284.63, 0.000, 0.000, 0.000, 14:04:04.441
53, -1266.16, -1310.27, -1385.84, -1160.08, 0.000, 0.000, 0.000, 14:04:04.442
54, -1814.95, -1891.67, -1852.00, -1538.15, 0.000, 0.000, 0.000, 14:04:04.442
55, -1842.41, -1906.01, -1849.85, -1554.00, 0.000, 0.000, 0.000, 14:04:04.456
56, -1435.76, -1468.43, -1480.38, -1275.93, 0.000, 0.000, 0.000, 14:04:04.457
57, -1251.69, -1292.35, -1363.80, -1165.09, 0.000, 0.000, 0.000, 14:04:04.471
58, -1803.81, -1871.55, -1837.96, -1545.40, 0.000, 0.000, 0.000, 14:04:04.471
59, -1827.18, -1894.92, -1803.95, -1547.97, 0.000, 0.000, 0.000, 14:04:04.472
60, -1424.21, -1465.69, -1460.33, -1272.95, 0.000, 0.000, 0.000, 14:04:04.472
61, -1239.26, -1302.56, -1347.56, -1162.19, 0.000, 0.000, 0.000, 14:04:04.486
62, -1808.53, -1902.77, -1837.07, -1544.26, 0.000, 0.000, 0.000, 14:04:04.486
63, -1830.83, -1886.45, -1791.76, -1553.28, 0.000, 0.000, 0.000, 14:04:04.501
64, -1435.63, -1481.24, -1451.46, -1269.48, 0.000, 0.000, 0.000, 14:04:04.501
65, -1250.39, -1298.95, -1351.91, -1163.81, 0.000, 0.000, 0.000, 14:04:04.501
66, -1803.45, -1891.91, -1825.98, -1546.66, 0.000, 0.000, 0.000, 14:04:04.501
67, -1831.93, -1902.07, -1797.15, -1550.84, 0.000, 0.000, 0.000, 14:04:04.517
68, -1428.26, -1476.99, -1461.92, -1280.01, 0.000, 0.000, 0.000, 14:04:04.517
69, -1266.02, -1318.28, -1358.58, -1168.27, 0.000, 0.000, 0.000, 14:04:04.531
70, -1820.39, -1854.92, -1841.62, -1547.64, 0.000, 0.000, 0.000, 14:04:04.531
71, -1842.52, -1894.67, -1804.01, -1550.16, 0.000, 0.000, 0.000, 14:04:04.532
72, -1427.22, -1484.21, -1469.73, -1269.05, 0.000, 0.000, 0.000, 14:04:04.532
73, -1260.37, -1282.25, -1358.79, -1168.38, 0.000, 0.000, 0.000, 14:04:04.547
74, -1817.93, -1875.27, -1829.80, -1549.23, 0.000, 0.000, 0.000, 14:04:04.547
75, -1831.03, -1911.51, -1798.50, -1543.13, 0.000, 0.000, 0.000, 14:04:04.561
76, -1421.30, -1464.42, -1455.90, -1271.19, 0.000, 0.000, 0.000, 14:04:04.561
77, -1246.90, -1284.55, -1352.25, -1170.98, 0.000, 0.000, 0.000, 14:04:04.561
78, -1805.53, -1907.20, -1837.66, -1553.49, 0.000, 0.000, 0.000, 14:04:04.562
79, -1827.94, -1917.75, -1794.45, -1547.38, 0.000, 0.000, 0.000, 14:04:04.577
80, -1425.89, -1479.16, -1455.37, -1266.67, 0.000, 0.000, 0.000, 14:04:04.577
81, -1264.99, -1344.39, -1372.22, -1167.12, 0.000, 0.000, 0.000, 14:04:04.591
82, -1807.64, -1892.81, -1818.04, -1552.30, 0.000, 0.000, 0.000, 14:04:04.591
83, -1820.72, -1913.65, -1806.56, -1545.63, 0.000, 0.000, 0.000, 14:04:04.592
84, -1413.69, -1444.70, -1441.68, -1263.71, 0.000, 0.000, 0.000, 14:04:04.592
85, -1254.08, -1326.66, -1361.16, -1175.81, 0.000, 0.000, 0.000, 14:04:04.606
86, -1803.64, -1879.37, -1838.58, -1546.70, 0.000, 0.000, 0.000, 14:04:04.606
87, -1815.35, -1918.67, -1796.39, -1547.78, 0.000, 0.000, 0.000, 14:04:04.621
88, -1393.31, -1477.54, -1451.57, -1267.29, 0.000, 0.000, 0.000, 14:04:04.621
89, -1265.40, -1339.18, -1370.33, -1171.05, 0.000, 0.000, 0.000, 14:04:04.621
90, -1793.33, -1937.75, -1817.80, -1544.13, 0.000, 0.000, 0.000, 14:04:04.621
91, -1795.58, -1937.57, -1792.73, -1546.77, 0.000, 0.000, 0.000, 14:04:04.651
92, -1351.44, -1460.92, -1451.93, -1248.50, 0.000, 0.000, 0.000, 14:04:04.651
93, -1198.34, -1334.29, -1354.54, -1163.52, 0.000, 0.000, 0.000, 14:04:04.652
94, -1731.08, -1942.58, -1826.22, -1538.46, 0.000, 0.000, 0.000, 14:04:04.652
95, -1677.71, -1934.99, -1767.90, -1512.60, 0.000, 0.000, 0.000, 14:04:04.652
96, -1210.83, -1517.79, -1426.50, -1232.84, 0.000, 0.000, 0.000, 14:04:04.653
97, -1026.24, -1400.68, -1353.38, -1141.99, 0.000, 0.000, 0.000, 14:04:04.667
98, -1552.97, -1999.52, -1813.26, -1520.75, 0.000, 0.000, 0.000, 14:04:04.667
99, -1510.12, -2023.27, -1759.53, -1505.91, 0.000, 0.000, 0.000, 14:04:04.681
100, -1124.07, -1620.92, -1433.19, -1236.79, 0.000, 0.000, 0.000, 14:04:04.681
