%OpenBCI Raw EEG Data
%
%Sample Rate = 200.0 Hz
%First Column = SampleIndex
%Last Column = Timestamp 
%Other Columns = EEG data in microvolts followed by Accel Data (in G) interleaved with Aux Data
0, -2005.86, -2267.66, -2505.97, -2129.55, 0.000, 0.000, 0.000, 14:11:50.647
1, -1979.49, -2223.35, -2458.68, -2074.80, 0.000, 0.000, 0.000, 14:11:50.662
2, -1681.49, -1894.62, -2184.55, -1827.97, 0.000, 0.000, 0.000, 14:11:50.662
3, -1613.96, -1818.41, -2149.83, -1792.92, 0.000, 0.000, 0.000, 14:11:50.679
4, -2014.70, -2265.39, -2511.68, -2130.23, 0.000, 0.000, 0.000, 14:11:50.679
5, -1981.66, -2223.65, -2455.48, -2082.59, 0.000, 0.000, 0.000, 14:11:50.679
6, -1680.21, -1890.13, -2183.03, -1822.03, 0.000, 0.000, 0.000, 14:11:50.679
7, -1601.92, -1813.22, -2136.65, -1789.22, 0.000, 0.000, 0.000, 14:11:50.708
8, -2008.75, -2268.12, -2510.42, -2125.73, 0.000, 0.000, 0.000, 14:11:50.708
9, -1988.94, -2229.27, -2461.05, -2074.96, 0.000, 0.000, 0.000, 14:11:50.708
10, -1672.94, -1874.69, -2172.93, -1823.54, 0.000, 0.000, 0.000, 14:11:50.709
11, -1597.76, -1806.05, -2134.23, -1782.93, 0.000, 0.000, 0.000, 14:11:50.709
12, -2014.38, -2264.62, -2502.66, -2121.84, 0.000, 0.000, 0.000, 14:11:50.709
13, -1974.94, -2212.75, -2447.93, -2068.37, 0.000, 0.000, 0.000, 14:11:50.722
14, -1673.91, -1878.62, -2167.00, -1813.48, 0.000, 0.000, 0.000, 14:11:50.722
15, -1585.64, -1804.45, -2128.83, -1780.00, 0.000, 0.000, 0.000, 14:11:50.737
16, -1996.00, -2264.60, -2503.15, -2111.74, 0.000, 0.000, 0.000, 14:11:50.737
17, -1970.49, -2218.86, -2444.31, -2059.70, 0.000, 0.000, 0.000, 14:11:50.737
18, -1649.98, -1884.10, -2160.37, -1808.22, 0.000, 0.000, 0.000, 14:11:50.737
19, -1573.95, -1824.31, -2119.88, -1774.75, 0.000, 0.000, 0.000, 14:11:50.767
20, -1975.73, -2285.12, -2493.34, -2109.82, 0.000, 0.000, 0.000, 14:11:50.767
21, -1932.51, -2214.79, -2442.96, -2053.73, 0.000, 0.000, 0.000, 14:11:50.768
22, -1613.03, -1878.72, -2168.67, -1803.80, 0.000, 0.000, 0.000, 14:11:50.768
23, -1522.76, -1868.57, -2129.77, -1764.28, 0.000, 0.000, 0.000, 14:11:50.769
24, -1904.22, -2306.63, -2495.78, -2108.38, 0.000, 0.000, 0.000, 14:11:50.769
25, -1836.78, -2243.68, -2433.26, -2051.95, 0.000, 0.000, 0.000, 14:11:50.782
26, -1512.96, -1941.90, -2154.33, -1792.49, 0.000, 0.000, 0.000, 14:11:50.782
27, -1416.60, -1908.18, -2126.96, -1763.84, 0.000, 0.000, 0.000, 14:11:50.812
28, -1797.62, -2362.84, -2493.45, -2095.73, 0.000, 0.000, 0.000, 14:11:50.812
29, -1743.55, -2309.49, -2420.38, -2044.45, 0.000, 0.000, 0.000, 14:11:50.812
30, -1451.20, -1976.73, -2159.67, -1784.18, 0.000, 0.000, 0.000, 14:11:50.813
31, -1411.89, -1919.72, -2143.96, -1771.07, 0.000, 0.000, 0.000, 14:11:50.813
32, -1834.25, -2362.90, -2502.78, -2093.52, 0.000, 0.000, 0.000, 14:11:50.813
33, -1825.27, -2290.05, -2437.14, -2040.15, 0.000, 0.000, 0.000, 14:11:50.814
34, -1562.66, -1929.98, -2158.72, -1794.82, 0.000, 0.000, 0.000, 14:11:50.814
35, -1531.22, -1856.29, -2138.24, -1780.87, 0.000, 0.000, 0.000, 14:11:50.828
36, -1962.62, -2286.58, -2498.74, -2103.91, 0.000, 0.000, 0.000, 14:11:50.828
37, -1945.69, -2219.31, -2439.82, -2047.76, 0.000, 0.000, 0.000, 14:11:50.843
38, -1669.11, -1862.13, -2161.67, -1799.76, 0.000, 0.000, 0.000, 14:11:50.843
39, -1625.25, -1799.58, -2143.68, -1785.23, 0.000, 0.000, 0.000, 14:11:50.858
40, -2040.04, -2235.50, -2509.04, -2112.54, 0.000, 0.000, 0.000, 14:11:50.858
41, -2008.89, -2171.00, -2436.90, -2050.17, 0.000, 0.000, 0.000, 14:11:50.858
42, -1705.58, -1818.09, -2154.20, -1794.97, 0.000, 0.000, 0.000, 14:11:50.858
43, -1666.00, -1783.34, -2142.78, -1787.87, 0.000, 0.000, 0.000, 14:11:50.872
44, -2080.18, -2229.09, -2505.17, -2134.07, 0.000, 0.000, 0.000, 14:11:50.872
45, -2036.26, -2162.46, -2436.51, -2059.34, 0.000, 0.000, 0.000, 14:11:50.888
46, -1723.39, -1807.48, -2151.98, -1802.81, 0.000, 0.000, 0.000, 14:11:50.888
47, -1679.38, -1783.27, -2138.87, -1794.14, 0.000, 0.000, 0.000, 14:11:50.902
48, -2092.40, -2242.38, -2515.75, -2128.53, 0.000, 0.000, 0.000, 14:11:50.902
49, -2041.49, -2168.16, -2430.98, -2062.02, 0.000, 0.000, 0.000, 14:11:50.917
50, -1724.73, -1818.78, -2143.39, -1812.36, 0.000, 0.000, 0.000, 14:11:50.917
51, -1670.50, -1778.39, -2141.80, -1797.56, 0.000, 0.000, 0.000, 14:11:50.917
52, -2076.29, -2227.29, -2510.83, -2126.68, 0.000, 0.000, 0.000, 14:11:50.917
53, -2026.44, -2165.17, -2440.19, -2062.85, 0.000, 0.000, 0.000, 14:11:50.918
54, -1704.75, -1816.59, -2145.79, -1797.20, 0.000, 0.000, 0.000, 14:11:50.918
55, -1654.95, -1790.22, -2135.17, -1788.79, 0.000, 0.000, 0.000, 14:11:50.933
56, -2063.44, -2241.44, -2499.50, -2120.84, 0.000, 0.000, 0.000, 14:11:50.933
57, -2001.61, -2160.26, -2427.28, -2052.42, 0.000, 0.000, 0.000, 14:11:50.947
58, -1689.37, -1818.85, -2136.36, -1790.91, 0.000, 0.000, 0.000, 14:11:50.948
59, -1641.80, -1795.12, -2143.02, -1795.72, 0.000, 0.000, 0.000, 14:11:50.948
60, -2048.42, -2243.21, -2507.01, -2119.67, 0.000, 0.000, 0.000, 14:11:50.948
61, -1992.94, -2166.49, -2430.73, -2051.37, 0.000, 0.000, 0.000, 14:11:50.962
62, -1678.56, -1834.78, -2145.27, -1796.06, 0.000, 0.000, 0.000, 14:11:50.962
63, -1635.12, -1820.70, -2144.17, -1798.36, 0.000, 0.000, 0.000, 14:11:50.978
64, -2025.60, -2273.46, -2504.94, -2117.30, 0.000, 0.000, 0.000, 14:11:50.978
65, -1978.14, -2204.61, -2426.23, -2053.15, 0.000, 0.000, 0.000, 14:11:50.978
66, -1648.53, -1854.77, -2147.47, -1800.25, 0.000, 0.000, 0.000, 14:11:50.978
67, -1599.01, -1820.01, -2150.23, -1804.45, 0.000, 0.000, 0.000, 14:11:50.992
68, -1980.88, -2280.02, -2498.16, -2108.13, 0.000, 0.000, 0.000, 14:11:50.992
69, -1886.28, -2234.30, -2418.97, -2045.84, 0.000, 0.000, 0.000, 14:11:51.008
70, -1541.15, -1876.17, -2141.68, -1777.84, 0.000, 0.000, 0.000, 14:11:51.008
71, -1457.93, -1885.09, -2139.35, -1771.63, 0.000, 0.000, 0.000, 14:11:51.008
72, -1803.60, -2346.79, -2496.20, -2092.99, 0.000, 0.000, 0.000, 14:11:51.008
73, -1697.33, -2300.42, -2412.97, -2031.52, 0.000, 0.000, 0.000, 14:11:51.022
74, -1387.59, -1963.47, -2136.65, -1773.64, 0.000, 0.000, 0.000, 14:11:51.022
75, -1357.80, -1969.32, -2151.30, -1785.87, 0.000, 0.000, 0.000, 14:11:51.053
76, -1751.95, -2395.92, -2494.77, -2113.02, 0.000, 0.000, 0.000, 14:11:51.053
77, -1723.67, -2318.75, -2421.23, -2020.82, 0.000, 0.000, 0.000, 14:11:51.053
78, -1440.77, -1954.95, -2144.79, -1769.88, 0.000, 0.000, 0.000, 14:11:51.053
79, -1439.37, -1946.50, -2157.01, -1779.19, 0.000, 0.000, 0.000, 14:11:51.054
80, -1875.63, -2364.27, -2512.25, -2108.82, 0.000, 0.000, 0.000, 14:11:51.054
81, -1843.40, -2260.52, -2422.61, -2028.73, 0.000, 0.000, 0.000, 14:11:51.055
82, -1570.55, -1886.44, -2142.98, -1785.14, 0.000, 0.000, 0.000, 14:11:51.055
83, -1564.38, -1842.75, -2146.55, -1791.56, 0.000, 0.000, 0.000, 14:11:51.068
84, -2005.49, -2277.31, -2513.03, -2116.94, 0.000, 0.000, 0.000, 14:11:51.068
85, -1978.49, -2186.46, -2433.94, -2045.92, 0.000, 0.000, 0.000, 14:11:51.082
86, -1697.62, -1840.17, -2146.35, -1795.17, 0.000, 0.000, 0.000, 14:11:51.082
87, -1682.14, -1799.03, -2156.06, -1806.28, 0.000, 0.000, 0.000, 14:11:51.097
88, -2100.20, -2234.56, -2509.64, -2133.07, 0.000, 0.000, 0.000, 14:11:51.097
89, -2044.22, -2130.43, -2431.92, -2053.65, 0.000, 0.000, 0.000, 14:11:51.098
90, -1748.59, -1803.38, -2155.67, -1799.34, 0.000, 0.000, 0.000, 14:11:51.098
91, -1732.10, -1797.94, -2164.09, -1826.89, 0.000, 0.000, 0.000, 14:11:51.112
92, -2128.97, -2223.26, -2517.90, -2133.54, 0.000, 0.000, 0.000, 14:11:51.112
93, -2066.29, -2137.84, -2435.40, -2056.35, 0.000, 0.000, 0.000, 14:11:51.128
94, -1768.67, -1801.59, -2154.51, -1804.25, 0.000, 0.000, 0.000, 14:11:51.128
95, -1743.02, -1797.66, -2165.42, -1820.35, 0.000, 0.000, 0.000, 14:11:51.128
96, -2123.93, -2233.64, -2515.49, -2134.34, 0.000, 0.000, 0.000, 14:11:51.128
97, -2062.07, -2144.25, -2429.42, -2068.47, 0.000, 0.000, 0.000, 14:11:51.142
98, -1748.50, -1807.32, -2154.84, -1815.29, 0.000, 0.000, 0.000, 14:11:51.143
99, -1704.39, -1787.49, -2151.21, -1806.53, 0.000, 0.000, 0.000, 14:11:51.157
100, -2095.16, -2232.42, -2502.91, -2131.47, 0.000, 0.000, 0.000, 14:11:51.158
101, -2030.27, -2155.77, -2418.02, -2054.27, 0.000, 0.000, 0.000, 14:11:51.158
102, -1715.22, -1782.72, -2130.10, -1787.31, 0.000, 0.000, 0.000, 14:11:51.158
103, -1688.98, -1790.79, -2149.05, -1801.76, 0.000, 0.000, 0.000, 14:11:51.172
104, -2082.64, -2227.91, -2507.05, -2123.57, 0.000, 0.000, 0.000, 14:11:51.174
105, -2002.80, -2133.01, -2415.34, -2032.90, 0.000, 0.000, 0.000, 14:11:51.187
106, -1700.31, -1811.49, -2143.71, -1786.18, 0.000, 0.000, 0.000, 14:11:51.187
107, -1685.98, -1815.06, -2160.45, -1799.04, 0.000, 0.000, 0.000, 14:11:51.187
108, -2062.73, -2214.69, -2502.84, -2126.80, 0.000, 0.000, 0.000, 14:11:51.188
109, -1999.24, -2145.67, -2428.38, -2050.67, 0.000, 0.000, 0.000, 14:11:51.202
110, -1683.81, -1794.59, -2130.12, -1774.71, 0.000, 0.000, 0.000, 14:11:51.202
111, -1670.76, -1819.73, -2156.76, -1806.51, 0.000, 0.000, 0.000, 14:11:51.217
112, -2062.49, -2243.12, -2504.97, -2138.33, 0.000, 0.000, 0.000, 14:11:51.217
113, -2001.02, -2169.40, -2426.03, -2054.60, 0.000, 0.000, 0.000, 14:11:51.218
114, -1684.70, -1823.47, -2149.52, -1793.97, 0.000, 0.000, 0.000, 14:11:51.218
115, -1665.09, -1829.34, -2158.26, -1811.80, 0.000, 0.000, 0.000, 14:11:51.232
116, -2054.99, -2246.61, -2514.54, -2131.89, 0.000, 0.000, 0.000, 14:11:51.232
117, -1976.74, -2166.71, -2419.86, -2036.51, 0.000, 0.000, 0.000, 14:11:51.248
118, -1653.89, -1809.57, -2126.75, -1782.29, 0.000, 0.000, 0.000, 14:11:51.248
119, -1650.50, -1824.44, -2167.78, -1820.60, 0.000, 0.000, 0.000, 14:11:51.248
120, -2048.63, -2264.46, -2515.55, -2142.58, 0.000, 0.000, 0.000, 14:11:51.248
121, -1964.97, -2171.79, -2417.38, -2041.48, 0.000, 0.000, 0.000, 14:11:51.262
122, -1652.88, -1823.10, -2123.00, -1786.90, 0.000, 0.000, 0.000, 14:11:51.262
123, -1647.27, -1845.18, -2159.61, -1817.56, 0.000, 0.000, 0.000, 14:11:51.279
124, -2032.88, -2269.31, -2509.13, -2132.15, 0.000, 0.000, 0.000, 14:11:51.279
125, -1952.44, -2159.00, -2410.01, -2029.38, 0.000, 0.000, 0.000, 14:11:51.279
126, -1641.10, -1827.83, -2136.26, -1781.76, 0.000, 0.000, 0.000, 14:11:51.279
127, -1641.65, -1838.83, -2165.88, -1810.69, 0.000, 0.000, 0.000, 14:11:51.293
128, -2026.26, -2260.41, -2510.49, -2124.78, 0.000, 0.000, 0.000, 14:11:51.293
129, -1949.39, -2179.65, -2417.23, -2029.98, 0.000, 0.000, 0.000, 14:11:51.322
130, -1633.15, -1831.38, -2131.33, -1784.26, 0.000, 0.000, 0.000, 14:11:51.323
131, -1630.84, -1849.39, -2172.40, -1817.62, 0.000, 0.000, 0.000, 14:11:51.323
132, -2014.18, -2286.19, -2520.00, -2133.40, 0.000, 0.000, 0.000, 14:11:51.323
133, -1940.22, -2183.76, -2415.58, -2032.92, 0.000, 0.000, 0.000, 14:11:51.324
134, -1629.33, -1830.97, -2135.36, -1778.64, 0.000, 0.000, 0.000, 14:11:51.324
135, -1624.63, -1854.86, -2171.47, -1815.84, 0.000, 0.000, 0.000, 14:11:51.324
136, -2011.14, -2287.73, -2512.29, -2128.53, 0.000, 0.000, 0.000, 14:11:51.324
137, -1920.61, -2205.68, -2412.44, -2041.12, 0.000, 0.000, 0.000, 14:11:51.338
138, -1603.64, -1880.66, -2119.22, -1778.99, 0.000, 0.000, 0.000, 14:11:51.338
139, -1605.04, -1864.57, -2178.56, -1821.73, 0.000, 0.000, 0.000, 14:11:51.352
140, -1966.57, -2307.68, -2508.66, -2130.68, 0.000, 0.000, 0.000, 14:11:51.352
141, -1865.05, -2207.34, -2408.63, -2026.33, 0.000, 0.000, 0.000, 14:11:51.367
142, -1521.00, -1905.61, -2125.71, -1762.78, 0.000, 0.000, 0.000, 14:11:51.367
143, -1486.36, -1891.63, -2160.04, -1800.32, 0.000, 0.000, 0.000, 14:11:51.367
144, -1835.46, -2347.00, -2502.26, -2112.14, 0.000, 0.000, 0.000, 14:11:51.367
145, -1718.82, -2265.72, -2390.39, -2011.09, 0.000, 0.000, 0.000, 14:11:51.397
146, -1378.95, -1921.90, -2111.60, -1757.77, 0.000, 0.000, 0.000, 14:11:51.398
147, -1373.88, -1955.98, -2149.59, -1799.12, 0.000, 0.000, 0.000, 14:11:51.398
148, -1791.53, -2404.70, -2517.51, -2112.59, 0.000, 0.000, 0.000, 14:11:51.398
149, -1722.86, -2292.84, -2408.89, -2007.60, 0.000, 0.000, 0.000, 14:11:51.399
150, -1423.93, -1937.59, -2117.39, -1750.18, 0.000, 0.000, 0.000, 14:11:51.399
151, -1457.06, -1956.95, -2169.15, -1802.59, 0.000, 0.000, 0.000, 14:11:51.412
152, -1878.82, -2368.45, -2520.94, -2115.25, 0.000, 0.000, 0.000, 14:11:51.412
153, -1838.34, -2246.51, -2418.88, -2026.53, 0.000, 0.000, 0.000, 14:11:51.428
154, -1548.07, -1867.16, -2130.24, -1764.60, 0.000, 0.000, 0.000, 14:11:51.428
155, -1605.79, -1891.72, -2187.67, -1822.42, 0.000, 0.000, 0.000, 14:11:51.428
156, -2012.07, -2309.15, -2522.59, -2133.68, 0.000, 0.000, 0.000, 14:11:51.428
157, -1957.48, -2158.71, -2417.65, -2030.83, 0.000, 0.000, 0.000, 14:11:51.442
158, -1665.19, -1812.34, -2128.52, -1785.78, 0.000, 0.000, 0.000, 14:11:51.442
159, -1692.83, -1833.19, -2174.74, -1835.17, 0.000, 0.000, 0.000, 14:11:51.458
160, -2105.31, -2259.27, -2522.58, -2138.44, 0.000, 0.000, 0.000, 14:11:51.458
161, -2022.75, -2122.22, -2407.08, -2041.04, 0.000, 0.000, 0.000, 14:11:51.458
162, -1717.45, -1770.45, -2133.08, -1784.70, 0.000, 0.000, 0.000, 14:11:51.458
163, -1739.21, -1808.75, -2176.55, -1843.67, 0.000, 0.000, 0.000, 14:11:51.473
164, -2119.75, -2231.36, -2518.88, -2147.63, 0.000, 0.000, 0.000, 14:11:51.473
165, -2036.92, -2123.95, -2415.34, -2040.69, 0.000, 0.000, 0.000, 14:11:51.487
166, -1720.88, -1756.55, -2124.79, -1783.72, 0.000, 0.000, 0.000, 14:11:51.487
167, -1744.47, -1816.91, -2180.30, -1840.68, 0.000, 0.000, 0.000, 14:11:51.502
168, -2120.91, -2238.79, -2528.43, -2136.34, 0.000, 0.000, 0.000, 14:11:51.503
169, -2021.40, -2122.80, -2408.96, -2042.86, 0.000, 0.000, 0.000, 14:11:51.503
170, -1702.49, -1764.26, -2118.14, -1774.49, 0.000, 0.000, 0.000, 14:11:51.503
171, -1730.08, -1822.07, -2183.91, -1836.78, 0.000, 0.000, 0.000, 14:11:51.517
172, -2100.15, -2235.87, -2523.70, -2137.16, 0.000, 0.000, 0.000, 14:11:51.517
173, -2008.91, -2127.49, -2407.24, -2036.02, 0.000, 0.000, 0.000, 14:11:51.518
174, -1698.90, -1776.54, -2129.34, -1780.67, 0.000, 0.000, 0.000, 14:11:51.518
175, -1722.04, -1833.02, -2190.32, -1837.04, 0.000, 0.000, 0.000, 14:11:51.532
176, -2096.97, -2240.88, -2518.93, -2132.62, 0.000, 0.000, 0.000, 14:11:51.532
177, -2003.68, -2122.19, -2412.79, -2041.77, 0.000, 0.000, 0.000, 14:11:51.547
178, -1681.67, -1775.06, -2120.76, -1782.37, 0.000, 0.000, 0.000, 14:11:51.547
179, -1715.92, -1841.34, -2188.77, -1838.79, 0.000, 0.000, 0.000, 14:11:51.547
180, -2086.96, -2253.76, -2521.78, -2140.88, 0.000, 0.000, 0.000, 14:11:51.547
181, -1996.72, -2144.66, -2406.55, -2036.94, 0.000, 0.000, 0.000, 14:11:51.562
182, -1674.92, -1788.22, -2122.41, -1779.63, 0.000, 0.000, 0.000, 14:11:51.562
183, -1700.87, -1846.79, -2188.42, -1835.54, 0.000, 0.000, 0.000, 14:11:51.578
184, -2078.32, -2273.41, -2518.56, -2138.01, 0.000, 0.000, 0.000, 14:11:51.578
185, -1980.91, -2142.13, -2398.66, -2035.94, 0.000, 0.000, 0.000, 14:11:51.578
186, -1655.17, -1798.47, -2113.17, -1771.45, 0.000, 0.000, 0.000, 14:11:51.578
187, -1687.28, -1862.40, -2188.57, -1831.40, 0.000, 0.000, 0.000, 14:11:51.608
188, -2054.56, -2266.65, -2517.03, -2123.19, 0.000, 0.000, 0.000, 14:11:51.608
189, -1961.28, -2146.03, -2397.77, -2028.62, 0.000, 0.000, 0.000, 14:11:51.608
190, -1636.54, -1797.15, -2117.33, -1773.74, 0.000, 0.000, 0.000, 14:11:51.608
191, -1672.03, -1855.58, -2184.87, -1839.51, 0.000, 0.000, 0.000, 14:11:51.609
192, -2051.60, -2288.71, -2517.98, -2133.70, 0.000, 0.000, 0.000, 14:11:51.609
193, -1947.66, -2151.54, -2400.70, -2030.88, 0.000, 0.000, 0.000, 14:11:51.652
194, -1622.08, -1802.15, -2115.70, -1773.61, 0.000, 0.000, 0.000, 14:11:51.653
195, -1667.36, -1862.35, -2200.19, -1845.00, 0.000, 0.000, 0.000, 14:11:51.653
196, -2043.05, -2268.27, -2517.16, -2134.07, 0.000, 0.000, 0.000, 14:11:51.653
197, -1938.33, -2141.26, -2390.89, -2029.75, 0.000, 0.000, 0.000, 14:11:51.654
198, -1628.07, -1803.12, -2121.79, -1773.00, 0.000, 0.000, 0.000, 14:11:51.654
199, -1676.96, -1878.45, -2203.93, -1852.00, 0.000, 0.000, 0.000, 14:11:51.654
200, -2054.02, -2275.29, -2530.11, -2135.27, 0.000, 0.000, 0.000, 14:11:51.654
0, -1941.21, -2157.40, -2400.91, -2028.59, 0.000, 0.000, 0.000, 14:11:51.667
1, -1622.59, -1802.93, -2112.11, -1775.28, 0.000, 0.000, 0.000, 14:11:51.668
2, -1675.59, -1885.09, -2205.32, -1846.25, 0.000, 0.000, 0.000, 14:11:51.668
3, -2040.86, -2285.14, -2525.54, -2139.99, 0.000, 0.000, 0.000, 14:11:51.682
4, -1946.81, -2163.83, -2410.83, -2013.93, 0.000, 0.000, 0.000, 14:11:51.682
5, -1621.09, -1800.15, -2124.06, -1757.52, 0.000, 0.000, 0.000, 14:11:51.683
6, -1670.59, -1877.30, -2192.90, -1836.37, 0.000, 0.000, 0.000, 14:11:51.683
7, -2049.66, -2281.71, -2517.20, -2136.29, 0.000, 0.000, 0.000, 14:11:51.697
8, -1937.08, -2157.39, -2409.04, -2020.75, 0.000, 0.000, 0.000, 14:11:51.697
9, -1615.23, -1789.63, -2104.70, -1758.34, 0.000, 0.000, 0.000, 14:11:51.712
10, -1665.87, -1874.77, -2197.28, -1843.76, 0.000, 0.000, 0.000, 14:11:51.713
11, -2046.39, -2282.41, -2518.22, -2132.48, 0.000, 0.000, 0.000, 14:11:51.713
12, -1936.78, -2170.33, -2407.50, -2015.05, 0.000, 0.000, 0.000, 14:11:51.713
13, -1618.49, -1807.19, -2120.59, -1753.20, 0.000, 0.000, 0.000, 14:11:51.742
14, -1672.83, -1893.02, -2207.20, -1843.12, 0.000, 0.000, 0.000, 14:11:51.743
15, -2031.39, -2281.42, -2516.41, -2129.32, 0.000, 0.000, 0.000, 14:11:51.743
16, -1924.93, -2147.08, -2401.06, -2014.42, 0.000, 0.000, 0.000, 14:11:51.743
17, -1611.72, -1794.45, -2110.07, -1755.30, 0.000, 0.000, 0.000, 14:11:51.744
18, -1658.91, -1884.79, -2194.81, -1840.18, 0.000, 0.000, 0.000, 14:11:51.744
19, -2027.81, -2275.61, -2526.62, -2133.95, 0.000, 0.000, 0.000, 14:11:51.757
20, -1922.94, -2134.59, -2402.81, -2021.63, 0.000, 0.000, 0.000, 14:11:51.758
21, -1607.41, -1793.05, -2113.96, -1762.51, 0.000, 0.000, 0.000, 14:11:51.772
22, -1672.57, -1902.61, -2209.22, -1849.00, 0.000, 0.000, 0.000, 14:11:51.772
23, -2035.31, -2292.20, -2530.46, -2139.91, 0.000, 0.000, 0.000, 14:11:51.780
24, -1929.08, -2156.80, -2398.02, -2017.47, 0.000, 0.000, 0.000, 14:11:51.780
25, -1613.44, -1811.61, -2129.60, -1759.38, 0.000, 0.000, 0.000, 14:11:51.788
26, -1676.73, -1898.28, -2217.97, -1857.48, 0.000, 0.000, 0.000, 14:11:51.788
27, -2050.80, -2306.30, -2532.90, -2140.23, 0.000, 0.000, 0.000, 14:11:51.802
28, -1922.56, -2148.03, -2397.67, -2021.35, 0.000, 0.000, 0.000, 14:11:51.802
29, -1602.54, -1803.82, -2111.36, -1758.50, 0.000, 0.000, 0.000, 14:11:51.803
30, -1679.22, -1899.72, -2209.48, -1847.99, 0.000, 0.000, 0.000, 14:11:51.803
31, -2031.47, -2277.49, -2508.26, -2131.32, 0.000, 0.000, 0.000, 14:11:51.817
32, -1925.99, -2137.34, -2386.26, -2017.52, 0.000, 0.000, 0.000, 14:11:51.817
33, -1600.73, -1790.49, -2102.84, -1755.21, 0.000, 0.000, 0.000, 14:11:51.832
34, -1678.85, -1904.07, -2215.72, -1848.68, 0.000, 0.000, 0.000, 14:11:51.832
35, -2042.68, -2281.96, -2516.04, -2130.75, 0.000, 0.000, 0.000, 14:11:51.833
36, -1915.05, -2128.93, -2377.31, -2011.20, 0.000, 0.000, 0.000, 14:11:51.833
37, -1601.37, -1800.44, -2104.05, -1760.17, 0.000, 0.000, 0.000, 14:11:51.847
38, -1681.70, -1908.73, -2220.43, -1848.42, 0.000, 0.000, 0.000, 14:11:51.847
39, -2038.24, -2290.62, -2517.66, -2131.31, 0.000, 0.000, 0.000, 14:11:51.862
40, -1921.99, -2146.37, -2390.99, -2013.60, 0.000, 0.000, 0.000, 14:11:51.862
41, -1600.16, -1791.85, -2095.27, -1757.26, 0.000, 0.000, 0.000, 14:11:51.878
42, -1681.27, -1906.64, -2214.13, -1853.27, 0.000, 0.000, 0.000, 14:11:51.878
43, -2050.92, -2315.65, -2531.91, -2138.74, 0.000, 0.000, 0.000, 14:11:51.878
44, -1936.02, -2166.94, -2404.84, -2023.11, 0.000, 0.000, 0.000, 14:11:51.878
45, -1596.41, -1781.12, -2097.37, -1754.27, 0.000, 0.000, 0.000, 14:11:51.892
46, -1661.30, -1884.20, -2187.39, -1854.76, 0.000, 0.000, 0.000, 14:11:51.892
47, -2024.76, -2280.61, -2511.47, -2140.29, 0.000, 0.000, 0.000, 14:11:51.893
48, -1916.74, -2158.26, -2382.90, -2009.54, 0.000, 0.000, 0.000, 14:11:51.893
49, -1596.14, -1790.50, -2102.83, -1756.58, 0.000, 0.000, 0.000, 14:11:51.909
50, -1684.76, -1908.48, -2218.17, -1865.55, 0.000, 0.000, 0.000, 14:11:51.909
51, -2040.05, -2293.02, -2519.16, -2150.74, 0.000, 0.000, 0.000, 14:11:51.923
52, -1911.48, -2145.64, -2388.19, -2014.47, 0.000, 0.000, 0.000, 14:11:51.923
53, -1592.21, -1796.94, -2105.75, -1752.99, 0.000, 0.000, 0.000, 14:11:51.923
54, -1676.85, -1903.18, -2213.38, -1867.61, 0.000, 0.000, 0.000, 14:11:51.924
55, -2046.63, -2284.68, -2524.97, -2149.46, 0.000, 0.000, 0.000, 14:11:51.937
56, -1927.30, -2142.49, -2389.91, -2014.94, 0.000, 0.000, 0.000, 14:11:51.937
57, -1591.96, -1793.36, -2099.42, -1752.71, 0.000, 0.000, 0.000, 14:11:51.952
58, -1683.24, -1911.85, -2221.37, -1864.80, 0.000, 0.000, 0.000, 14:11:51.952
59, -2038.45, -2298.82, -2524.89, -2145.52, 0.000, 0.000, 0.000, 14:11:51.953
60, -1907.39, -2134.00, -2367.65, -2003.32, 0.000, 0.000, 0.000, 14:11:51.953
61, -1585.54, -1780.91, -2095.01, -1751.51, 0.000, 0.000, 0.000, 14:11:51.968
62, -1689.09, -1912.18, -2224.93, -1860.75, 0.000, 0.000, 0.000, 14:11:51.968
63, -2051.17, -2304.81, -2531.76, -2139.26, 0.000, 0.000, 0.000, 14:11:51.982
64, -1914.70, -2149.37, -2391.32, -2006.81, 0.000, 0.000, 0.000, 14:11:51.982
65, -1595.73, -1787.32, -2097.25, -1745.90, 0.000, 0.000, 0.000, 14:11:51.983
66, -1684.75, -1907.75, -2216.29, -1851.24, 0.000, 0.000, 0.000, 14:11:51.983
67, -2038.96, -2297.93, -2528.40, -2133.40, 0.000, 0.000, 0.000, 14:11:51.997
68, -1903.52, -2133.43, -2380.17, -2005.70, 0.000, 0.000, 0.000, 14:11:51.997
69, -1586.62, -1783.68, -2097.90, -1745.39, 0.000, 0.000, 0.000, 14:11:52.012
70, -1689.34, -1918.69, -2222.78, -1864.23, 0.000, 0.000, 0.000, 14:11:52.012
71, -2043.09, -2290.01, -2519.51, -2135.94, 0.000, 0.000, 0.000, 14:11:52.013
72, -1910.84, -2146.52, -2379.15, -2005.09, 0.000, 0.000, 0.000, 14:11:52.013
73, -1590.84, -1788.48, -2094.43, -1754.51, 0.000, 0.000, 0.000, 14:11:52.028
74, -1697.66, -1912.25, -2218.12, -1867.30, 0.000, 0.000, 0.000, 14:11:52.028
75, -2039.43, -2284.54, -2518.89, -2146.28, 0.000, 0.000, 0.000, 14:11:52.057
76, -1901.11, -2125.32, -2376.86, -2006.88, 0.000, 0.000, 0.000, 14:11:52.057
77, -1585.27, -1787.99, -2097.77, -1745.99, 0.000, 0.000, 0.000, 14:11:52.057
78, -1693.95, -1922.30, -2226.23, -1873.14, 0.000, 0.000, 0.000, 14:11:52.057
79, -2044.41, -2295.64, -2521.57, -2142.73, 0.000, 0.000, 0.000, 14:11:52.059
80, -1907.54, -2135.25, -2375.20, -2014.77, 0.000, 0.000, 0.000, 14:11:52.059
81, -1593.65, -1786.21, -2100.54, -1751.67, 0.000, 0.000, 0.000, 14:11:52.059
82, -1691.84, -1925.92, -2231.28, -1868.94, 0.000, 0.000, 0.000, 14:11:52.060
83, -2035.42, -2295.82, -2524.65, -2133.87, 0.000, 0.000, 0.000, 14:11:52.072
84, -1899.89, -2139.67, -2379.75, -2009.93, 0.000, 0.000, 0.000, 14:11:52.072
85, -1582.32, -1786.07, -2093.45, -1749.94, 0.000, 0.000, 0.000, 14:11:52.088
86, -1690.65, -1923.93, -2230.99, -1875.56, 0.000, 0.000, 0.000, 14:11:52.088
87, -2055.13, -2312.22, -2542.60, -2154.51, 0.000, 0.000, 0.000, 14:11:52.103
88, -1926.48, -2149.75, -2389.78, -2012.41, 0.000, 0.000, 0.000, 14:11:52.103
89, -1585.62, -1776.37, -2086.96, -1740.46, 0.000, 0.000, 0.000, 14:11:52.103
90, -1688.77, -1905.83, -2220.10, -1870.84, 0.000, 0.000, 0.000, 14:11:52.103
91, -2040.70, -2273.94, -2515.68, -2143.95, 0.000, 0.000, 0.000, 14:11:52.117
92, -1909.09, -2119.22, -2363.00, -2011.42, 0.000, 0.000, 0.000, 14:11:52.117
93, -1583.26, -1769.17, -2087.47, -1754.50, 0.000, 0.000, 0.000, 14:11:52.132
94, -1712.62, -1922.43, -2233.61, -1883.96, 0.000, 0.000, 0.000, 14:11:52.132
95, -2046.17, -2278.22, -2523.58, -2141.56, 0.000, 0.000, 0.000, 14:11:52.132
96, -1901.74, -2119.29, -2362.63, -2006.72, 0.000, 0.000, 0.000, 14:11:52.133
97, -1592.31, -1770.14, -2092.04, -1754.48, 0.000, 0.000, 0.000, 14:11:52.162
98, -1716.76, -1934.75, -2240.56, -1883.34, 0.000, 0.000, 0.000, 14:11:52.162
99, -2055.43, -2292.88, -2519.81, -2140.48, 0.000, 0.000, 0.000, 14:11:52.163
100, -1911.12, -2112.80, -2370.01, -2001.74, 0.000, 0.000, 0.000, 14:11:52.163
101, -1584.14, -1766.51, -2085.47, -1749.91, 0.000, 0.000, 0.000, 14:11:52.170
102, -1702.50, -1924.11, -2237.60, -1882.79, 0.000, 0.000, 0.000, 14:11:52.170
103, -2059.17, -2296.68, -2531.31, -2138.30, 0.000, 0.000, 0.000, 14:11:52.178
104, -1906.62, -2129.21, -2364.29, -2002.18, 0.000, 0.000, 0.000, 14:11:52.178
105, -1590.04, -1774.04, -2091.17, -1750.08, 0.000, 0.000, 0.000, 14:11:52.192
106, -1711.12, -1923.38, -2239.68, -1887.92, 0.000, 0.000, 0.000, 14:11:52.192
107, -2046.84, -2288.50, -2528.77, -2140.56, 0.000, 0.000, 0.000, 14:11:52.193
108, -1891.37, -2116.75, -2363.53, -1996.91, 0.000, 0.000, 0.000, 14:11:52.193
109, -1587.48, -1781.93, -2090.49, -1744.13, 0.000, 0.000, 0.000, 14:11:52.208
110, -1711.56, -1936.66, -2237.94, -1885.12, 0.000, 0.000, 0.000, 14:11:52.208
111, -2044.39, -2306.95, -2525.90, -2141.93, 0.000, 0.000, 0.000, 14:11:52.222
112, -1899.60, -2122.61, -2365.93, -2001.90, 0.000, 0.000, 0.000, 14:11:52.223
113, -1566.33, -1769.74, -2086.22, -1741.45, 0.000, 0.000, 0.000, 14:11:52.223
114, -1707.95, -1934.12, -2238.11, -1885.08, 0.000, 0.000, 0.000, 14:11:52.223
115, -2045.33, -2298.36, -2526.32, -2142.47, 0.000, 0.000, 0.000, 14:11:52.238
116, -1890.77, -2117.96, -2366.52, -1992.83, 0.000, 0.000, 0.000, 14:11:52.238
117, -1572.24, -1771.35, -2082.06, -1737.15, 0.000, 0.000, 0.000, 14:11:52.252
118, -1705.09, -1946.32, -2249.10, -1888.89, 0.000, 0.000, 0.000, 14:11:52.252
119, -2038.99, -2295.65, -2519.92, -2138.28, 0.000, 0.000, 0.000, 14:11:52.252
120, -1890.03, -2119.48, -2353.97, -1990.64, 0.000, 0.000, 0.000, 14:11:52.252
121, -1570.01, -1776.10, -2088.06, -1739.00, 0.000, 0.000, 0.000, 14:11:52.267
122, -1718.01, -1946.97, -2251.12, -1890.83, 0.000, 0.000, 0.000, 14:11:52.267
123, -2039.09, -2299.92, -2521.12, -2140.09, 0.000, 0.000, 0.000, 14:11:52.297
124, -1898.20, -2126.67, -2371.36, -1998.97, 0.000, 0.000, 0.000, 14:11:52.297
125, -1574.14, -1774.80, -2088.98, -1744.98, 0.000, 0.000, 0.000, 14:11:52.297
126, -1711.64, -1946.71, -2246.17, -1889.59, 0.000, 0.000, 0.000, 14:11:52.297
127, -2046.88, -2301.81, -2524.44, -2147.76, 0.000, 0.000, 0.000, 14:11:52.298
128, -1893.25, -2124.27, -2370.28, -1989.94, 0.000, 0.000, 0.000, 14:11:52.298
129, -1584.90, -1771.93, -2094.58, -1741.63, 0.000, 0.000, 0.000, 14:11:52.299
130, -1717.78, -1940.71, -2245.98, -1894.65, 0.000, 0.000, 0.000, 14:11:52.299
131, -2050.46, -2307.01, -2529.47, -2143.12, 0.000, 0.000, 0.000, 14:11:52.312
132, -1899.65, -2123.19, -2370.05, -1996.21, 0.000, 0.000, 0.000, 14:11:52.312
133, -1568.73, -1762.69, -2083.74, -1736.18, 0.000, 0.000, 0.000, 14:11:52.328
134, -1716.63, -1953.53, -2256.50, -1889.09, 0.000, 0.000, 0.000, 14:11:52.328
135, -2046.70, -2303.93, -2526.56, -2143.33, 0.000, 0.000, 0.000, 14:11:52.343
136, -1889.87, -2120.43, -2364.18, -1990.46, 0.000, 0.000, 0.000, 14:11:52.343
137, -1578.51, -1779.13, -2094.13, -1743.29, 0.000, 0.000, 0.000, 14:11:52.344
138, -1727.01, -1956.68, -2268.54, -1896.72, 0.000, 0.000, 0.000, 14:11:52.344
139, -2046.66, -2309.74, -2540.77, -2137.66, 0.000, 0.000, 0.000, 14:11:52.358
140, -1898.15, -2133.18, -2364.86, -1990.20, 0.000, 0.000, 0.000, 14:11:52.358
141, -1570.06, -1766.47, -2085.38, -1731.04, 0.000, 0.000, 0.000, 14:11:52.373
142, -1719.13, -1947.98, -2250.25, -1894.72, 0.000, 0.000, 0.000, 14:11:52.373
143, -2040.36, -2293.08, -2520.93, -2136.93, 0.000, 0.000, 0.000, 14:11:52.373
144, -1885.11, -2101.10, -2361.97, -1989.81, 0.000, 0.000, 0.000, 14:11:52.373
145, -1566.97, -1772.51, -2081.24, -1735.77, 0.000, 0.000, 0.000, 14:11:52.387
146, -1730.96, -1961.09, -2265.46, -1897.71, 0.000, 0.000, 0.000, 14:11:52.387
147, -2040.59, -2299.67, -2523.28, -2139.61, 0.000, 0.000, 0.000, 14:11:52.404
148, -1885.08, -2115.52, -2366.46, -1988.21, 0.000, 0.000, 0.000, 14:11:52.404
149, -1571.04, -1769.53, -2088.79, -1732.86, 0.000, 0.000, 0.000, 14:11:52.404
150, -1715.96, -1951.29, -2257.21, -1900.18, 0.000, 0.000, 0.000, 14:11:52.404
151, -2037.09, -2300.66, -2520.63, -2139.22, 0.000, 0.000, 0.000, 14:11:52.417
152, -1882.86, -2112.10, -2364.83, -1987.55, 0.000, 0.000, 0.000, 14:11:52.417
153, -1565.57, -1756.95, -2084.22, -1734.76, 0.000, 0.000, 0.000, 14:11:52.432
154, -1728.82, -1962.21, -2261.34, -1903.46, 0.000, 0.000, 0.000, 14:11:52.432
155, -2044.57, -2300.15, -2520.67, -2135.22, 0.000, 0.000, 0.000, 14:11:52.440
156, -1889.52, -2111.91, -2365.26, -1983.76, 0.000, 0.000, 0.000, 14:11:52.441
157, -1566.48, -1758.97, -2084.00, -1733.67, 0.000, 0.000, 0.000, 14:11:52.447
158, -1729.30, -1968.73, -2261.50, -1905.13, 0.000, 0.000, 0.000, 14:11:52.447
159, -2046.90, -2315.47, -2536.68, -2139.09, 0.000, 0.000, 0.000, 14:11:52.462
160, -1890.12, -2130.17, -2367.55, -1990.25, 0.000, 0.000, 0.000, 14:11:52.462
161, -1567.74, -1779.04, -2085.04, -1735.79, 0.000, 0.000, 0.000, 14:11:52.462
162, -1720.34, -1966.67, -2263.93, -1904.94, 0.000, 0.000, 0.000, 14:11:52.462
163, -2032.19, -2288.75, -2514.41, -2134.15, 0.000, 0.000, 0.000, 14:11:52.478
164, -1883.13, -2102.67, -2352.93, -1982.20, 0.000, 0.000, 0.000, 14:11:52.478
165, -1559.88, -1747.80, -2074.08, -1728.77, 0.000, 0.000, 0.000, 14:11:52.492
166, -1742.46, -1971.87, -2276.64, -1907.95, 0.000, 0.000, 0.000, 14:11:52.492
167, -2040.96, -2286.91, -2523.45, -2137.87, 0.000, 0.000, 0.000, 14:11:52.508
168, -1885.49, -2115.26, -2360.10, -1981.79, 0.000, 0.000, 0.000, 14:11:52.508
169, -1565.99, -1761.20, -2081.24, -1726.95, 0.000, 0.000, 0.000, 14:11:52.508
170, -1743.81, -1975.62, -2276.84, -1908.43, 0.000, 0.000, 0.000, 14:11:52.508
171, -2043.42, -2287.49, -2528.86, -2134.06, 0.000, 0.000, 0.000, 14:11:52.523
172, -1876.91, -2085.31, -2352.74, -1981.99, 0.000, 0.000, 0.000, 14:11:52.523
173, -1568.50, -1759.32, -2081.25, -1736.30, 0.000, 0.000, 0.000, 14:11:52.524
174, -1738.70, -1977.36, -2276.97, -1908.55, 0.000, 0.000, 0.000, 14:11:52.524
175, -2046.54, -2293.48, -2526.08, -2134.13, 0.000, 0.000, 0.000, 14:11:52.537
176, -1881.49, -2103.43, -2361.15, -1980.58, 0.000, 0.000, 0.000, 14:11:52.539
177, -1562.81, -1751.97, -2082.36, -1734.59, 0.000, 0.000, 0.000, 14:11:52.552
178, -1733.60, -1975.40, -2273.72, -1911.02, 0.000, 0.000, 0.000, 14:11:52.552
179, -2048.04, -2315.82, -2528.11, -2137.82, 0.000, 0.000, 0.000, 14:11:52.552
180, -1875.36, -2107.12, -2353.97, -1975.86, 0.000, 0.000, 0.000, 14:11:52.552
181, -1557.92, -1758.72, -2077.68, -1730.62, 0.000, 0.000, 0.000, 14:11:52.567
182, -1735.58, -1973.85, -2275.25, -1908.88, 0.000, 0.000, 0.000, 14:11:52.567
183, -2036.81, -2292.61, -2519.24, -2137.69, 0.000, 0.000, 0.000, 14:11:52.583
184, -1875.40, -2103.71, -2352.65, -1980.68, 0.000, 0.000, 0.000, 14:11:52.583
185, -1559.01, -1756.61, -2076.76, -1730.50, 0.000, 0.000, 0.000, 14:11:52.583
186, -1745.68, -1974.48, -2283.49, -1910.94, 0.000, 0.000, 0.000, 14:11:52.583
187, -2035.21, -2303.14, -2517.62, -2132.68, 0.000, 0.000, 0.000, 14:11:52.597
188, -1875.57, -2106.54, -2352.66, -1974.49, 0.000, 0.000, 0.000, 14:11:52.597
189, -1559.06, -1753.67, -2070.30, -1724.43, 0.000, 0.000, 0.000, 14:11:52.612
190, -1744.14, -1984.50, -2284.42, -1911.11, 0.000, 0.000, 0.000, 14:11:52.612
191, -2037.52, -2292.35, -2520.09, -2133.18, 0.000, 0.000, 0.000, 14:11:52.613
192, -1875.07, -2098.38, -2348.61, -1984.51, 0.000, 0.000, 0.000, 14:11:52.613
193, -1563.81, -1749.69, -2080.99, -1734.76, 0.000, 0.000, 0.000, 14:11:52.628
194, -1758.30, -1989.89, -2289.04, -1922.12, 0.000, 0.000, 0.000, 14:11:52.628
195, -2045.61, -2301.73, -2524.01, -2139.14, 0.000, 0.000, 0.000, 14:11:52.642
196, -1872.76, -2095.71, -2348.63, -1977.25, 0.000, 0.000, 0.000, 14:11:52.642
197, -1562.03, -1748.09, -2076.19, -1735.96, 0.000, 0.000, 0.000, 14:11:52.643
198, -1757.98, -1992.96, -2283.01, -1922.08, 0.000, 0.000, 0.000, 14:11:52.644
199, -2047.66, -2297.26, -2525.56, -2139.45, 0.000, 0.000, 0.000, 14:11:52.658
200, -1872.96, -2093.55, -2345.66, -1970.65, 0.000, 0.000, 0.000, 14:11:52.658
0, -1559.14, -1748.91, -2072.57, -1726.84, 0.000, 0.000, 0.000, 14:11:52.658
1, -1762.17, -2000.31, -2293.06, -1926.53, 0.000, 0.000, 0.000, 14:11:52.672
2, -2040.61, -2290.34, -2523.54, -2142.82, 0.000, 0.000, 0.000, 14:11:52.673
3, -1868.63, -2090.20, -2346.43, -1979.46, 0.000, 0.000, 0.000, 14:11:52.688
4, -1558.92, -1746.29, -2075.65, -1727.45, 0.000, 0.000, 0.000, 14:11:52.688
5, -1756.77, -1986.15, -2289.30, -1924.03, 0.000, 0.000, 0.000, 14:11:52.688
6, -2041.12, -2289.94, -2528.38, -2135.23, 0.000, 0.000, 0.000, 14:11:52.688
7, -1872.74, -2085.84, -2344.29, -1969.78, 0.000, 0.000, 0.000, 14:11:52.702
8, -1561.53, -1748.44, -2080.25, -1733.89, 0.000, 0.000, 0.000, 14:11:52.704
9, -1757.50, -1995.51, -2283.04, -1926.20, 0.000, 0.000, 0.000, 14:11:52.717
10, -2044.15, -2304.90, -2514.97, -2139.93, 0.000, 0.000, 0.000, 14:11:52.717
11, -1873.42, -2096.60, -2343.90, -1971.38, 0.000, 0.000, 0.000, 14:11:52.717
12, -1554.60, -1745.28, -2063.91, -1726.35, 0.000, 0.000, 0.000, 14:11:52.717
13, -1759.93, -1995.05, -2294.37, -1930.53, 0.000, 0.000, 0.000, 14:11:52.733
14, -2035.74, -2289.93, -2530.70, -2136.26, 0.000, 0.000, 0.000, 14:11:52.733
15, -1874.74, -2090.51, -2342.64, -1973.41, 0.000, 0.000, 0.000, 14:11:52.747
16, -1559.77, -1751.58, -2075.38, -1720.94, 0.000, 0.000, 0.000, 14:11:52.747
17, -1763.56, -1997.41, -2298.85, -1926.59, 0.000, 0.000, 0.000, 14:11:52.748
18, -2048.60, -2300.22, -2528.30, -2140.63, 0.000, 0.000, 0.000, 14:11:52.748
19, -1868.53, -2090.85, -2347.94, -1974.97, 0.000, 0.000, 0.000, 14:11:52.762
20, -1568.21, -1756.71, -2083.73, -1730.16, 0.000, 0.000, 0.000, 14:11:52.763
21, -1774.26, -2005.38, -2300.54, -1927.48, 0.000, 0.000, 0.000, 14:11:52.778
22, -2046.23, -2287.45, -2517.91, -2128.93, 0.000, 0.000, 0.000, 14:11:52.779
23, -1870.14, -2086.73, -2342.30, -1975.01, 0.000, 0.000, 0.000, 14:11:52.779
24, -1552.57, -1745.54, -2069.26, -1730.55, 0.000, 0.000, 0.000, 14:11:52.779
25, -1771.03, -2010.93, -2303.74, -1929.47, 0.000, 0.000, 0.000, 14:11:52.793
26, -2036.53, -2293.04, -2520.12, -2126.68, 0.000, 0.000, 0.000, 14:11:52.793
27, -1862.00, -2099.12, -2345.27, -1972.69, 0.000, 0.000, 0.000, 14:11:52.808
28, -1557.81, -1760.24, -2081.11, -1726.15, 0.000, 0.000, 0.000, 14:11:52.808
29, -1768.02, -2008.88, -2304.97, -1936.39, 0.000, 0.000, 0.000, 14:11:52.808
30, -2036.46, -2290.53, -2519.97, -2135.58, 0.000, 0.000, 0.000, 14:11:52.808
31, -1852.26, -2076.40, -2329.67, -1967.06, 0.000, 0.000, 0.000, 14:11:52.822
32, -1556.78, -1754.07, -2075.01, -1729.24, 0.000, 0.000, 0.000, 14:11:52.822
33, -1780.10, -2025.13, -2317.26, -1939.24, 0.000, 0.000, 0.000, 14:11:52.838
34, -2033.18, -2298.82, -2522.28, -2130.96, 0.000, 0.000, 0.000, 14:11:52.838
35, -1856.41, -2089.02, -2336.83, -1961.81, 0.000, 0.000, 0.000, 14:11:52.838
36, -1550.72, -1749.49, -2067.73, -1721.29, 0.000, 0.000, 0.000, 14:11:52.838
37, -1770.68, -2019.33, -2306.62, -1937.11, 0.000, 0.000, 0.000, 14:11:52.852
38, -2033.00, -2339.92, -2524.36, -2134.73, 0.000, 0.000, 0.000, 14:11:52.852
39, -1845.93, -2094.33, -2340.32, -1968.90, 0.000, 0.000, 0.000, 14:11:52.867
40, -1536.78, -1763.97, -2069.81, -1716.05, 0.000, 0.000, 0.000, 14:11:52.867
41, -1742.37, -2038.09, -2303.15, -1937.40, 0.000, 0.000, 0.000, 14:11:52.867
42, -1993.75, -2311.23, -2519.97, -2131.56, 0.000, 0.000, 0.000, 14:11:52.867
43, -1777.68, -2122.86, -2327.59, -1952.83, 0.000, 0.000, 0.000, 14:11:52.883
44, -1456.10, -1817.74, -2060.08, -1705.63, 0.000, 0.000, 0.000, 14:11:52.883
45, -1651.52, -2076.39, -2292.29, -1915.03, 0.000, 0.000, 0.000, 14:11:52.897
46, -1858.80, -2341.82, -2514.12, -2121.75, 0.000, 0.000, 0.000, 14:11:52.897
47, -1647.01, -2156.27, -2325.24, -1946.77, 0.000, 0.000, 0.000, 14:11:52.898
48, -1308.17, -1849.90, -2056.78, -1693.22, 0.000, 0.000, 0.000, 14:11:52.898
49, -1500.21, -2145.40, -2292.60, -1917.92, 0.000, 0.000, 0.000, 14:11:52.912
50, -1774.29, -2441.40, -2514.43, -2106.34, 0.000, 0.000, 0.000, 14:11:52.912
51, -1596.58, -2219.27, -2326.62, -1935.67, 0.000, 0.000, 0.000, 14:11:52.928
52, -1301.26, -1874.53, -2065.99, -1699.08, 0.000, 0.000, 0.000, 14:11:52.928
53, -1577.58, -2148.55, -2311.36, -1924.72, 0.000, 0.000, 0.000, 14:11:52.928
54, -1866.59, -2406.85, -2524.08, -2119.18, 0.000, 0.000, 0.000, 14:11:52.928
55, -1716.86, -2176.40, -2336.98, -1950.25, 0.000, 0.000, 0.000, 14:11:52.953
56, -1446.13, -1826.63, -2070.58, -1715.53, 0.000, 0.000, 0.000, 14:11:52.953
57, -1718.82, -2079.26, -2317.66, -1948.04, 0.000, 0.000, 0.000, 14:11:52.958
58, -2005.89, -2320.34, -2517.15, -2135.55, 0.000, 0.000, 0.000, 14:11:52.958
59, -1850.50, -2096.04, -2336.97, -1959.30, 0.000, 0.000, 0.000, 14:11:52.958
60, -1572.01, -1755.85, -2074.09, -1719.69, 0.000, 0.000, 0.000, 14:11:52.958
61, -1845.07, -2030.51, -2338.33, -1955.86, 0.000, 0.000, 0.000, 14:11:52.988
62, -2114.21, -2277.22, -2540.82, -2138.00, 0.000, 0.000, 0.000, 14:11:52.988
63, -1927.20, -2047.46, -2335.17, -1968.38, 0.000, 0.000, 0.000, 14:11:52.988
64, -1631.35, -1716.94, -2081.13, -1732.62, 0.000, 0.000, 0.000, 14:11:52.988
65, -1882.51, -2002.48, -2338.05, -1957.09, 0.000, 0.000, 0.000, 14:11:52.989
66, -2142.70, -2240.78, -2526.25, -2140.01, 0.000, 0.000, 0.000, 14:11:52.989
67, -1939.93, -2022.35, -2336.05, -1964.10, 0.000, 0.000, 0.000, 14:11:53.002
68, -1649.32, -1693.04, -2072.48, -1731.75, 0.000, 0.000, 0.000, 14:11:53.002
69, -1882.40, -1982.31, -2322.80, -1966.63, 0.000, 0.000, 0.000, 14:11:53.017
70, -2143.51, -2253.65, -2524.65, -2145.28, 0.000, 0.000, 0.000, 14:11:53.017
71, -1942.35, -2027.37, -2328.63, -1970.76, 0.000, 0.000, 0.000, 14:11:53.018
72, -1633.40, -1689.66, -2066.16, -1734.49, 0.000, 0.000, 0.000, 14:11:53.018
73, -1874.32, -1989.00, -2317.07, -1960.34, 0.000, 0.000, 0.000, 14:11:53.032
74, -2119.46, -2244.59, -2516.51, -2135.59, 0.000, 0.000, 0.000, 14:11:53.032
75, -1927.79, -2017.93, -2321.12, -1963.31, 0.000, 0.000, 0.000, 14:11:53.048
76, -1628.29, -1708.09, -2071.62, -1734.91, 0.000, 0.000, 0.000, 14:11:53.048
77, -1872.69, -2005.36, -2330.24, -1968.74, 0.000, 0.000, 0.000, 14:11:53.048
78, -2111.57, -2258.37, -2519.08, -2138.18, 0.000, 0.000, 0.000, 14:11:53.048
79, -1912.82, -2023.35, -2322.19, -1959.30, 0.000, 0.000, 0.000, 14:11:53.063
80, -1608.03, -1701.24, -2064.04, -1727.62, 0.000, 0.000, 0.000, 14:11:53.063
81, -1853.33, -2013.82, -2331.81, -1970.69, 0.000, 0.000, 0.000, 14:11:53.092
82, -2104.79, -2265.16, -2522.92, -2140.98, 0.000, 0.000, 0.000, 14:11:53.092
83, -1900.68, -2038.21, -2324.40, -1956.93, 0.000, 0.000, 0.000, 14:11:53.094
84, -1602.66, -1715.86, -2069.12, -1726.55, 0.000, 0.000, 0.000, 14:11:53.094
85, -1844.98, -2019.01, -2332.53, -1963.38, 0.000, 0.000, 0.000, 14:11:53.094
86, -2089.42, -2263.88, -2508.01, -2133.79, 0.000, 0.000, 0.000, 14:11:53.094
87, -1891.40, -2041.85, -2321.62, -1961.72, 0.000, 0.000, 0.000, 14:11:53.094
88, -1586.35, -1735.40, -2069.40, -1729.17, 0.000, 0.000, 0.000, 14:11:53.094
89, -1851.19, -2046.55, -2346.09, -1973.84, 0.000, 0.000, 0.000, 14:11:53.114
90, -2079.23, -2290.48, -2527.90, -2143.67, 0.000, 0.000, 0.000, 14:11:53.114
91, -1874.10, -2064.81, -2320.89, -1957.02, 0.000, 0.000, 0.000, 14:11:53.123
92, -1583.57, -1733.51, -2070.19, -1724.61, 0.000, 0.000, 0.000, 14:11:53.123
93, -1824.10, -2022.78, -2327.79, -1969.76, 0.000, 0.000, 0.000, 14:11:53.139
94, -2057.56, -2270.29, -2511.74, -2123.78, 0.000, 0.000, 0.000, 14:11:53.139
95, -1852.89, -2035.31, -2320.74, -1947.70, 0.000, 0.000, 0.000, 14:11:53.140
96, -1557.87, -1721.46, -2062.56, -1722.28, 0.000, 0.000, 0.000, 14:11:53.140
97, -1830.31, -2036.65, -2339.59, -1960.56, 0.000, 0.000, 0.000, 14:11:53.167
98, -2053.35, -2274.89, -2510.81, -2126.99, 0.000, 0.000, 0.000, 14:11:53.168
99, -1850.03, -2043.24, -2310.91, -1951.77, 0.000, 0.000, 0.000, 14:11:53.168
100, -1547.94, -1722.34, -2057.90, -1718.01, 0.000, 0.000, 0.000, 14:11:53.168
101, -1822.26, -2050.11, -2336.34, -1973.48, 0.000, 0.000, 0.000, 14:11:53.169
102, -2049.90, -2289.96, -2517.06, -2124.66, 0.000, 0.000, 0.000, 14:11:53.169
103, -1844.96, -2041.61, -2310.24, -1944.22, 0.000, 0.000, 0.000, 14:11:53.182
104, -1552.92, -1728.47, -2060.28, -1718.31, 0.000, 0.000, 0.000, 14:11:53.182
105, -1817.30, -2052.69, -2341.77, -1965.19, 0.000, 0.000, 0.000, 14:11:53.197
106, -2040.60, -2273.24, -2511.77, -2126.05, 0.000, 0.000, 0.000, 14:11:53.197
107, -1844.87, -2054.02, -2309.26, -1953.01, 0.000, 0.000, 0.000, 14:11:53.198
108, -1555.75, -1735.17, -2065.08, -1721.19, 0.000, 0.000, 0.000, 14:11:53.198
109, -1826.51, -2051.48, -2339.74, -1971.45, 0.000, 0.000, 0.000, 14:11:53.212
110, -2050.44, -2287.81, -2522.41, -2136.99, 0.000, 0.000, 0.000, 14:11:53.212
111, -1843.54, -2045.73, -2314.26, -1947.63, 0.000, 0.000, 0.000, 14:11:53.228
112, -1543.97, -1740.60, -2073.31, -1717.81, 0.000, 0.000, 0.000, 14:11:53.228
113, -1827.06, -2069.16, -2358.20, -1972.77, 0.000, 0.000, 0.000, 14:11:53.242
114, -2042.39, -2284.48, -2517.32, -2127.79, 0.000, 0.000, 0.000, 14:11:53.242
115, -1845.54, -2045.56, -2318.10, -1943.34, 0.000, 0.000, 0.000, 14:11:53.244
116, -1553.20, -1735.85, -2067.17, -1717.25, 0.000, 0.000, 0.000, 14:11:53.244
117, -1829.64, -2066.75, -2349.60, -1973.75, 0.000, 0.000, 0.000, 14:11:53.258
118, -2041.61, -2293.91, -2516.92, -2128.98, 0.000, 0.000, 0.000, 14:11:53.258
119, -1833.89, -2045.47, -2311.59, -1938.93, 0.000, 0.000, 0.000, 14:11:53.258
120, -1542.82, -1724.84, -2059.37, -1722.77, 0.000, 0.000, 0.000, 14:11:53.258
121, -1813.69, -2052.96, -2346.24, -1973.03, 0.000, 0.000, 0.000, 14:11:53.273
122, -2043.27, -2290.97, -2517.04, -2124.78, 0.000, 0.000, 0.000, 14:11:53.273
123, -1827.49, -2054.82, -2308.31, -1933.50, 0.000, 0.000, 0.000, 14:11:53.287
124, -1545.71, -1729.14, -2055.09, -1712.89, 0.000, 0.000, 0.000, 14:11:53.287
125, -1818.91, -2062.54, -2344.68, -1972.90, 0.000, 0.000, 0.000, 14:11:53.302
126, -2034.93, -2277.58, -2510.80, -2129.30, 0.000, 0.000, 0.000, 14:11:53.304
127, -1833.04, -2048.76, -2310.85, -1943.15, 0.000, 0.000, 0.000, 14:11:53.304
128, -1540.75, -1730.77, -2063.67, -1722.26, 0.000, 0.000, 0.000, 14:11:53.304
129, -1831.12, -2062.84, -2350.67, -1976.98, 0.000, 0.000, 0.000, 14:11:53.318
130, -2039.87, -2282.63, -2514.15, -2127.57, 0.000, 0.000, 0.000, 14:11:53.318
131, -1835.69, -2043.16, -2305.22, -1941.98, 0.000, 0.000, 0.000, 14:11:53.318
132, -1540.22, -1734.90, -2064.82, -1719.16, 0.000, 0.000, 0.000, 14:11:53.318
133, -1824.54, -2079.10, -2351.67, -1985.69, 0.000, 0.000, 0.000, 14:11:53.332
134, -2038.28, -2288.33, -2509.67, -2124.57, 0.000, 0.000, 0.000, 14:11:53.332
135, -1828.08, -2041.06, -2306.37, -1936.18, 0.000, 0.000, 0.000, 14:11:53.347
136, -1548.48, -1750.22, -2078.28, -1720.90, 0.000, 0.000, 0.000, 14:11:53.347
137, -1848.77, -2099.43, -2372.27, -1999.73, 0.000, 0.000, 0.000, 14:11:53.348
138, -2030.78, -2298.24, -2515.65, -2126.64, 0.000, 0.000, 0.000, 14:11:53.348
139, -1794.64, -2040.35, -2300.75, -1922.98, 0.000, 0.000, 0.000, 14:11:53.362
140, -1519.18, -1751.22, -2063.62, -1715.65, 0.000, 0.000, 0.000, 14:11:53.362
141, -1815.16, -2094.03, -2367.47, -1978.22, 0.000, 0.000, 0.000, 14:11:53.378
142, -2015.36, -2299.11, -2522.09, -2120.83, 0.000, 0.000, 0.000, 14:11:53.378
143, -1810.69, -2064.18, -2314.08, -1926.65, 0.000, 0.000, 0.000, 14:11:53.378
144, -1536.04, -1755.40, -2067.66, -1713.78, 0.000, 0.000, 0.000, 14:11:53.378
145, -1822.88, -2093.26, -2367.45, -1989.69, 0.000, 0.000, 0.000, 14:11:53.392
146, -2043.28, -2300.00, -2520.39, -2127.01, 0.000, 0.000, 0.000, 14:11:53.393
147, -1818.30, -2046.89, -2304.14, -1934.42, 0.000, 0.000, 0.000, 14:11:53.408
148, -1551.72, -1742.99, -2065.01, -1721.16, 0.000, 0.000, 0.000, 14:11:53.408
149, -1839.29, -2095.84, -2371.75, -1987.80, 0.000, 0.000, 0.000, 14:11:53.408
150, -2038.67, -2292.08, -2523.26, -2126.95, 0.000, 0.000, 0.000, 14:11:53.408
151, -1819.38, -2045.22, -2302.28, -1927.73, 0.000, 0.000, 0.000, 14:11:53.423
152, -1536.92, -1734.04, -2059.26, -1714.53, 0.000, 0.000, 0.000, 14:11:53.423
153, -1843.54, -2077.37, -2360.78, -1988.75, 0.000, 0.000, 0.000, 14:11:53.437
154, -2045.89, -2293.40, -2509.47, -2122.43, 0.000, 0.000, 0.000, 14:11:53.437
155, -1825.12, -2038.78, -2300.30, -1929.30, 0.000, 0.000, 0.000, 14:11:53.452
156, -1542.67, -1736.07, -2069.58, -1719.70, 0.000, 0.000, 0.000, 14:11:53.452
157, -1847.74, -2090.00, -2372.58, -1995.29, 0.000, 0.000, 0.000, 14:11:53.453
158, -2042.69, -2286.28, -2512.38, -2121.88, 0.000, 0.000, 0.000, 14:11:53.453
159, -1808.01, -2030.81, -2294.10, -1934.42, 0.000, 0.000, 0.000, 14:11:53.467
160, -1538.43, -1734.32, -2062.29, -1718.23, 0.000, 0.000, 0.000, 14:11:53.468
161, -1843.18, -2081.57, -2365.78, -1994.20, 0.000, 0.000, 0.000, 14:11:53.475
162, -2030.02, -2288.52, -2509.22, -2123.58, 0.000, 0.000, 0.000, 14:11:53.475
163, -1817.57, -2034.48, -2297.26, -1927.52, 0.000, 0.000, 0.000, 14:11:53.482
164, -1537.07, -1732.91, -2063.39, -1714.10, 0.000, 0.000, 0.000, 14:11:53.482
165, -1842.47, -2090.68, -2372.40, -1994.16, 0.000, 0.000, 0.000, 14:11:53.497
166, -2037.94, -2284.73, -2517.82, -2128.33, 0.000, 0.000, 0.000, 14:11:53.497
167, -1809.89, -2032.38, -2289.13, -1927.45, 0.000, 0.000, 0.000, 14:11:53.498
168, -1537.74, -1730.81, -2064.15, -1721.43, 0.000, 0.000, 0.000, 14:11:53.498
169, -1847.01, -2091.07, -2371.40, -2000.97, 0.000, 0.000, 0.000, 14:11:53.512
170, -2039.26, -2279.70, -2516.43, -2124.52, 0.000, 0.000, 0.000, 14:11:53.512
171, -1810.69, -2033.58, -2294.79, -1917.67, 0.000, 0.000, 0.000, 14:11:53.528
172, -1549.61, -1734.96, -2066.87, -1723.94, 0.000, 0.000, 0.000, 14:11:53.528
173, -1862.01, -2102.61, -2384.06, -1997.73, 0.000, 0.000, 0.000, 14:11:53.528
174, -2040.56, -2282.70, -2513.54, -2120.07, 0.000, 0.000, 0.000, 14:11:53.528
175, -1820.72, -2022.11, -2289.76, -1924.45, 0.000, 0.000, 0.000, 14:11:53.542
176, -1552.31, -1734.02, -2061.77, -1711.08, 0.000, 0.000, 0.000, 14:11:53.542
177, -1866.88, -2090.94, -2376.18, -2002.31, 0.000, 0.000, 0.000, 14:11:53.557
178, -2045.24, -2284.92, -2507.63, -2120.09, 0.000, 0.000, 0.000, 14:11:53.557
179, -1820.98, -2030.11, -2292.49, -1925.83, 0.000, 0.000, 0.000, 14:11:53.558
180, -1539.48, -1718.40, -2057.10, -1720.44, 0.000, 0.000, 0.000, 14:11:53.558
181, -1867.83, -2093.52, -2376.76, -2005.45, 0.000, 0.000, 0.000, 14:11:53.572
182, -2053.04, -2287.12, -2510.15, -2123.44, 0.000, 0.000, 0.000, 14:11:53.573
183, -1822.77, -2014.67, -2290.07, -1919.72, 0.000, 0.000, 0.000, 14:11:53.587
184, -1557.74, -1723.90, -2062.77, -1716.98, 0.000, 0.000, 0.000, 14:11:53.587
185, -1862.27, -2090.74, -2378.11, -2005.39, 0.000, 0.000, 0.000, 14:11:53.588
186, -2045.59, -2273.24, -2502.16, -2119.84, 0.000, 0.000, 0.000, 14:11:53.588
187, -1824.59, -2017.33, -2291.23, -1919.69, 0.000, 0.000, 0.000, 14:11:53.617
188, -1539.41, -1728.24, -2065.49, -1711.36, 0.000, 0.000, 0.000, 14:11:53.617
189, -1863.25, -2089.67, -2377.35, -2011.01, 0.000, 0.000, 0.000, 14:11:53.618
190, -2037.08, -2269.09, -2503.34, -2119.40, 0.000, 0.000, 0.000, 14:11:53.618
191, -1810.28, -2016.44, -2287.57, -1914.11, 0.000, 0.000, 0.000, 14:11:53.619
192, -1550.72, -1744.13, -2069.19, -1716.26, 0.000, 0.000, 0.000, 14:11:53.619
193, -1862.50, -2100.51, -2383.73, -2011.24, 0.000, 0.000, 0.000, 14:11:53.632
194, -2041.94, -2270.72, -2507.66, -2123.09, 0.000, 0.000, 0.000, 14:11:53.633
195, -1803.60, -2005.30, -2284.92, -1923.51, 0.000, 0.000, 0.000, 14:11:53.648
196, -1544.95, -1734.28, -2066.09, -1715.94, 0.000, 0.000, 0.000, 14:11:53.648
197, -1869.88, -2109.50, -2388.11, -2013.35, 0.000, 0.000, 0.000, 14:11:53.662
198, -2044.10, -2290.74, -2517.83, -2136.34, 0.000, 0.000, 0.000, 14:11:53.662
199, -1815.70, -2024.98, -2277.87, -1927.77, 0.000, 0.000, 0.000, 14:11:53.663
200, -1520.11, -1717.23, -2037.21, -1715.68, 0.000, 0.000, 0.000, 14:11:53.663
0, -1844.10, -2080.92, -2361.46, -2014.82, 0.000, 0.000, 0.000, 14:11:53.663
1, -2023.34, -2270.33, -2489.06, -2137.52, 0.000, 0.000, 0.000, 14:11:53.678
2, -1792.64, -2000.29, -2268.82, -1925.87, 0.000, 0.000, 0.000, 14:11:53.678
3, -1537.70, -1733.22, -2056.80, -1735.58, 0.000, 0.000, 0.000, 14:11:53.694
4, -1868.63, -2109.88, -2387.60, -2023.56, 0.000, 0.000, 0.000, 14:11:53.694
5, -2040.27, -2281.28, -2509.33, -2131.87, 0.000, 0.000, 0.000, 14:11:53.694
6, -1798.06, -2014.93, -2281.65, -1922.18, 0.000, 0.000, 0.000, 14:11:53.694
7, -1542.23, -1727.91, -2060.24, -1725.53, 0.000, 0.000, 0.000, 14:11:53.708
8, -1865.56, -2109.03, -2387.10, -2021.56, 0.000, 0.000, 0.000, 14:11:53.708
9, -2029.36, -2279.52, -2506.81, -2127.09, 0.000, 0.000, 0.000, 14:11:53.722
10, -1798.68, -2017.90, -2275.11, -1922.04, 0.000, 0.000, 0.000, 14:11:53.722
11, -1527.99, -1733.64, -2064.65, -1724.40, 0.000, 0.000, 0.000, 14:11:53.723
12, -1865.49, -2111.33, -2391.59, -2017.00, 0.000, 0.000, 0.000, 14:11:53.723
13, -2031.61, -2277.55, -2498.89, -2129.04, 0.000, 0.000, 0.000, 14:11:53.739
14, -1799.28, -2024.84, -2277.20, -1914.77, 0.000, 0.000, 0.000, 14:11:53.739
15, -1533.52, -1737.50, -2062.88, -1720.69, 0.000, 0.000, 0.000, 14:11:53.753
16, -1863.82, -2119.25, -2396.21, -2020.38, 0.000, 0.000, 0.000, 14:11:53.753
17, -2026.32, -2278.51, -2505.01, -2117.62, 0.000, 0.000, 0.000, 14:11:53.754
18, -1788.88, -2006.82, -2268.80, -1911.86, 0.000, 0.000, 0.000, 14:11:53.754
19, -1536.42, -1737.39, -2061.04, -1725.55, 0.000, 0.000, 0.000, 14:11:53.767
20, -1867.37, -2125.74, -2391.27, -2026.07, 0.000, 0.000, 0.000, 14:11:53.768
21, -2023.78, -2275.40, -2495.47, -2117.07, 0.000, 0.000, 0.000, 14:11:53.782
22, -1795.53, -2008.91, -2269.10, -1908.69, 0.000, 0.000, 0.000, 14:11:53.782
23, -1528.21, -1732.43, -2047.93, -1720.57, 0.000, 0.000, 0.000, 14:11:53.783
24, -1864.07, -2124.67, -2391.14, -2024.06, 0.000, 0.000, 0.000, 14:11:53.783
25, -2014.68, -2277.10, -2493.89, -2122.12, 0.000, 0.000, 0.000, 14:11:53.797
26, -1794.09, -2014.64, -2282.09, -1916.95, 0.000, 0.000, 0.000, 14:11:53.797
27, -1535.32, -1749.49, -2070.66, -1717.49, 0.000, 0.000, 0.000, 14:11:53.813
28, -1877.60, -2147.41, -2397.56, -2035.16, 0.000, 0.000, 0.000, 14:11:53.813
29, -2021.79, -2293.04, -2514.29, -2122.57, 0.000, 0.000, 0.000, 14:11:53.827
30, -1793.11, -2018.50, -2271.43, -1914.72, 0.000, 0.000, 0.000, 14:11:53.827
31, -1523.57, -1742.04, -2054.65, -1720.11, 0.000, 0.000, 0.000, 14:11:53.834
32, -1880.70, -2133.82, -2398.45, -2029.22, 0.000, 0.000, 0.000, 14:11:53.835
33, -2022.01, -2272.49, -2483.38, -2115.47, 0.000, 0.000, 0.000, 14:11:53.857
34, -1781.53, -1995.62, -2258.83, -1905.07, 0.000, 0.000, 0.000, 14:11:53.857
35, -1540.57, -1739.08, -2062.52, -1720.34, 0.000, 0.000, 0.000, 14:11:53.858
36, -1879.74, -2135.50, -2398.30, -2030.57, 0.000, 0.000, 0.000, 14:11:53.858
37, -2035.14, -2276.12, -2496.41, -2117.39, 0.000, 0.000, 0.000, 14:11:53.858
38, -1791.17, -2014.46, -2270.71, -1911.29, 0.000, 0.000, 0.000, 14:11:53.858
39, -1540.92, -1738.92, -2069.01, -1723.16, 0.000, 0.000, 0.000, 14:11:53.860
40, -1889.85, -2138.56, -2402.54, -2031.79, 0.000, 0.000, 0.000, 14:11:53.860
41, -2032.40, -2275.51, -2501.05, -2123.72, 0.000, 0.000, 0.000, 14:11:53.873
42, -1785.18, -1998.25, -2276.67, -1905.12, 0.000, 0.000, 0.000, 14:11:53.873
43, -1542.87, -1741.06, -2066.33, -1717.77, 0.000, 0.000, 0.000, 14:11:53.887
44, -1885.56, -2139.64, -2409.51, -2026.14, 0.000, 0.000, 0.000, 14:11:53.887
45, -2028.89, -2274.74, -2499.61, -2116.89, 0.000, 0.000, 0.000, 14:11:53.902
46, -1770.11, -1993.64, -2262.94, -1897.35, 0.000, 0.000, 0.000, 14:11:53.902
47, -1535.17, -1734.93, -2068.34, -1714.36, 0.000, 0.000, 0.000, 14:11:53.904
48, -1880.83, -2137.35, -2400.48, -2027.38, 0.000, 0.000, 0.000, 14:11:53.904
49, -2018.72, -2271.34, -2496.10, -2114.07, 0.000, 0.000, 0.000, 14:11:53.917
50, -1767.18, -1984.85, -2257.16, -1898.30, 0.000, 0.000, 0.000, 14:11:53.917
51, -1529.01, -1729.46, -2055.78, -1722.59, 0.000, 0.000, 0.000, 14:11:53.932
52, -1882.42, -2141.56, -2402.99, -2027.04, 0.000, 0.000, 0.000, 14:11:53.932
53, -2002.20, -2264.59, -2491.48, -2106.18, 0.000, 0.000, 0.000, 14:11:53.933
54, -1767.82, -1993.84, -2250.91, -1887.54, 0.000, 0.000, 0.000, 14:11:53.933
55, -1531.35, -1742.66, -2063.12, -1720.02, 0.000, 0.000, 0.000, 14:11:53.948
56, -1877.22, -2139.47, -2408.51, -2032.80, 0.000, 0.000, 0.000, 14:11:53.948
57, -2019.16, -2277.62, -2499.95, -2114.64, 0.000, 0.000, 0.000, 14:11:53.963
58, -1784.08, -1997.36, -2263.62, -1891.07, 0.000, 0.000, 0.000, 14:11:53.963
59, -1542.93, -1739.21, -2072.48, -1720.34, 0.000, 0.000, 0.000, 14:11:53.963
60, -1905.30, -2152.39, -2426.63, -2043.29, 0.000, 0.000, 0.000, 14:11:53.964
61, -2023.12, -2275.24, -2500.36, -2113.64, 0.000, 0.000, 0.000, 14:11:53.978
62, -1774.40, -1985.40, -2267.12, -1898.46, 0.000, 0.000, 0.000, 14:11:53.978
63, -1536.13, -1743.21, -2069.01, -1718.30, 0.000, 0.000, 0.000, 14:11:53.992
64, -1899.95, -2155.96, -2415.75, -2039.70, 0.000, 0.000, 0.000, 14:11:53.992
65, -2019.25, -2270.85, -2494.00, -2115.92, 0.000, 0.000, 0.000, 14:11:54.007
66, -1764.11, -1999.14, -2258.71, -1899.65, 0.000, 0.000, 0.000, 14:11:54.007
67, -1525.13, -1744.64, -2069.44, -1723.54, 0.000, 0.000, 0.000, 14:11:54.008
68, -1896.18, -2145.93, -2419.89, -2039.65, 0.000, 0.000, 0.000, 14:11:54.008
69, -2019.44, -2276.69, -2502.47, -2116.32, 0.000, 0.000, 0.000, 14:11:54.023
70, -1767.29, -1978.72, -2254.56, -1893.66, 0.000, 0.000, 0.000, 14:11:54.023
71, -1534.07, -1741.78, -2065.37, -1722.38, 0.000, 0.000, 0.000, 14:11:54.023
72, -1891.08, -2158.07, -2412.84, -2039.08, 0.000, 0.000, 0.000, 14:11:54.024
73, -2017.68, -2268.58, -2486.01, -2105.74, 0.000, 0.000, 0.000, 14:11:54.037
74, -1772.57, -1982.42, -2253.20, -1894.21, 0.000, 0.000, 0.000, 14:11:54.037
75, -1527.50, -1733.91, -2057.23, -1721.54, 0.000, 0.000, 0.000, 14:11:54.068
76, -1889.79, -2157.15, -2421.19, -2036.00, 0.000, 0.000, 0.000, 14:11:54.068
77, -2022.47, -2277.82, -2499.63, -2107.77, 0.000, 0.000, 0.000, 14:11:54.068
78, -1767.03, -1989.21, -2256.93, -1893.86, 0.000, 0.000, 0.000, 14:11:54.068
79, -1553.59, -1762.00, -2079.35, -1734.97, 0.000, 0.000, 0.000, 14:11:54.069
80, -1939.61, -2199.12, -2452.14, -2064.75, 0.000, 0.000, 0.000, 14:11:54.069
81, -2013.00, -2259.45, -2471.23, -2120.54, 0.000, 0.000, 0.000, 14:11:54.070
82, -1745.63, -1947.03, -2210.82, -1892.59, 0.000, 0.000, 0.000, 14:11:54.070
83, -1518.97, -1706.94, -2019.55, -1741.53, 0.000, 0.000, 0.000, 14:11:54.098
84, -1889.02, -2130.45, -2378.26, -2076.14, 0.000, 0.000, 0.000, 14:11:54.098
85, -2002.84, -2230.21, -2439.55, -2139.30, 0.000, 0.000, 0.000, 14:11:54.099
86, -1754.10, -1951.93, -2198.83, -1920.41, 0.000, 0.000, 0.000, 14:11:54.099
87, -1535.74, -1721.28, -2036.63, -1756.51, 0.000, 0.000, 0.000, 14:11:54.099
88, -1901.44, -2141.85, -2392.64, -2081.08, 0.000, 0.000, 0.000, 14:11:54.099
89, -2012.07, -2238.25, -2465.69, -2139.07, 0.000, 0.000, 0.000, 14:11:54.112
90, -1767.88, -1965.05, -2226.55, -1910.78, 0.000, 0.000, 0.000, 14:11:54.112
91, -1534.59, -1721.46, -2048.47, -1741.36, 0.000, 0.000, 0.000, 14:11:54.128
92, -1908.64, -2153.88, -2406.48, -2067.87, 0.000, 0.000, 0.000, 14:11:54.128
93, -2013.27, -2251.12, -2481.28, -2126.08, 0.000, 0.000, 0.000, 14:11:54.142
94, -1763.27, -1961.66, -2230.69, -1904.79, 0.000, 0.000, 0.000, 14:11:54.142
95, -1537.14, -1729.99, -2053.63, -1740.70, 0.000, 0.000, 0.000, 14:11:54.143
96, -1912.58, -2144.86, -2412.86, -2066.71, 0.000, 0.000, 0.000, 14:11:54.144
97, -2024.11, -2259.85, -2481.02, -2126.84, 0.000, 0.000, 0.000, 14:11:54.157
98, -1767.55, -1968.54, -2242.76, -1902.11, 0.000, 0.000, 0.000, 14:11:54.158
99, -1543.36, -1739.30, -2060.15, -1744.16, 0.000, 0.000, 0.000, 14:11:54.173
100, -1913.44, -2162.48, -2420.40, -2066.62, 0.000, 0.000, 0.000, 14:11:54.173
101, -2031.00, -2263.21, -2493.17, -2116.68, 0.000, 0.000, 0.000, 14:11:54.173
102, -1758.27, -1973.90, -2240.11, -1886.33, 0.000, 0.000, 0.000, 14:11:54.173
103, -1551.39, -1746.30, -2070.48, -1734.80, 0.000, 0.000, 0.000, 14:11:54.187
104, -1919.86, -2175.70, -2433.04, -2062.26, 0.000, 0.000, 0.000, 14:11:54.187
105, -2012.50, -2265.23, -2486.76, -2106.87, 0.000, 0.000, 0.000, 14:11:54.203
106, -1763.17, -1973.25, -2245.69, -1885.62, 0.000, 0.000, 0.000, 14:11:54.204
107, -1542.48, -1747.60, -2071.30, -1724.51, 0.000, 0.000, 0.000, 14:11:54.204
108, -1902.30, -2168.28, -2434.15, -2051.11, 0.000, 0.000, 0.000, 14:11:54.204
109, -2016.10, -2271.04, -2491.33, -2115.74, 0.000, 0.000, 0.000, 14:11:54.217
110, -1751.12, -1964.91, -2239.68, -1889.71, 0.000, 0.000, 0.000, 14:11:54.217
111, -1540.80, -1752.69, -2075.43, -1732.71, 0.000, 0.000, 0.000, 14:11:54.232
112, -1914.24, -2181.12, -2433.04, -2065.29, 0.000, 0.000, 0.000, 14:11:54.232
113, -2010.40, -2266.46, -2486.23, -2110.58, 0.000, 0.000, 0.000, 14:11:54.233
114, -1754.09, -1974.11, -2241.08, -1881.86, 0.000, 0.000, 0.000, 14:11:54.233
115, -1534.21, -1751.21, -2073.37, -1733.40, 0.000, 0.000, 0.000, 14:11:54.255
116, -1903.37, -2189.60, -2429.86, -2052.80, 0.000, 0.000, 0.000, 14:11:54.255
117, -2008.05, -2288.19, -2486.14, -2107.43, 0.000, 0.000, 0.000, 14:11:54.262
118, -1729.87, -1995.46, -2229.69, -1871.31, 0.000, 0.000, 0.000, 14:11:54.262
119, -1520.62, -1757.82, -2065.43, -1737.43, 0.000, 0.000, 0.000, 14:11:54.262
120, -1892.06, -2188.17, -2433.84, -2053.41, 0.000, 0.000, 0.000, 14:11:54.262
121, -1962.76, -2287.82, -2493.14, -2101.68, 0.000, 0.000, 0.000, 14:11:54.277
122, -1674.58, -1973.71, -2229.45, -1873.81, 0.000, 0.000, 0.000, 14:11:54.277
123, -1449.47, -1822.00, -2070.13, -1711.54, 0.000, 0.000, 0.000, 14:11:54.293
124, -1791.85, -2228.14, -2422.53, -2031.30, 0.000, 0.000, 0.000, 14:11:54.293
125, -1838.80, -2344.10, -2482.68, -2084.95, 0.000, 0.000, 0.000, 14:11:54.294
126, -1530.14, -2063.74, -2222.86, -1843.38, 0.000, 0.000, 0.000, 14:11:54.294
127, -1266.45, -1862.93, -2054.62, -1695.30, 0.000, 0.000, 0.000, 14:11:54.307
128, -1626.06, -2310.49, -2422.45, -2037.14, 0.000, 0.000, 0.000, 14:11:54.308
129, -1721.10, -2412.33, -2477.96, -2077.58, 0.000, 0.000, 0.000, 14:11:54.323
130, -1467.59, -2104.15, -2235.21, -1843.00, 0.000, 0.000, 0.000, 14:11:54.324
131, -1292.84, -1894.21, -2074.25, -1705.96, 0.000, 0.000, 0.000, 14:11:54.324
132, -1708.51, -2316.18, -2443.65, -2049.28, 0.000, 0.000, 0.000, 14:11:54.324
133, -1832.93, -2377.46, -2499.92, -2089.73, 0.000, 0.000, 0.000, 14:11:54.337
134, -1597.74, -2058.65, -2241.76, -1857.62, 0.000, 0.000, 0.000, 14:11:54.338
135, -1442.88, -1823.75, -2082.75, -1718.01, 0.000, 0.000, 0.000, 14:11:54.352
136, -1858.90, -2242.17, -2449.72, -2055.67, 0.000, 0.000, 0.000, 14:11:54.352
137, -1991.89, -2303.13, -2502.02, -2107.82, 0.000, 0.000, 0.000, 14:11:54.353
138, -1737.14, -1972.79, -2232.60, -1871.18, 0.000, 0.000, 0.000, 14:11:54.353
139, -1558.09, -1737.41, -2079.50, -1731.63, 0.000, 0.000, 0.000, 14:11:54.368
140, -1979.77, -2169.97, -2461.48, -2080.41, 0.000, 0.000, 0.000, 14:11:54.368
141, -2084.16, -2244.79, -2505.76, -2119.17, 0.000, 0.000, 0.000, 14:11:54.382
142, -1841.30, -1928.52, -2253.01, -1887.00, 0.000, 0.000, 0.000, 14:11:54.382
143, -1628.40, -1709.39, -2095.71, -1741.66, 0.000, 0.000, 0.000, 14:11:54.383
144, -2028.19, -2142.90, -2461.47, -2080.00, 0.000, 0.000, 0.000, 14:11:54.383
145, -2120.37, -2201.37, -2501.11, -2115.60, 0.000, 0.000, 0.000, 14:11:54.412
146, -1860.82, -1899.66, -2244.81, -1884.00, 0.000, 0.000, 0.000, 14:11:54.412
147, -1655.10, -1684.13, -2089.61, -1745.14, 0.000, 0.000, 0.000, 14:11:54.412
148, -2039.10, -2127.85, -2454.32, -2084.77, 0.000, 0.000, 0.000, 14:11:54.412
149, -2123.49, -2197.12, -2493.28, -2117.18, 0.000, 0.000, 0.000, 14:11:54.413
150, -1847.33, -1889.39, -2231.25, -1879.32, 0.000, 0.000, 0.000, 14:11:54.413
151, -1664.25, -1699.66, -2088.50, -1745.30, 0.000, 0.000, 0.000, 14:11:54.427
152, -2046.65, -2134.27, -2450.84, -2081.75, 0.000, 0.000, 0.000, 14:11:54.427
153, -2099.02, -2192.11, -2477.67, -2107.29, 0.000, 0.000, 0.000, 14:11:54.445
154, -1831.07, -1897.08, -2221.39, -1882.83, 0.000, 0.000, 0.000, 14:11:54.445
155, -1649.07, -1696.19, -2083.59, -1744.70, 0.000, 0.000, 0.000, 14:11:54.445
156, -2026.76, -2147.92, -2453.81, -2088.26, 0.000, 0.000, 0.000, 14:11:54.445
157, -2093.64, -2196.86, -2484.88, -2112.33, 0.000, 0.000, 0.000, 14:11:54.457
158, -1824.21, -1888.26, -2225.46, -1872.72, 0.000, 0.000, 0.000, 14:11:54.457
159, -1633.09, -1708.93, -2089.91, -1744.50, 0.000, 0.000, 0.000, 14:11:54.472
160, -2012.96, -2144.49, -2455.26, -2078.89, 0.000, 0.000, 0.000, 14:11:54.473
161, -2078.87, -2210.16, -2475.55, -2104.84, 0.000, 0.000, 0.000, 14:11:54.473
162, -1801.26, -1909.09, -2222.45, -1872.77, 0.000, 0.000, 0.000, 14:11:54.473
163, -1619.72, -1711.96, -2079.42, -1745.19, 0.000, 0.000, 0.000, 14:11:54.488
164, -2012.40, -2172.84, -2474.53, -2084.81, 0.000, 0.000, 0.000, 14:11:54.488
165, -2075.35, -2228.38, -2492.32, -2106.20, 0.000, 0.000, 0.000, 14:11:54.504
166, -1797.68, -1921.70, -2237.36, -1867.75, 0.000, 0.000, 0.000, 14:11:54.504
167, -1599.57, -1752.21, -2089.27, -1744.58, 0.000, 0.000, 0.000, 14:11:54.504
168, -1993.18, -2188.43, -2471.09, -2090.07, 0.000, 0.000, 0.000, 14:11:54.504
169, -2048.25, -2232.56, -2481.62, -2105.89, 0.000, 0.000, 0.000, 14:11:54.517
170, -1765.19, -1931.77, -2225.32, -1868.13, 0.000, 0.000, 0.000, 14:11:54.517
171, -1583.86, -1739.99, -2082.84, -1731.13, 0.000, 0.000, 0.000, 14:11:54.533
172, -1971.30, -2181.98, -2454.35, -2075.68, 0.000, 0.000, 0.000, 14:11:54.533
173, -2034.41, -2237.48, -2478.98, -2092.86, 0.000, 0.000, 0.000, 14:11:54.533
174, -1756.46, -1912.95, -2214.85, -1853.47, 0.000, 0.000, 0.000, 14:11:54.533
175, -1567.53, -1732.18, -2074.99, -1740.21, 0.000, 0.000, 0.000, 14:11:54.548
176, -1964.09, -2180.20, -2452.82, -2073.08, 0.000, 0.000, 0.000, 14:11:54.548
177, -2026.24, -2236.23, -2476.31, -2085.23, 0.000, 0.000, 0.000, 14:11:54.562
178, -1748.53, -1925.54, -2210.33, -1859.88, 0.000, 0.000, 0.000, 14:11:54.562
179, -1565.46, -1748.34, -2080.55, -1733.63, 0.000, 0.000, 0.000, 14:11:54.563
180, -1951.51, -2190.13, -2454.50, -2078.13, 0.000, 0.000, 0.000, 14:11:54.563
181, -2014.85, -2228.95, -2469.83, -2093.27, 0.000, 0.000, 0.000, 14:11:54.577
182, -1741.02, -1922.78, -2221.08, -1854.13, 0.000, 0.000, 0.000, 14:11:54.577
183, -1560.83, -1742.17, -2084.99, -1730.86, 0.000, 0.000, 0.000, 14:11:54.593
184, -1958.10, -2193.92, -2458.09, -2077.07, 0.000, 0.000, 0.000, 14:11:54.594
185, -2009.61, -2233.47, -2477.77, -2099.01, 0.000, 0.000, 0.000, 14:11:54.594
186, -1725.74, -1909.03, -2207.71, -1853.99, 0.000, 0.000, 0.000, 14:11:54.594
187, -1555.16, -1748.34, -2077.45, -1731.56, 0.000, 0.000, 0.000, 14:11:54.622
188, -1953.59, -2196.23, -2462.63, -2078.21, 0.000, 0.000, 0.000, 14:11:54.623
189, -2002.26, -2235.43, -2472.60, -2096.59, 0.000, 0.000, 0.000, 14:11:54.623
190, -1725.64, -1923.88, -2207.74, -1847.89, 0.000, 0.000, 0.000, 14:11:54.623
191, -1559.46, -1748.38, -2086.52, -1740.98, 0.000, 0.000, 0.000, 14:11:54.624
192, -1950.43, -2200.43, -2463.09, -2085.53, 0.000, 0.000, 0.000, 14:11:54.624
193, -2002.99, -2241.02, -2477.56, -2089.73, 0.000, 0.000, 0.000, 14:11:54.637
194, -1713.84, -1917.91, -2204.79, -1851.32, 0.000, 0.000, 0.000, 14:11:54.638
195, -1556.53, -1755.79, -2087.52, -1739.76, 0.000, 0.000, 0.000, 14:11:54.652
196, -1958.08, -2210.25, -2463.89, -2084.91, 0.000, 0.000, 0.000, 14:11:54.652
197, -2009.83, -2248.60, -2483.66, -2101.71, 0.000, 0.000, 0.000, 14:11:54.653
198, -1731.47, -1926.85, -2212.49, -1855.79, 0.000, 0.000, 0.000, 14:11:54.653
199, -1563.60, -1757.04, -2093.40, -1743.07, 0.000, 0.000, 0.000, 14:11:54.667
200, -1961.43, -2205.29, -2467.62, -2089.98, 0.000, 0.000, 0.000, 14:11:54.667
0, -2011.29, -2232.86, -2475.91, -2100.23, 0.000, 0.000, 0.000, 14:11:54.668
1, -1730.37, -1918.92, -2209.00, -1864.18, 0.000, 0.000, 0.000, 14:11:54.682
2, -1568.83, -1771.87, -2096.99, -1744.70, 0.000, 0.000, 0.000, 14:11:54.682
3, -1962.43, -2213.41, -2464.77, -2089.70, 0.000, 0.000, 0.000, 14:11:54.697
4, -2009.55, -2252.43, -2481.79, -2093.40, 0.000, 0.000, 0.000, 14:11:54.697
5, -1728.73, -1928.35, -2212.91, -1851.11, 0.000, 0.000, 0.000, 14:11:54.698
6, -1564.65, -1757.16, -2086.99, -1738.02, 0.000, 0.000, 0.000, 14:11:54.698
7, -1960.41, -2208.78, -2469.21, -2087.84, 0.000, 0.000, 0.000, 14:11:54.727
8, -2002.22, -2246.22, -2474.26, -2090.69, 0.000, 0.000, 0.000, 14:11:54.727
9, -1729.15, -1918.74, -2208.97, -1851.36, 0.000, 0.000, 0.000, 14:11:54.728
10, -1563.81, -1770.29, -2095.22, -1748.05, 0.000, 0.000, 0.000, 14:11:54.728
11, -1969.81, -2222.59, -2476.44, -2098.67, 0.000, 0.000, 0.000, 14:11:54.728
12, -2001.12, -2250.30, -2477.32, -2095.18, 0.000, 0.000, 0.000, 14:11:54.729
13, -1716.65, -1930.19, -2203.96, -1851.89, 0.000, 0.000, 0.000, 14:11:54.743
14, -1562.09, -1764.11, -2096.48, -1747.35, 0.000, 0.000, 0.000, 14:11:54.744
15, -1964.04, -2203.50, -2475.23, -2096.72, 0.000, 0.000, 0.000, 14:11:54.757
16, -1999.80, -2240.71, -2474.56, -2098.24, 0.000, 0.000, 0.000, 14:11:54.757
17, -1706.40, -1920.53, -2211.94, -1837.31, 0.000, 0.000, 0.000, 14:11:54.758
18, -1556.08, -1762.91, -2096.66, -1750.87, 0.000, 0.000, 0.000, 14:11:54.758
19, -1950.35, -2203.52, -2470.46, -2086.24, 0.000, 0.000, 0.000, 14:11:54.772
20, -1992.26, -2232.53, -2469.46, -2089.24, 0.000, 0.000, 0.000, 14:11:54.772
21, -1697.99, -1911.18, -2198.88, -1843.08, 0.000, 0.000, 0.000, 14:11:54.787
22, -1540.51, -1765.66, -2094.49, -1742.32, 0.000, 0.000, 0.000, 14:11:54.788
23, -1958.74, -2212.93, -2477.10, -2087.93, 0.000, 0.000, 0.000, 14:11:54.788
24, -1992.74, -2235.75, -2475.78, -2088.79, 0.000, 0.000, 0.000, 14:11:54.788
25, -1706.56, -1916.06, -2211.10, -1844.35, 0.000, 0.000, 0.000, 14:11:54.803
26, -1551.79, -1764.86, -2098.76, -1747.43, 0.000, 0.000, 0.000, 14:11:54.803
27, -1953.02, -2218.94, -2473.65, -2093.86, 0.000, 0.000, 0.000, 14:11:54.832
28, -2005.09, -2243.57, -2476.62, -2097.70, 0.000, 0.000, 0.000, 14:11:54.832
29, -1708.56, -1910.20, -2199.70, -1838.27, 0.000, 0.000, 0.000, 14:11:54.833
30, -1571.50, -1773.40, -2100.60, -1748.05, 0.000, 0.000, 0.000, 14:11:54.833
31, -1974.52, -2233.11, -2488.00, -2091.94, 0.000, 0.000, 0.000, 14:11:54.834
32, -1987.18, -2231.37, -2474.03, -2084.81, 0.000, 0.000, 0.000, 14:11:54.834
33, -1715.60, -1916.68, -2207.87, -1842.64, 0.000, 0.000, 0.000, 14:11:54.834
34, -1565.19, -1769.60, -2101.95, -1755.61, 0.000, 0.000, 0.000, 14:11:54.834
35, -1976.80, -2228.45, -2486.38, -2100.14, 0.000, 0.000, 0.000, 14:11:54.862
36, -2008.08, -2238.25, -2470.98, -2084.64, 0.000, 0.000, 0.000, 14:11:54.863
37, -1701.68, -1899.04, -2197.34, -1836.22, 0.000, 0.000, 0.000, 14:11:54.863
38, -1569.19, -1768.52, -2096.38, -1753.65, 0.000, 0.000, 0.000, 14:11:54.863
39, -1969.28, -2228.07, -2474.57, -2099.53, 0.000, 0.000, 0.000, 14:11:54.877
40, -2001.59, -2243.73, -2463.52, -2086.37, 0.000, 0.000, 0.000, 14:11:54.878
41, -1700.25, -1908.58, -2191.40, -1831.61, 0.000, 0.000, 0.000, 14:11:54.878
42, -1548.37, -1766.01, -2097.92, -1753.24, 0.000, 0.000, 0.000, 14:11:54.878
43, -1971.38, -2231.37, -2476.43, -2101.58, 0.000, 0.000, 0.000, 14:11:54.893
44, -1991.90, -2236.01, -2463.98, -2085.88, 0.000, 0.000, 0.000, 14:11:54.893
45, -1706.28, -1907.43, -2195.63, -1835.87, 0.000, 0.000, 0.000, 14:11:54.907
46, -1560.93, -1776.16, -2100.87, -1752.43, 0.000, 0.000, 0.000, 14:11:54.907
47, -1977.00, -2237.62, -2488.07, -2104.80, 0.000, 0.000, 0.000, 14:11:54.908
48, -1995.19, -2245.01, -2469.74, -2092.32, 0.000, 0.000, 0.000, 14:11:54.908
49, -1715.78, -1925.33, -2202.62, -1856.79, 0.000, 0.000, 0.000, 14:11:54.937
50, -1575.56, -1782.32, -2108.38, -1742.70, 0.000, 0.000, 0.000, 14:11:54.938
51, -1970.42, -2239.01, -2500.59, -2082.90, 0.000, 0.000, 0.000, 14:11:54.938
52, -1973.51, -2244.37, -2480.58, -2051.16, 0.000, 0.000, 0.000, 14:11:54.938
53, -1688.85, -1903.13, -2212.69, -1796.70, 0.000, 0.000, 0.000, 14:11:54.939
54, -1567.45, -1797.35, -2138.92, -1726.09, 0.000, 0.000, 0.000, 14:11:54.939
55, -1971.40, -2254.76, -2519.99, -2069.11, 0.000, 0.000, 0.000, 14:11:54.953
56, -1982.74, -2244.68, -2505.03, -2049.30, 0.000, 0.000, 0.000, 14:11:54.953
57, -1702.16, -1923.23, -2226.37, -1806.48, 0.000, 0.000, 0.000, 14:11:54.982
58, -1573.90, -1788.32, -2133.59, -1727.25, 0.000, 0.000, 0.000, 14:11:54.982
59, -1984.13, -2260.93, -2515.29, -2085.81, 0.000, 0.000, 0.000, 14:11:54.982
60, -1989.87, -2244.29, -2489.08, -2059.12, 0.000, 0.000, 0.000, 14:11:54.982
61, -1699.75, -1913.24, -2211.57, -1809.25, 0.000, 0.000, 0.000, 14:11:54.983
62, -1569.80, -1792.73, -2130.16, -1742.31, 0.000, 0.000, 0.000, 14:11:54.983
63, -1987.84, -2252.08, -2502.38, -2088.98, 0.000, 0.000, 0.000, 14:11:54.991
64, -1993.39, -2237.32, -2475.19, -2063.44, 0.000, 0.000, 0.000, 14:11:54.991
65, -1697.45, -1901.86, -2200.43, -1818.72, 0.000, 0.000, 0.000, 14:11:54.997
66, -1562.18, -1777.96, -2111.90, -1743.50, 0.000, 0.000, 0.000, 14:11:54.997
67, -1981.48, -2239.44, -2499.23, -2102.61, 0.000, 0.000, 0.000, 14:11:55.012
68, -1986.71, -2234.55, -2470.37, -2076.90, 0.000, 0.000, 0.000, 14:11:55.012
69, -1696.70, -1901.13, -2190.50, -1820.93, 0.000, 0.000, 0.000, 14:11:55.027
70, -1572.05, -1787.64, -2117.72, -1756.05, 0.000, 0.000, 0.000, 14:11:55.027
71, -1987.47, -2249.01, -2505.26, -2103.67, 0.000, 0.000, 0.000, 14:11:55.028
72, -1987.83, -2234.91, -2478.20, -2073.45, 0.000, 0.000, 0.000, 14:11:55.028
73, -1691.34, -1902.55, -2189.10, -1820.56, 0.000, 0.000, 0.000, 14:11:55.044
74, -1570.88, -1784.31, -2117.54, -1758.98, 0.000, 0.000, 0.000, 14:11:55.044
75, -1979.69, -2240.48, -2494.32, -2105.59, 0.000, 0.000, 0.000, 14:11:55.058
76, -1988.59, -2231.67, -2467.23, -2078.33, 0.000, 0.000, 0.000, 14:11:55.058
77, -1697.68, -1893.99, -2195.62, -1827.19, 0.000, 0.000, 0.000, 14:11:55.059
78, -1571.38, -1790.28, -2120.52, -1767.40, 0.000, 0.000, 0.000, 14:11:55.059
79, -1985.77, -2245.50, -2497.51, -2105.48, 0.000, 0.000, 0.000, 14:11:55.087
80, -1991.63, -2229.62, -2462.92, -2074.63, 0.000, 0.000, 0.000, 14:11:55.087
81, -1677.71, -1882.12, -2178.39, -1821.79, 0.000, 0.000, 0.000, 14:11:55.088
82, -1573.69, -1788.22, -2114.88, -1763.11, 0.000, 0.000, 0.000, 14:11:55.089
83, -1990.92, -2254.93, -2494.08, -2106.05, 0.000, 0.000, 0.000, 14:11:55.089
84, -1979.66, -2221.01, -2461.32, -2073.08, 0.000, 0.000, 0.000, 14:11:55.089
85, -1674.21, -1885.60, -2179.04, -1825.28, 0.000, 0.000, 0.000, 14:11:55.104
86, -1581.08, -1788.32, -2114.65, -1764.44, 0.000, 0.000, 0.000, 14:11:55.104
87, -1977.53, -2239.23, -2495.58, -2111.27, 0.000, 0.000, 0.000, 14:11:55.117
88, -1983.28, -2227.64, -2459.68, -2077.87, 0.000, 0.000, 0.000, 14:11:55.118
89, -1678.98, -1888.08, -2179.29, -1827.82, 0.000, 0.000, 0.000, 14:11:55.118
90, -1583.27, -1791.47, -2118.01, -1768.50, 0.000, 0.000, 0.000, 14:11:55.118
91, -1994.86, -2250.38, -2498.99, -2107.94, 0.000, 0.000, 0.000, 14:11:55.132
92, -1982.75, -2219.38, -2450.50, -2079.75, 0.000, 0.000, 0.000, 14:11:55.132
93, -1686.37, -1894.49, -2177.25, -1822.89, 0.000, 0.000, 0.000, 14:11:55.148
94, -1574.45, -1789.76, -2117.13, -1767.71, 0.000, 0.000, 0.000, 14:11:55.148
95, -1987.65, -2244.79, -2492.50, -2112.13, 0.000, 0.000, 0.000, 14:11:55.148
96, -1982.29, -2222.02, -2460.55, -2084.03, 0.000, 0.000, 0.000, 14:11:55.148
97, -1686.70, -1891.78, -2185.63, -1819.53, 0.000, 0.000, 0.000, 14:11:55.162
98, -1574.24, -1796.10, -2124.87, -1762.72, 0.000, 0.000, 0.000, 14:11:55.162
99, -1983.68, -2246.16, -2499.56, -2113.04, 0.000, 0.000, 0.000, 14:11:55.177
100, -1970.10, -2233.72, -2456.35, -2072.85, 0.000, 0.000, 0.000, 14:11:55.177
101, -1681.19, -1905.93, -2186.27, -1821.42, 0.000, 0.000, 0.000, 14:11:55.178
102, -1590.62, -1813.18, -2138.40, -1773.06, 0.000, 0.000, 0.000, 14:11:55.178
103, -1983.15, -2265.91, -2510.01, -2119.94, 0.000, 0.000, 0.000, 14:11:55.208
104, -1952.53, -2257.89, -2455.32, -2068.44, 0.000, 0.000, 0.000, 14:11:55.208
105, -1641.10, -1932.98, -2165.89, -1810.26, 0.000, 0.000, 0.000, 14:11:55.209
106, -1539.28, -1794.08, -2104.40, -1770.14, 0.000, 0.000, 0.000, 14:11:55.209
107, -1943.44, -2265.60, -2493.32, -2106.37, 0.000, 0.000, 0.000, 14:11:55.210
108, -1914.52, -2254.85, -2447.29, -2055.72, 0.000, 0.000, 0.000, 14:11:55.210
109, -1585.41, -1903.68, -2163.31, -1805.56, 0.000, 0.000, 0.000, 14:11:55.223
110, -1467.68, -1829.40, -2110.01, -1759.08, 0.000, 0.000, 0.000, 14:11:55.223
111, -1855.86, -2317.58, -2489.28, -2105.60, 0.000, 0.000, 0.000, 14:11:55.237
112, -1825.11, -2288.83, -2443.03, -2068.34, 0.000, 0.000, 0.000, 14:11:55.237
113, -1494.83, -1957.13, -2161.47, -1802.64, 0.000, 0.000, 0.000, 14:11:55.238
114, -1395.65, -1877.51, -2111.57, -1745.80, 0.000, 0.000, 0.000, 14:11:55.238
115, -1832.20, -2356.25, -2509.60, -2093.21, 0.000, 0.000, 0.000, 14:11:55.253
116, -1842.82, -2307.97, -2458.68, -2052.54, 0.000, 0.000, 0.000, 14:11:55.253
117, -1564.73, -1950.11, -2177.64, -1797.75, 0.000, 0.000, 0.000, 14:11:55.282
118, -1497.44, -1850.21, -2131.89, -1762.56, 0.000, 0.000, 0.000, 14:11:55.282
119, -1959.04, -2299.76, -2508.79, -2107.02, 0.000, 0.000, 0.000, 14:11:55.283
120, -1968.52, -2249.42, -2463.89, -2063.91, 0.000, 0.000, 0.000, 14:11:55.283
121, -1682.25, -1883.90, -2183.59, -1814.91, 0.000, 0.000, 0.000, 14:11:55.284
122, -1629.19, -1799.92, -2140.42, -1778.79, 0.000, 0.000, 0.000, 14:11:55.284
123, -2047.57, -2244.42, -2516.54, -2130.92, 0.000, 0.000, 0.000, 14:11:55.284
124, -2039.84, -2189.69, -2465.54, -2075.87, 0.000, 0.000, 0.000, 14:11:55.284
125, -1741.47, -1846.91, -2173.47, -1821.25, 0.000, 0.000, 0.000, 14:11:55.298
126, -1671.35, -1760.05, -2132.54, -1783.28, 0.000, 0.000, 0.000, 14:11:55.298
127, -2082.13, -2220.34, -2514.76, -2131.15, 0.000, 0.000, 0.000, 14:11:55.312
128, -2063.76, -2174.18, -2456.40, -2081.40, 0.000, 0.000, 0.000, 14:11:55.312
129, -1755.43, -1827.61, -2168.32, -1820.54, 0.000, 0.000, 0.000, 14:11:55.327
130, -1669.87, -1770.84, -2133.02, -1788.91, 0.000, 0.000, 0.000, 14:11:55.327
131, -2078.57, -2220.11, -2507.06, -2130.17, 0.000, 0.000, 0.000, 14:11:55.328
132, -2042.46, -2168.65, -2444.65, -2071.84, 0.000, 0.000, 0.000, 14:11:55.328
133, -1731.81, -1824.53, -2164.71, -1817.02, 0.000, 0.000, 0.000, 14:11:55.343
134, -1658.32, -1759.65, -2126.76, -1780.17, 0.000, 0.000, 0.000, 14:11:55.343
135, -2063.51, -2231.40, -2514.20, -2127.16, 0.000, 0.000, 0.000, 14:11:55.358
136, -2032.36, -2187.49, -2449.83, -2071.37, 0.000, 0.000, 0.000, 14:11:55.358
137, -1724.51, -1836.16, -2174.11, -1813.43, 0.000, 0.000, 0.000, 14:11:55.358
138, -1648.50, -1763.94, -2137.47, -1786.55, 0.000, 0.000, 0.000, 14:11:55.358
139, -2048.49, -2239.53, -2509.38, -2127.04, 0.000, 0.000, 0.000, 14:11:55.387
140, -2022.11, -2185.52, -2447.71, -2070.69, 0.000, 0.000, 0.000, 14:11:55.387
141, -1720.14, -1847.96, -2167.92, -1811.94, 0.000, 0.000, 0.000, 14:11:55.388
142, -1642.40, -1787.79, -2131.57, -1785.58, 0.000, 0.000, 0.000, 14:11:55.388
143, -2039.77, -2237.58, -2506.72, -2127.23, 0.000, 0.000, 0.000, 14:11:55.388
144, -2004.75, -2194.46, -2447.09, -2069.59, 0.000, 0.000, 0.000, 14:11:55.388
145, -1699.84, -1850.35, -2162.87, -1809.99, 0.000, 0.000, 0.000, 14:11:55.402
146, -1620.26, -1795.45, -2140.40, -1789.19, 0.000, 0.000, 0.000, 14:11:55.402
147, -2045.12, -2252.40, -2519.92, -2127.19, 0.000, 0.000, 0.000, 14:11:55.417
148, -1997.33, -2187.84, -2443.08, -2063.87, 0.000, 0.000, 0.000, 14:11:55.417
149, -1680.86, -1843.35, -2154.62, -1808.17, 0.000, 0.000, 0.000, 14:11:55.417
150, -1615.19, -1803.82, -2131.07, -1786.44, 0.000, 0.000, 0.000, 14:11:55.417
151, -2028.76, -2255.73, -2505.42, -2120.07, 0.000, 0.000, 0.000, 14:11:55.432
152, -1981.98, -2194.98, -2442.02, -2063.32, 0.000, 0.000, 0.000, 14:11:55.432
153, -1674.79, -1848.03, -2162.57, -1802.91, 0.000, 0.000, 0.000, 14:11:55.447
154, -1612.31, -1804.53, -2139.40, -1788.32, 0.000, 0.000, 0.000, 14:11:55.447
155, -2022.78, -2260.79, -2504.97, -2128.04, 0.000, 0.000, 0.000, 14:11:55.447
156, -1977.52, -2197.50, -2441.40, -2066.61, 0.000, 0.000, 0.000, 14:11:55.448
157, -1658.17, -1840.64, -2155.42, -1801.45, 0.000, 0.000, 0.000, 14:11:55.462
158, -1606.55, -1807.21, -2134.40, -1788.65, 0.000, 0.000, 0.000, 14:11:55.462
159, -2017.03, -2264.40, -2509.54, -2124.67, 0.000, 0.000, 0.000, 14:11:55.477
160, -1967.19, -2191.25, -2434.13, -2059.56, 0.000, 0.000, 0.000, 14:11:55.477
161, -1666.53, -1855.64, -2155.56, -1804.19, 0.000, 0.000, 0.000, 14:11:55.478
162, -1615.79, -1819.47, -2147.57, -1785.47, 0.000, 0.000, 0.000, 14:11:55.478
163, -2022.28, -2262.76, -2507.43, -2131.34, 0.000, 0.000, 0.000, 14:11:55.493
164, -1973.48, -2202.91, -2444.52, -2059.65, 0.000, 0.000, 0.000, 14:11:55.493
165, -1655.68, -1847.23, -2154.01, -1801.39, 0.000, 0.000, 0.000, 14:11:55.507
166, -1599.95, -1810.97, -2138.56, -1796.56, 0.000, 0.000, 0.000, 14:11:55.507
167, -2005.42, -2267.77, -2499.97, -2120.07, 0.000, 0.000, 0.000, 14:11:55.508
168, -1961.12, -2198.67, -2432.66, -2056.14, 0.000, 0.000, 0.000, 14:11:55.508
169, -1649.68, -1857.93, -2156.83, -1801.04, 0.000, 0.000, 0.000, 14:11:55.523
170, -1610.80, -1817.73, -2149.27, -1790.43, 0.000, 0.000, 0.000, 14:11:55.523
171, -2009.01, -2267.84, -2506.28, -2129.70, 0.000, 0.000, 0.000, 14:11:55.537
172, -1952.60, -2185.65, -2428.87, -2058.12, 0.000, 0.000, 0.000, 14:11:55.538
173, -1650.32, -1848.88, -2148.00, -1800.20, 0.000, 0.000, 0.000, 14:11:55.538
174, -1601.90, -1816.86, -2144.66, -1793.76, 0.000, 0.000, 0.000, 14:11:55.538
175, -2004.66, -2259.31, -2518.66, -2124.66, 0.000, 0.000, 0.000, 14:11:55.560
176, -1964.11, -2197.45, -2438.12, -2060.18, 0.000, 0.000, 0.000, 14:11:55.560
177, -1646.31, -1845.42, -2146.24, -1798.36, 0.000, 0.000, 0.000, 14:11:55.567
178, -1615.43, -1821.33, -2146.81, -1795.26, 0.000, 0.000, 0.000, 14:11:55.567
179, -2018.34, -2277.45, -2513.59, -2130.25, 0.000, 0.000, 0.000, 14:11:55.568
180, -1966.90, -2205.93, -2434.16, -2051.11, 0.000, 0.000, 0.000, 14:11:55.568
181, -1650.31, -1853.83, -2148.31, -1792.65, 0.000, 0.000, 0.000, 14:11:55.582
182, -1618.40, -1819.22, -2146.05, -1790.68, 0.000, 0.000, 0.000, 14:11:55.582
183, -2015.75, -2269.53, -2510.70, -2130.39, 0.000, 0.000, 0.000, 14:11:55.597
184, -1965.55, -2193.42, -2425.35, -2054.82, 0.000, 0.000, 0.000, 14:11:55.597
185, -1656.20, -1853.26, -2149.00, -1795.62, 0.000, 0.000, 0.000, 14:11:55.598
186, -1615.15, -1832.28, -2157.74, -1800.93, 0.000, 0.000, 0.000, 14:11:55.598
187, -2019.52, -2281.58, -2521.99, -2130.53, 0.000, 0.000, 0.000, 14:11:55.612
188, -1963.37, -2192.35, -2439.01, -2061.59, 0.000, 0.000, 0.000, 14:11:55.613
189, -1655.37, -1846.31, -2150.29, -1788.99, 0.000, 0.000, 0.000, 14:11:55.627
190, -1626.49, -1835.60, -2154.45, -1796.34, 0.000, 0.000, 0.000, 14:11:55.627
191, -2027.17, -2288.06, -2514.68, -2129.15, 0.000, 0.000, 0.000, 14:11:55.628
192, -1963.14, -2201.36, -2439.68, -2055.70, 0.000, 0.000, 0.000, 14:11:55.628
193, -1643.76, -1846.60, -2146.52, -1787.56, 0.000, 0.000, 0.000, 14:11:55.643
194, -1614.23, -1827.83, -2147.61, -1797.23, 0.000, 0.000, 0.000, 14:11:55.643
195, -2014.23, -2271.30, -2518.46, -2128.97, 0.000, 0.000, 0.000, 14:11:55.657
196, -1967.96, -2192.23, -2437.16, -2058.97, 0.000, 0.000, 0.000, 14:11:55.657
197, -1639.61, -1846.56, -2144.49, -1789.53, 0.000, 0.000, 0.000, 14:11:55.658
198, -1616.32, -1841.09, -2161.33, -1795.61, 0.000, 0.000, 0.000, 14:11:55.658
199, -2017.31, -2279.37, -2516.23, -2126.91, 0.000, 0.000, 0.000, 14:11:55.674
200, -1963.75, -2194.06, -2426.20, -2057.71, 0.000, 0.000, 0.000, 14:11:55.674
0, -1635.70, -1833.48, -2142.06, -1790.24, 0.000, 0.000, 0.000, 14:11:55.674
1, -1619.08, -1845.08, -2162.78, -1806.82, 0.000, 0.000, 0.000, 14:11:55.688
2, -2014.86, -2281.85, -2514.61, -2128.81, 0.000, 0.000, 0.000, 14:11:55.688
3, -1953.43, -2192.28, -2428.65, -2048.92, 0.000, 0.000, 0.000, 14:11:55.702
4, -1642.65, -1846.84, -2139.63, -1784.74, 0.000, 0.000, 0.000, 14:11:55.704
5, -1610.26, -1829.70, -2150.68, -1798.56, 0.000, 0.000, 0.000, 14:11:55.704
6, -2025.28, -2273.15, -2519.19, -2134.59, 0.000, 0.000, 0.000, 14:11:55.704
7, -1962.40, -2190.45, -2430.32, -2052.43, 0.000, 0.000, 0.000, 14:11:55.732
8, -1638.60, -1837.52, -2144.60, -1787.42, 0.000, 0.000, 0.000, 14:11:55.732
9, -1620.93, -1840.77, -2161.07, -1806.39, 0.000, 0.000, 0.000, 14:11:55.732
10, -2023.61, -2284.65, -2522.43, -2132.37, 0.000, 0.000, 0.000, 14:11:55.732
11, -1946.71, -2182.33, -2428.20, -2046.12, 0.000, 0.000, 0.000, 14:11:55.733
12, -1633.18, -1833.38, -2142.96, -1787.10, 0.000, 0.000, 0.000, 14:11:55.733
13, -1623.73, -1848.60, -2170.30, -1810.37, 0.000, 0.000, 0.000, 14:11:55.747
14, -2017.54, -2281.58, -2524.39, -2133.75, 0.000, 0.000, 0.000, 14:11:55.747
15, -1953.45, -2189.36, -2431.10, -2050.29, 0.000, 0.000, 0.000, 14:11:55.762
16, -1637.69, -1842.57, -2142.71, -1792.71, 0.000, 0.000, 0.000, 14:11:55.762
17, -1626.71, -1835.74, -2168.46, -1817.12, 0.000, 0.000, 0.000, 14:11:55.762
18, -2027.55, -2281.94, -2526.02, -2133.99, 0.000, 0.000, 0.000, 14:11:55.762
19, -1951.37, -2183.93, -2424.55, -2048.87, 0.000, 0.000, 0.000, 14:11:55.778
20, -1633.24, -1834.38, -2140.26, -1788.60, 0.000, 0.000, 0.000, 14:11:55.778
21, -1626.06, -1845.04, -2161.87, -1807.17, 0.000, 0.000, 0.000, 14:11:55.792
22, -2016.76, -2274.02, -2513.35, -2135.21, 0.000, 0.000, 0.000, 14:11:55.793
23, -1956.99, -2186.96, -2416.08, -2046.49, 0.000, 0.000, 0.000, 14:11:55.793
24, -1624.47, -1828.47, -2125.76, -1778.85, 0.000, 0.000, 0.000, 14:11:55.793
25, -1623.18, -1849.31, -2161.38, -1815.35, 0.000, 0.000, 0.000, 14:11:55.808
26, -2022.58, -2280.67, -2517.50, -2133.25, 0.000, 0.000, 0.000, 14:11:55.808
27, -1950.11, -2197.50, -2422.74, -2051.48, 0.000, 0.000, 0.000, 14:11:55.837
28, -1633.97, -1851.03, -2136.83, -1791.41, 0.000, 0.000, 0.000, 14:11:55.838
29, -1631.30, -1865.74, -2177.41, -1822.33, 0.000, 0.000, 0.000, 14:11:55.838
30, -2026.76, -2305.49, -2527.79, -2137.90, 0.000, 0.000, 0.000, 14:11:55.838
31, -1945.99, -2191.88, -2419.66, -2042.83, 0.000, 0.000, 0.000, 14:11:55.838
32, -1628.21, -1838.60, -2133.06, -1777.96, 0.000, 0.000, 0.000, 14:11:55.839
33, -1613.98, -1845.49, -2160.69, -1809.00, 0.000, 0.000, 0.000, 14:11:55.840
34, -2011.73, -2277.15, -2518.39, -2131.60, 0.000, 0.000, 0.000, 14:11:55.840
35, -1950.86, -2183.94, -2423.72, -2040.49, 0.000, 0.000, 0.000, 14:11:55.852
36, -1633.26, -1827.15, -2138.09, -1779.34, 0.000, 0.000, 0.000, 14:11:55.852
37, -1632.97, -1849.22, -2170.25, -1810.78, 0.000, 0.000, 0.000, 14:11:55.867
38, -2018.12, -2281.49, -2517.43, -2130.61, 0.000, 0.000, 0.000, 14:11:55.867
39, -1934.83, -2178.24, -2420.05, -2034.50, 0.000, 0.000, 0.000, 14:11:55.883
40, -1620.34, -1834.56, -2136.14, -1778.33, 0.000, 0.000, 0.000, 14:11:55.883
41, -1623.94, -1869.00, -2167.08, -1811.07, 0.000, 0.000, 0.000, 14:11:55.883
42, -2001.27, -2337.06, -2508.99, -2126.43, 0.000, 0.000, 0.000, 14:11:55.883
43, -1922.34, -2193.30, -2409.49, -2035.95, 0.000, 0.000, 0.000, 14:11:55.898
44, -1583.36, -1852.53, -2127.77, -1770.28, 0.000, 0.000, 0.000, 14:11:55.898
45, -1574.86, -1867.57, -2165.65, -1821.25, 0.000, 0.000, 0.000, 14:11:55.912
46, -1949.74, -2320.77, -2514.35, -2121.49, 0.000, 0.000, 0.000, 14:11:55.912
47, -1835.00, -2230.69, -2406.01, -2028.46, 0.000, 0.000, 0.000, 14:11:55.913
48, -1491.82, -1871.95, -2118.09, -1762.32, 0.000, 0.000, 0.000, 14:11:55.913
49, -1464.58, -1924.70, -2165.95, -1799.87, 0.000, 0.000, 0.000, 14:11:55.943
50, -1817.91, -2386.33, -2509.41, -2110.38, 0.000, 0.000, 0.000, 14:11:55.943
51, -1693.28, -2277.45, -2407.08, -2008.88, 0.000, 0.000, 0.000, 14:11:55.943
52, -1345.54, -1946.72, -2117.22, -1746.39, 0.000, 0.000, 0.000, 14:11:55.943
53, -1350.23, -1997.58, -2166.42, -1795.89, 0.000, 0.000, 0.000, 14:11:55.943
54, -1748.43, -2430.42, -2511.68, -2108.80, 0.000, 0.000, 0.000, 14:11:55.943
55, -1687.41, -2312.00, -2398.47, -2010.75, 0.000, 0.000, 0.000, 14:11:55.964
56, -1407.92, -1950.77, -2122.23, -1766.75, 0.000, 0.000, 0.000, 14:11:55.964
57, -1457.01, -1981.08, -2177.03, -1819.75, 0.000, 0.000, 0.000, 14:11:55.973
58, -1897.26, -2394.35, -2522.61, -2125.35, 0.000, 0.000, 0.000, 14:11:55.973
59, -1850.99, -2251.77, -2417.02, -2032.89, 0.000, 0.000, 0.000, 14:11:55.973
60, -1571.23, -1874.46, -2133.14, -1773.48, 0.000, 0.000, 0.000, 14:11:55.973
61, -1621.69, -1893.20, -2184.19, -1832.75, 0.000, 0.000, 0.000, 14:11:55.988
62, -2051.74, -2307.86, -2530.56, -2148.64, 0.000, 0.000, 0.000, 14:11:55.988
63, -1983.96, -2164.12, -2419.09, -2041.62, 0.000, 0.000, 0.000, 14:11:56.004
64, -1682.96, -1806.64, -2140.89, -1794.79, 0.000, 0.000, 0.000, 14:11:56.004
65, -1735.44, -1843.11, -2202.07, -1843.25, 0.000, 0.000, 0.000, 14:11:56.004
66, -2128.64, -2263.37, -2534.37, -2150.16, 0.000, 0.000, 0.000, 14:11:56.004
67, -2041.18, -2135.48, -2419.02, -2052.19, 0.000, 0.000, 0.000, 14:11:56.017
68, -1722.54, -1763.66, -2131.69, -1788.06, 0.000, 0.000, 0.000, 14:11:56.017
69, -1746.25, -1816.87, -2196.96, -1850.30, 0.000, 0.000, 0.000, 14:11:56.047
70, -2146.09, -2245.20, -2534.53, -2153.09, 0.000, 0.000, 0.000, 14:11:56.047
71, -2042.71, -2123.36, -2418.99, -2050.45, 0.000, 0.000, 0.000, 14:11:56.047
72, -1731.92, -1770.00, -2127.31, -1786.12, 0.000, 0.000, 0.000, 14:11:56.047
73, -1756.15, -1815.31, -2181.89, -1839.88, 0.000, 0.000, 0.000, 14:11:56.048
74, -2128.58, -2241.65, -2525.10, -2144.38, 0.000, 0.000, 0.000, 14:11:56.048
75, -2030.41, -2115.91, -2404.58, -2047.57, 0.000, 0.000, 0.000, 14:11:56.049
76, -1702.25, -1753.95, -2115.38, -1782.50, 0.000, 0.000, 0.000, 14:11:56.049
77, -1729.02, -1822.69, -2182.66, -1838.60, 0.000, 0.000, 0.000, 14:11:56.062
78, -2114.15, -2237.34, -2523.86, -2147.66, 0.000, 0.000, 0.000, 14:11:56.062
79, -2005.83, -2117.35, -2410.40, -2036.30, 0.000, 0.000, 0.000, 14:11:56.078
80, -1691.73, -1774.69, -2119.79, -1778.63, 0.000, 0.000, 0.000, 14:11:56.078
81, -1720.76, -1834.96, -2194.53, -1846.06, 0.000, 0.000, 0.000, 14:11:56.093
82, -2095.51, -2250.33, -2524.42, -2142.51, 0.000, 0.000, 0.000, 14:11:56.093
83, -1996.42, -2128.97, -2413.88, -2032.44, 0.000, 0.000, 0.000, 14:11:56.093
84, -1678.26, -1780.28, -2124.83, -1769.60, 0.000, 0.000, 0.000, 14:11:56.093
85, -1716.08, -1850.14, -2193.72, -1846.71, 0.000, 0.000, 0.000, 14:11:56.107
86, -2087.66, -2275.12, -2534.18, -2140.39, 0.000, 0.000, 0.000, 14:11:56.108
87, -1990.13, -2143.27, -2417.48, -2028.76, 0.000, 0.000, 0.000, 14:11:56.123
88, -1670.67, -1791.75, -2128.60, -1776.33, 0.000, 0.000, 0.000, 14:11:56.123
89, -1701.32, -1859.95, -2198.79, -1848.31, 0.000, 0.000, 0.000, 14:11:56.123
90, -2071.22, -2270.62, -2524.18, -2148.15, 0.000, 0.000, 0.000, 14:11:56.123
91, -1967.54, -2141.40, -2404.61, -2035.90, 0.000, 0.000, 0.000, 14:11:56.138
92, -1652.67, -1793.23, -2116.47, -1768.93, 0.000, 0.000, 0.000, 14:11:56.138
93, -1700.02, -1864.76, -2197.16, -1838.84, 0.000, 0.000, 0.000, 14:11:56.152
94, -2070.38, -2268.91, -2521.41, -2140.57, 0.000, 0.000, 0.000, 14:11:56.152
95, -1958.17, -2147.25, -2402.77, -2030.94, 0.000, 0.000, 0.000, 14:11:56.153
96, -1634.57, -1790.47, -2112.72, -1766.76, 0.000, 0.000, 0.000, 14:11:56.153
97, -1688.56, -1868.27, -2193.78, -1845.73, 0.000, 0.000, 0.000, 14:11:56.167
98, -2066.21, -2274.38, -2526.19, -2133.08, 0.000, 0.000, 0.000, 14:11:56.167
99, -1959.26, -2146.23, -2400.43, -2028.59, 0.000, 0.000, 0.000, 14:11:56.182
100, -1641.41, -1798.81, -2124.45, -1767.51, 0.000, 0.000, 0.000, 14:11:56.182
101, -1689.02, -1877.12, -2207.28, -1842.72, 0.000, 0.000, 0.000, 14:11:56.183
102, -2075.06, -2289.14, -2545.06, -2142.30, 0.000, 0.000, 0.000, 14:11:56.183
103, -1962.30, -2150.92, -2416.72, -2029.86, 0.000, 0.000, 0.000, 14:11:56.198
104, -1639.42, -1790.37, -2124.34, -1762.04, 0.000, 0.000, 0.000, 14:11:56.198
105, -1690.68, -1875.52, -2211.29, -1850.62, 0.000, 0.000, 0.000, 14:11:56.212
106, -2067.25, -2288.05, -2535.37, -2145.45, 0.000, 0.000, 0.000, 14:11:56.212
107, -1967.07, -2149.63, -2412.96, -2027.95, 0.000, 0.000, 0.000, 14:11:56.213
108, -1651.06, -1798.62, -2123.99, -1773.19, 0.000, 0.000, 0.000, 14:11:56.213
109, -1695.10, -1883.64, -2207.86, -1853.09, 0.000, 0.000, 0.000, 14:11:56.228
110, -2050.72, -2272.87, -2524.17, -2137.79, 0.000, 0.000, 0.000, 14:11:56.228
111, -1934.24, -2132.95, -2397.84, -2028.51, 0.000, 0.000, 0.000, 14:11:56.243
112, -1616.70, -1784.55, -2109.56, -1766.34, 0.000, 0.000, 0.000, 14:11:56.243
113, -1686.24, -1880.84, -2211.41, -1852.04, 0.000, 0.000, 0.000, 14:11:56.243
114, -2046.65, -2272.64, -2526.33, -2144.47, 0.000, 0.000, 0.000, 14:11:56.243
115, -1931.58, -2143.94, -2393.57, -2022.82, 0.000, 0.000, 0.000, 14:11:56.257
116, -1613.96, -1793.03, -2109.60, -1765.47, 0.000, 0.000, 0.000, 14:11:56.257
117, -1671.07, -1877.86, -2208.18, -1853.08, 0.000, 0.000, 0.000, 14:11:56.287
118, -2041.97, -2285.16, -2530.04, -2144.10, 0.000, 0.000, 0.000, 14:11:56.288
119, -1928.55, -2146.61, -2392.96, -2025.52, 0.000, 0.000, 0.000, 14:11:56.288
120, -1612.76, -1790.02, -2104.56, -1763.64, 0.000, 0.000, 0.000, 14:11:56.288
121, -1676.91, -1881.06, -2211.64, -1854.72, 0.000, 0.000, 0.000, 14:11:56.288
122, -2040.15, -2288.83, -2524.57, -2139.07, 0.000, 0.000, 0.000, 14:11:56.288
123, -1923.85, -2138.56, -2394.05, -2010.41, 0.000, 0.000, 0.000, 14:11:56.290
124, -1611.73, -1783.67, -2106.36, -1757.23, 0.000, 0.000, 0.000, 14:11:56.290
125, -1677.59, -1896.93, -2210.78, -1854.77, 0.000, 0.000, 0.000, 14:11:56.302
126, -2048.60, -2296.62, -2529.83, -2143.48, 0.000, 0.000, 0.000, 14:11:56.303
127, -1929.82, -2152.14, -2392.17, -2018.41, 0.000, 0.000, 0.000, 14:11:56.317
128, -1612.77, -1804.33, -2115.81, -1764.89, 0.000, 0.000, 0.000, 14:11:56.317
129, -1692.53, -1900.74, -2219.31, -1859.86, 0.000, 0.000, 0.000, 14:11:56.333
130, -2042.82, -2298.19, -2527.97, -2144.14, 0.000, 0.000, 0.000, 14:11:56.333
131, -1924.96, -2152.36, -2396.33, -2020.74, 0.000, 0.000, 0.000, 14:11:56.333
132, -1607.53, -1803.77, -2113.82, -1762.58, 0.000, 0.000, 0.000, 14:11:56.333
133, -1679.13, -1908.55, -2219.62, -1858.27, 0.000, 0.000, 0.000, 14:11:56.354
134, -2038.09, -2301.87, -2526.51, -2141.88, 0.000, 0.000, 0.000, 14:11:56.355
135, -1916.48, -2147.44, -2388.94, -2012.49, 0.000, 0.000, 0.000, 14:11:56.363
136, -1590.97, -1801.46, -2107.90, -1760.33, 0.000, 0.000, 0.000, 14:11:56.363
137, -1676.28, -1919.23, -2219.06, -1859.89, 0.000, 0.000, 0.000, 14:11:56.363
138, -2043.24, -2311.70, -2539.26, -2143.44, 0.000, 0.000, 0.000, 14:11:56.363
139, -1911.47, -2159.96, -2393.13, -2015.28, 0.000, 0.000, 0.000, 14:11:56.393
140, -1588.16, -1807.98, -2103.39, -1754.55, 0.000, 0.000, 0.000, 14:11:56.393
141, -1663.67, -1906.70, -2214.72, -1856.88, 0.000, 0.000, 0.000, 14:11:56.393
142, -2031.22, -2301.47, -2528.68, -2142.17, 0.000, 0.000, 0.000, 14:11:56.393
143, -1903.26, -2153.67, -2388.81, -2018.15, 0.000, 0.000, 0.000, 14:11:56.393
144, -1591.86, -1802.06, -2104.68, -1752.69, 0.000, 0.000, 0.000, 14:11:56.393
145, -1675.83, -1918.51, -2219.89, -1862.72, 0.000, 0.000, 0.000, 14:11:56.407
146, -2027.58, -2303.54, -2524.67, -2141.50, 0.000, 0.000, 0.000, 14:11:56.407
147, -1892.31, -2135.37, -2380.44, -2011.84, 0.000, 0.000, 0.000, 14:11:56.423
148, -1578.48, -1799.11, -2105.09, -1756.23, 0.000, 0.000, 0.000, 14:11:56.423
149, -1678.64, -1920.21, -2223.12, -1860.39, 0.000, 0.000, 0.000, 14:11:56.423
150, -2024.32, -2309.44, -2521.32, -2134.82, 0.000, 0.000, 0.000, 14:11:56.423
151, -1908.31, -2150.41, -2384.71, -2015.12, 0.000, 0.000, 0.000, 14:11:56.437
152, -1589.02, -1797.95, -2106.38, -1756.03, 0.000, 0.000, 0.000, 14:11:56.438
153, -1675.43, -1913.68, -2219.31, -1863.45, 0.000, 0.000, 0.000, 14:11:56.452
154, -2032.73, -2291.05, -2523.77, -2141.94, 0.000, 0.000, 0.000, 14:11:56.453
155, -1906.57, -2149.47, -2382.43, -2013.20, 0.000, 0.000, 0.000, 14:11:56.453
156, -1584.11, -1791.57, -2104.30, -1759.26, 0.000, 0.000, 0.000, 14:11:56.453
157, -1686.68, -1923.77, -2230.53, -1867.15, 0.000, 0.000, 0.000, 14:11:56.467
158, -2039.25, -2310.21, -2538.86, -2140.45, 0.000, 0.000, 0.000, 14:11:56.467
159, -1900.45, -2144.51, -2391.91, -2012.49, 0.000, 0.000, 0.000, 14:11:56.497
160, -1584.88, -1790.29, -2106.98, -1754.59, 0.000, 0.000, 0.000, 14:11:56.497
161, -1687.10, -1919.27, -2225.50, -1870.20, 0.000, 0.000, 0.000, 14:11:56.497
162, -2044.12, -2301.12, -2534.84, -2148.00, 0.000, 0.000, 0.000, 14:11:56.498
163, -1913.70, -2148.73, -2395.95, -2021.91, 0.000, 0.000, 0.000, 14:11:56.498
164, -1597.17, -1807.41, -2116.11, -1764.64, 0.000, 0.000, 0.000, 14:11:56.498
165, -1708.81, -1946.64, -2250.75, -1884.92, 0.000, 0.000, 0.000, 14:11:56.499
166, -2045.03, -2322.90, -2539.88, -2143.15, 0.000, 0.000, 0.000, 14:11:56.499
167, -1913.17, -2147.02, -2391.58, -2012.03, 0.000, 0.000, 0.000, 14:11:56.513
168, -1587.19, -1787.43, -2091.37, -1751.07, 0.000, 0.000, 0.000, 14:11:56.513
169, -1687.27, -1923.17, -2232.31, -1873.41, 0.000, 0.000, 0.000, 14:11:56.527
170, -2026.92, -2300.81, -2529.47, -2139.12, 0.000, 0.000, 0.000, 14:11:56.528
171, -1903.78, -2132.01, -2376.66, -2005.63, 0.000, 0.000, 0.000, 14:11:56.543
172, -1589.12, -1787.52, -2096.25, -1750.49, 0.000, 0.000, 0.000, 14:11:56.543
173, -1690.02, -1922.73, -2231.28, -1871.98, 0.000, 0.000, 0.000, 14:11:56.543
174, -2038.74, -2292.66, -2523.75, -2143.94, 0.000, 0.000, 0.000, 14:11:56.543
175, -1906.77, -2135.07, -2384.26, -2009.45, 0.000, 0.000, 0.000, 14:11:56.558
176, -1584.11, -1784.66, -2096.13, -1749.28, 0.000, 0.000, 0.000, 14:11:56.558
177, -1686.90, -1922.15, -2229.10, -1871.54, 0.000, 0.000, 0.000, 14:11:56.573
178, -2035.30, -2299.78, -2522.37, -2135.74, 0.000, 0.000, 0.000, 14:11:56.573
179, -1896.26, -2126.46, -2368.03, -2007.87, 0.000, 0.000, 0.000, 14:11:56.573
180, -1585.12, -1786.13, -2090.58, -1751.02, 0.000, 0.000, 0.000, 14:11:56.573
181, -1688.63, -1927.53, -2232.44, -1879.59, 0.000, 0.000, 0.000, 14:11:56.588
182, -2040.26, -2293.18, -2527.76, -2143.81, 0.000, 0.000, 0.000, 14:11:56.588
183, -1897.51, -2129.62, -2384.07, -2006.30, 0.000, 0.000, 0.000, 14:11:56.603
184, -1579.13, -1782.71, -2098.72, -1749.24, 0.000, 0.000, 0.000, 14:11:56.605
185, -1694.97, -1938.38, -2246.21, -1886.11, 0.000, 0.000, 0.000, 14:11:56.605
186, -2039.28, -2301.39, -2525.86, -2143.20, 0.000, 0.000, 0.000, 14:11:56.605
187, -1909.09, -2137.95, -2375.63, -2005.80, 0.000, 0.000, 0.000, 14:11:56.618
188, -1586.93, -1784.96, -2095.92, -1752.12, 0.000, 0.000, 0.000, 14:11:56.618
189, -1713.26, -1942.60, -2247.43, -1886.00, 0.000, 0.000, 0.000, 14:11:56.632
190, -2051.70, -2313.21, -2536.33, -2156.66, 0.000, 0.000, 0.000, 14:11:56.632
191, -1907.20, -2138.67, -2383.18, -2014.85, 0.000, 0.000, 0.000, 14:11:56.633
192, -1598.00, -1793.74, -2101.84, -1753.02, 0.000, 0.000, 0.000, 14:11:56.633
193, -1710.17, -1942.95, -2242.88, -1883.90, 0.000, 0.000, 0.000, 14:11:56.647
194, -2043.79, -2307.87, -2533.65, -2145.38, 0.000, 0.000, 0.000, 14:11:56.647
195, -1901.53, -2142.31, -2379.74, -2008.83, 0.000, 0.000, 0.000, 14:11:56.662
196, -1584.71, -1780.45, -2098.50, -1750.22, 0.000, 0.000, 0.000, 14:11:56.662
197, -1708.34, -1948.75, -2247.52, -1883.76, 0.000, 0.000, 0.000, 14:11:56.662
198, -2036.65, -2304.63, -2536.78, -2144.95, 0.000, 0.000, 0.000, 14:11:56.663
199, -1909.23, -2130.59, -2374.05, -2007.87, 0.000, 0.000, 0.000, 14:11:56.678
200, -1578.97, -1789.12, -2093.22, -1748.16, 0.000, 0.000, 0.000, 14:11:56.678
0, -1712.32, -1949.64, -2244.21, -1890.78, 0.000, 0.000, 0.000, 14:11:56.678
1, -2043.43, -2299.50, -2527.80, -2143.73, 0.000, 0.000, 0.000, 14:11:56.693
2, -1895.89, -2136.78, -2381.09, -2009.27, 0.000, 0.000, 0.000, 14:11:56.693
3, -1574.29, -1777.13, -2091.05, -1749.28, 0.000, 0.000, 0.000, 14:11:56.707
4, -1710.41, -1935.41, -2245.50, -1887.48, 0.000, 0.000, 0.000, 14:11:56.707
5, -2041.97, -2305.84, -2528.59, -2139.74, 0.000, 0.000, 0.000, 14:11:56.707
6, -1896.73, -2133.29, -2371.34, -2001.51, 0.000, 0.000, 0.000, 14:11:56.708
7, -1583.15, -1781.30, -2102.59, -1750.54, 0.000, 0.000, 0.000, 14:11:56.723
8, -1707.87, -1946.11, -2251.78, -1889.27, 0.000, 0.000, 0.000, 14:11:56.724
9, -2039.64, -2300.16, -2532.78, -2151.33, 0.000, 0.000, 0.000, 14:11:56.737
10, -1892.26, -2129.07, -2377.25, -2010.66, 0.000, 0.000, 0.000, 14:11:56.737
11, -1584.94, -1783.56, -2094.64, -1753.90, 0.000, 0.000, 0.000, 14:11:56.738
12, -1714.81, -1952.00, -2255.80, -1898.61, 0.000, 0.000, 0.000, 14:11:56.738
13, -2041.63, -2304.47, -2532.17, -2148.87, 0.000, 0.000, 0.000, 14:11:56.752
14, -1895.08, -2124.31, -2374.97, -1999.99, 0.000, 0.000, 0.000, 14:11:56.752
15, -1576.06, -1782.49, -2099.71, -1745.24, 0.000, 0.000, 0.000, 14:11:56.767
16, -1710.13, -1950.82, -2257.99, -1887.59, 0.000, 0.000, 0.000, 14:11:56.767
17, -2038.89, -2299.21, -2531.93, -2139.42, 0.000, 0.000, 0.000, 14:11:56.767
18, -1894.29, -2127.86, -2369.69, -1995.12, 0.000, 0.000, 0.000, 14:11:56.767
19, -1571.15, -1778.84, -2087.97, -1738.57, 0.000, 0.000, 0.000, 14:11:56.782
20, -1723.01, -1948.68, -2258.73, -1889.54, 0.000, 0.000, 0.000, 14:11:56.783
21, -2033.88, -2301.45, -2532.01, -2137.03, 0.000, 0.000, 0.000, 14:11:56.797
22, -1893.52, -2129.29, -2375.61, -1988.78, 0.000, 0.000, 0.000, 14:11:56.797
23, -1580.90, -1783.05, -2104.87, -1746.11, 0.000, 0.000, 0.000, 14:11:56.798
24, -1710.37, -1960.09, -2259.77, -1902.27, 0.000, 0.000, 0.000, 14:11:56.798
25, -2048.25, -2300.41, -2536.11, -2146.95, 0.000, 0.000, 0.000, 14:11:56.813
26, -1902.52, -2130.94, -2373.37, -1993.12, 0.000, 0.000, 0.000, 14:11:56.813
27, -1588.43, -1784.31, -2101.01, -1743.56, 0.000, 0.000, 0.000, 14:11:56.843
28, -1732.46, -1967.88, -2272.42, -1901.15, 0.000, 0.000, 0.000, 14:11:56.843
29, -2055.20, -2302.47, -2538.35, -2146.31, 0.000, 0.000, 0.000, 14:11:56.843
30, -1887.83, -2122.97, -2368.16, -2001.03, 0.000, 0.000, 0.000, 14:11:56.843
31, -1588.47, -1785.21, -2094.47, -1746.72, 0.000, 0.000, 0.000, 14:11:56.844
32, -1731.88, -1960.92, -2264.63, -1904.14, 0.000, 0.000, 0.000, 14:11:56.844
33, -2044.63, -2300.57, -2525.92, -2147.95, 0.000, 0.000, 0.000, 14:11:56.844
34, -1893.69, -2110.16, -2362.64, -2000.67, 0.000, 0.000, 0.000, 14:11:56.844
35, -1573.17, -1768.99, -2085.04, -1742.29, 0.000, 0.000, 0.000, 14:11:56.858
36, -1728.20, -1957.30, -2258.62, -1901.80, 0.000, 0.000, 0.000, 14:11:56.858
37, -2036.03, -2297.79, -2519.94, -2146.00, 0.000, 0.000, 0.000, 14:11:56.887
38, -1885.85, -2124.24, -2370.59, -2001.71, 0.000, 0.000, 0.000, 14:11:56.887
39, -1574.73, -1768.31, -2092.74, -1742.70, 0.000, 0.000, 0.000, 14:11:56.889
40, -1728.38, -1960.90, -2261.35, -1902.05, 0.000, 0.000, 0.000, 14:11:56.889
41, -2044.11, -2300.45, -2531.36, -2139.09, 0.000, 0.000, 0.000, 14:11:56.890
42, -1879.92, -2113.62, -2366.01, -1987.18, 0.000, 0.000, 0.000, 14:11:56.890
43, -1566.49, -1770.38, -2084.74, -1739.04, 0.000, 0.000, 0.000, 14:11:56.902
44, -1728.02, -1968.64, -2273.41, -1905.17, 0.000, 0.000, 0.000, 14:11:56.902
45, -2044.09, -2290.34, -2534.33, -2145.82, 0.000, 0.000, 0.000, 14:11:56.917
46, -1891.60, -2118.92, -2363.15, -1996.61, 0.000, 0.000, 0.000, 14:11:56.917
47, -1579.54, -1778.28, -2092.60, -1742.68, 0.000, 0.000, 0.000, 14:11:56.918
48, -1736.60, -1965.85, -2272.47, -1908.87, 0.000, 0.000, 0.000, 14:11:56.918
49, -2048.28, -2303.23, -2526.23, -2141.03, 0.000, 0.000, 0.000, 14:11:56.932
50, -1892.61, -2119.73, -2362.95, -1989.99, 0.000, 0.000, 0.000, 14:11:56.932
51, -1577.88, -1773.18, -2089.34, -1742.25, 0.000, 0.000, 0.000, 14:11:56.947
52, -1733.60, -1971.91, -2270.13, -1912.28, 0.000, 0.000, 0.000, 14:11:56.947
53, -2033.63, -2290.96, -2524.32, -2141.76, 0.000, 0.000, 0.000, 14:11:56.948
54, -1884.69, -2113.62, -2368.03, -1992.04, 0.000, 0.000, 0.000, 14:11:56.948
55, -1564.67, -1762.30, -2085.95, -1734.17, 0.000, 0.000, 0.000, 14:11:56.978
56, -1738.93, -1979.61, -2281.80, -1913.23, 0.000, 0.000, 0.000, 14:11:56.978
57, -2040.49, -2297.43, -2528.57, -2146.47, 0.000, 0.000, 0.000, 14:11:56.978
58, -1880.58, -2103.04, -2358.53, -1985.83, 0.000, 0.000, 0.000, 14:11:56.978
59, -1564.24, -1770.95, -2089.93, -1741.97, 0.000, 0.000, 0.000, 14:11:56.979
60, -1736.31, -1969.20, -2283.22, -1908.16, 0.000, 0.000, 0.000, 14:11:56.979
61, -2041.63, -2300.38, -2532.66, -2142.44, 0.000, 0.000, 0.000, 14:11:56.993
62, -1879.17, -2113.80, -2360.08, -1993.16, 0.000, 0.000, 0.000, 14:11:56.993
63, -1571.27, -1770.80, -2095.19, -1736.65, 0.000, 0.000, 0.000, 14:11:57.007
64, -1733.25, -1977.84, -2285.26, -1911.21, 0.000, 0.000, 0.000, 14:11:57.007
65, -2036.87, -2305.15, -2534.78, -2137.14, 0.000, 0.000, 0.000, 14:11:57.008
66, -1877.10, -2108.01, -2361.77, -1984.48, 0.000, 0.000, 0.000, 14:11:57.008
67, -1568.19, -1767.21, -2095.19, -1733.85, 0.000, 0.000, 0.000, 14:11:57.022
68, -1738.35, -1978.17, -2282.28, -1916.21, 0.000, 0.000, 0.000, 14:11:57.022
69, -2057.66, -2313.47, -2534.57, -2144.81, 0.000, 0.000, 0.000, 14:11:57.052
70, -1880.57, -2111.24, -2364.50, -1992.88, 0.000, 0.000, 0.000, 14:11:57.053
71, -1576.15, -1762.64, -2094.54, -1737.54, 0.000, 0.000, 0.000, 14:11:57.054
72, -1754.25, -1988.73, -2291.12, -1917.79, 0.000, 0.000, 0.000, 14:11:57.054
73, -2048.41, -2295.74, -2527.31, -2143.35, 0.000, 0.000, 0.000, 14:11:57.055
74, -1881.47, -2102.54, -2354.26, -1985.57, 0.000, 0.000, 0.000, 14:11:57.055
75, -1573.08, -1769.51, -2084.38, -1744.31, 0.000, 0.000, 0.000, 14:11:57.056
76, -1752.43, -1987.61, -2285.87, -1922.66, 0.000, 0.000, 0.000, 14:11:57.056
77, -2050.44, -2305.56, -2530.65, -2144.85, 0.000, 0.000, 0.000, 14:11:57.067
78, -1877.52, -2104.33, -2353.81, -1984.69, 0.000, 0.000, 0.000, 14:11:57.068
79, -1566.09, -1762.46, -2087.49, -1740.25, 0.000, 0.000, 0.000, 14:11:57.082
80, -1746.20, -1990.84, -2289.39, -1922.28, 0.000, 0.000, 0.000, 14:11:57.082
81, -2042.98, -2303.26, -2535.46, -2139.50, 0.000, 0.000, 0.000, 14:11:57.097
82, -1881.06, -2100.99, -2352.60, -1985.81, 0.000, 0.000, 0.000, 14:11:57.097
83, -1560.79, -1762.40, -2087.33, -1741.22, 0.000, 0.000, 0.000, 14:11:57.098
84, -1745.24, -1989.04, -2289.03, -1916.07, 0.000, 0.000, 0.000, 14:11:57.098
85, -2038.44, -2295.20, -2530.51, -2137.48, 0.000, 0.000, 0.000, 14:11:57.112
86, -1869.33, -2108.46, -2358.32, -1978.38, 0.000, 0.000, 0.000, 14:11:57.112
87, -1555.49, -1762.79, -2084.86, -1732.33, 0.000, 0.000, 0.000, 14:11:57.127
88, -1744.12, -1989.49, -2288.73, -1917.73, 0.000, 0.000, 0.000, 14:11:57.127
89, -2031.88, -2296.31, -2518.87, -2137.98, 0.000, 0.000, 0.000, 14:11:57.128
90, -1872.63, -2092.92, -2346.45, -1981.49, 0.000, 0.000, 0.000, 14:11:57.128
91, -1555.16, -1756.21, -2083.05, -1736.94, 0.000, 0.000, 0.000, 14:11:57.158
92, -1750.42, -1991.74, -2287.51, -1926.11, 0.000, 0.000, 0.000, 14:11:57.158
93, -2040.51, -2304.21, -2534.96, -2144.13, 0.000, 0.000, 0.000, 14:11:57.160
94, -1873.59, -2100.63, -2349.29, -1981.63, 0.000, 0.000, 0.000, 14:11:57.160
95, -1571.32, -1758.67, -2079.64, -1735.80, 0.000, 0.000, 0.000, 14:11:57.160
96, -1756.61, -1998.01, -2287.84, -1931.11, 0.000, 0.000, 0.000, 14:11:57.160
97, -2046.10, -2301.64, -2526.13, -2143.22, 0.000, 0.000, 0.000, 14:11:57.173
98, -1874.39, -2095.35, -2354.69, -1983.02, 0.000, 0.000, 0.000, 14:11:57.173
99, -1568.20, -1763.16, -2085.71, -1733.41, 0.000, 0.000, 0.000, 14:11:57.187
100, -1760.98, -1998.71, -2299.24, -1935.23, 0.000, 0.000, 0.000, 14:11:57.187
101, -2039.00, -2301.41, -2528.90, -2140.67, 0.000, 0.000, 0.000, 14:11:57.188
102, -1875.32, -2102.96, -2352.14, -1986.62, 0.000, 0.000, 0.000, 14:11:57.188
103, -1566.48, -1776.83, -2089.54, -1736.62, 0.000, 0.000, 0.000, 14:11:57.203
104, -1773.35, -2020.01, -2313.85, -1937.57, 0.000, 0.000, 0.000, 14:11:57.203
105, -2045.00, -2320.07, -2538.66, -2146.44, 0.000, 0.000, 0.000, 14:11:57.217
106, -1861.07, -2104.68, -2348.31, -1974.28, 0.000, 0.000, 0.000, 14:11:57.218
107, -1548.28, -1763.82, -2076.01, -1731.47, 0.000, 0.000, 0.000, 14:11:57.224
108, -1747.86, -1995.15, -2294.09, -1934.16, 0.000, 0.000, 0.000, 14:11:57.224
109, -2037.96, -2299.93, -2522.61, -2136.13, 0.000, 0.000, 0.000, 14:11:57.232
110, -1861.00, -2087.66, -2343.59, -1969.78, 0.000, 0.000, 0.000, 14:11:57.233
111, -1549.85, -1757.96, -2082.77, -1727.10, 0.000, 0.000, 0.000, 14:11:57.248
112, -1750.15, -1993.70, -2292.08, -1922.03, 0.000, 0.000, 0.000, 14:11:57.248
113, -2039.34, -2296.95, -2528.76, -2132.59, 0.000, 0.000, 0.000, 14:11:57.248
114, -1850.81, -2090.04, -2341.09, -1975.14, 0.000, 0.000, 0.000, 14:11:57.248
115, -1554.72, -1755.09, -2077.91, -1731.32, 0.000, 0.000, 0.000, 14:11:57.263
116, -1771.87, -2010.84, -2297.41, -1936.77, 0.000, 0.000, 0.000, 14:11:57.263
117, -2041.37, -2297.43, -2526.76, -2136.46, 0.000, 0.000, 0.000, 14:11:57.278
118, -1865.16, -2099.36, -2346.56, -1976.41, 0.000, 0.000, 0.000, 14:11:57.278
119, -1569.70, -1761.52, -2082.61, -1735.70, 0.000, 0.000, 0.000, 14:11:57.278
120, -1773.98, -2008.41, -2310.46, -1936.13, 0.000, 0.000, 0.000, 14:11:57.278
121, -2041.92, -2303.82, -2528.78, -2141.68, 0.000, 0.000, 0.000, 14:11:57.293
122, -1868.10, -2096.48, -2345.52, -1973.58, 0.000, 0.000, 0.000, 14:11:57.293
123, -1562.72, -1761.15, -2077.71, -1729.47, 0.000, 0.000, 0.000, 14:11:57.308
124, -1771.93, -2009.37, -2306.02, -1936.80, 0.000, 0.000, 0.000, 14:11:57.308
125, -2038.74, -2291.35, -2526.41, -2139.33, 0.000, 0.000, 0.000, 14:11:57.323
126, -1859.56, -2085.96, -2344.90, -1969.41, 0.000, 0.000, 0.000, 14:11:57.323
127, -1556.87, -1755.16, -2076.26, -1730.32, 0.000, 0.000, 0.000, 14:11:57.323
128, -1769.43, -2020.08, -2310.24, -1939.72, 0.000, 0.000, 0.000, 14:11:57.323
129, -2033.73, -2303.19, -2518.26, -2128.44, 0.000, 0.000, 0.000, 14:11:57.337
130, -1862.56, -2088.00, -2342.28, -1973.01, 0.000, 0.000, 0.000, 14:11:57.337
131, -1559.69, -1754.82, -2073.85, -1730.94, 0.000, 0.000, 0.000, 14:11:57.337
132, -1773.52, -2016.45, -2308.88, -1942.19, 0.000, 0.000, 0.000, 14:11:57.337
133, -2044.00, -2297.07, -2525.47, -2136.34, 0.000, 0.000, 0.000, 14:11:57.352
134, -1856.07, -2085.61, -2333.51, -1968.58, 0.000, 0.000, 0.000, 14:11:57.352
135, -1558.43, -1756.10, -2075.64, -1733.13, 0.000, 0.000, 0.000, 14:11:57.368
136, -1779.13, -2012.74, -2311.74, -1949.33, 0.000, 0.000, 0.000, 14:11:57.368
137, -2048.49, -2298.56, -2520.89, -2141.74, 0.000, 0.000, 0.000, 14:11:57.368
138, -1870.55, -2091.64, -2339.01, -1975.93, 0.000, 0.000, 0.000, 14:11:57.368
139, -1556.47, -1758.87, -2063.83, -1732.57, 0.000, 0.000, 0.000, 14:11:57.382
140, -1788.75, -2034.59, -2316.01, -1950.01, 0.000, 0.000, 0.000, 14:11:57.382
141, -2043.73, -2304.93, -2519.26, -2138.44, 0.000, 0.000, 0.000, 14:11:57.397
142, -1861.44, -2088.85, -2337.67, -1969.14, 0.000, 0.000, 0.000, 14:11:57.397
143, -1560.92, -1758.11, -2080.41, -1735.37, 0.000, 0.000, 0.000, 14:11:57.398
144, -1786.32, -2032.97, -2321.56, -1949.88, 0.000, 0.000, 0.000, 14:11:57.398
145, -2054.46, -2302.74, -2530.60, -2140.27, 0.000, 0.000, 0.000, 14:11:57.412
146, -1856.29, -2086.56, -2341.11, -1973.20, 0.000, 0.000, 0.000, 14:11:57.413
147, -1559.51, -1757.77, -2085.00, -1735.21, 0.000, 0.000, 0.000, 14:11:57.427
148, -1781.54, -2032.57, -2321.17, -1949.28, 0.000, 0.000, 0.000, 14:11:57.428
149, -2044.04, -2289.34, -2522.68, -2131.54, 0.000, 0.000, 0.000, 14:11:57.428
150, -1853.45, -2079.78, -2336.68, -1962.99, 0.000, 0.000, 0.000, 14:11:57.428
151, -1557.41, -1754.06, -2074.23, -1733.85, 0.000, 0.000, 0.000, 14:11:57.443
152, -1783.89, -2022.30, -2319.79, -1953.49, 0.000, 0.000, 0.000, 14:11:57.443
153, -2036.67, -2291.57, -2520.23, -2130.72, 0.000, 0.000, 0.000, 14:11:57.458
154, -1840.01, -2065.18, -2333.28, -1965.66, 0.000, 0.000, 0.000, 14:11:57.458
155, -1542.40, -1738.66, -2067.52, -1722.95, 0.000, 0.000, 0.000, 14:11:57.458
156, -1786.12, -2031.95, -2321.46, -1952.77, 0.000, 0.000, 0.000, 14:11:57.458
157, -2034.78, -2296.12, -2509.74, -2136.93, 0.000, 0.000, 0.000, 14:11:57.472
158, -1846.10, -2075.86, -2334.46, -1966.67, 0.000, 0.000, 0.000, 14:11:57.473
159, -1545.25, -1749.84, -2070.13, -1729.98, 0.000, 0.000, 0.000, 14:11:57.488
160, -1783.15, -2044.53, -2326.30, -1950.75, 0.000, 0.000, 0.000, 14:11:57.488
161, -2034.42, -2294.39, -2515.84, -2135.39, 0.000, 0.000, 0.000, 14:11:57.488
162, -1846.80, -2069.60, -2329.89, -1962.21, 0.000, 0.000, 0.000, 14:11:57.489
163, -1552.74, -1754.34, -2074.98, -1726.25, 0.000, 0.000, 0.000, 14:11:57.502
164, -1793.66, -2045.44, -2325.53, -1961.44, 0.000, 0.000, 0.000, 14:11:57.502
165, -2040.40, -2299.17, -2520.59, -2135.41, 0.000, 0.000, 0.000, 14:11:57.532
166, -1853.29, -2079.35, -2331.68, -1961.48, 0.000, 0.000, 0.000, 14:11:57.532
167, -1557.22, -1752.88, -2076.24, -1730.27, 0.000, 0.000, 0.000, 14:11:57.533
168, -1795.69, -2033.05, -2329.01, -1958.27, 0.000, 0.000, 0.000, 14:11:57.533
169, -2050.21, -2291.84, -2527.58, -2137.32, 0.000, 0.000, 0.000, 14:11:57.533
170, -1853.00, -2081.28, -2337.67, -1962.39, 0.000, 0.000, 0.000, 14:11:57.533
171, -1550.15, -1752.84, -2077.79, -1735.80, 0.000, 0.000, 0.000, 14:11:57.534
172, -1794.54, -2034.07, -2321.84, -1964.92, 0.000, 0.000, 0.000, 14:11:57.534
173, -2042.82, -2294.48, -2519.60, -2142.30, 0.000, 0.000, 0.000, 14:11:57.547
174, -1854.37, -2078.15, -2334.74, -1970.14, 0.000, 0.000, 0.000, 14:11:57.547
175, -1548.41, -1743.22, -2068.62, -1729.14, 0.000, 0.000, 0.000, 14:11:57.563
176, -1792.03, -2029.99, -2326.54, -1959.82, 0.000, 0.000, 0.000, 14:11:57.563
177, -2039.82, -2289.27, -2514.15, -2136.41, 0.000, 0.000, 0.000, 14:11:57.577
178, -1832.81, -2072.09, -2322.32, -1953.73, 0.000, 0.000, 0.000, 14:11:57.577
179, -1550.42, -1745.67, -2071.45, -1733.61, 0.000, 0.000, 0.000, 14:11:57.577
180, -1793.89, -2033.83, -2329.33, -1968.47, 0.000, 0.000, 0.000, 14:11:57.577
181, -2034.76, -2297.00, -2515.26, -2138.94, 0.000, 0.000, 0.000, 14:11:57.607
182, -1847.70, -2070.91, -2332.09, -1962.57, 0.000, 0.000, 0.000, 14:11:57.607
183, -1547.97, -1746.02, -2074.00, -1730.37, 0.000, 0.000, 0.000, 14:11:57.608
184, -1798.31, -2044.76, -2335.77, -1969.54, 0.000, 0.000, 0.000, 14:11:57.608
185, -2039.46, -2289.04, -2522.10, -2137.27, 0.000, 0.000, 0.000, 14:11:57.608
186, -1843.02, -2064.96, -2329.68, -1963.17, 0.000, 0.000, 0.000, 14:11:57.609
187, -1551.80, -1748.36, -2080.98, -1730.34, 0.000, 0.000, 0.000, 14:11:57.637
188, -1807.44, -2053.72, -2343.66, -1966.65, 0.000, 0.000, 0.000, 14:11:57.637
189, -2044.15, -2293.43, -2532.48, -2133.96, 0.000, 0.000, 0.000, 14:11:57.638
190, -1844.51, -2063.74, -2322.44, -1960.84, 0.000, 0.000, 0.000, 14:11:57.638
191, -1554.28, -1750.45, -2075.95, -1738.46, 0.000, 0.000, 0.000, 14:11:57.638
192, -1813.18, -2056.20, -2341.98, -1968.11, 0.000, 0.000, 0.000, 14:11:57.638
193, -2048.99, -2301.09, -2525.71, -2134.91, 0.000, 0.000, 0.000, 14:11:57.660
194, -1843.85, -2067.75, -2328.90, -1949.42, 0.000, 0.000, 0.000, 14:11:57.660
195, -1556.91, -1743.86, -2074.79, -1725.84, 0.000, 0.000, 0.000, 14:11:57.668
196, -1807.96, -2036.53, -2335.08, -1970.50, 0.000, 0.000, 0.000, 14:11:57.668
197, -2033.04, -2288.95, -2514.93, -2133.01, 0.000, 0.000, 0.000, 14:11:57.668
198, -1843.71, -2063.72, -2323.78, -1954.44, 0.000, 0.000, 0.000, 14:11:57.668
199, -1548.94, -1745.63, -2071.67, -1723.24, 0.000, 0.000, 0.000, 14:11:57.682
200, -1804.69, -2061.60, -2352.13, -1963.66, 0.000, 0.000, 0.000, 14:11:57.682
0, -2045.59, -2293.10, -2523.45, -2124.88, 0.000, 0.000, 0.000, 14:11:57.682
1, -1844.92, -2068.86, -2330.42, -1953.12, 0.000, 0.000, 0.000, 14:11:57.697
2, -1553.47, -1746.18, -2069.91, -1717.58, 0.000, 0.000, 0.000, 14:11:57.697
3, -1815.17, -2063.81, -2346.72, -1960.03, 0.000, 0.000, 0.000, 14:11:57.712
4, -2041.58, -2294.48, -2517.97, -2125.76, 0.000, 0.000, 0.000, 14:11:57.712
5, -1832.30, -2052.47, -2317.39, -1950.95, 0.000, 0.000, 0.000, 14:11:57.712
6, -1553.02, -1743.71, -2077.54, -1723.46, 0.000, 0.000, 0.000, 14:11:57.713
7, -1807.55, -2056.66, -2337.62, -1976.47, 0.000, 0.000, 0.000, 14:11:57.728
8, -2034.99, -2288.30, -2514.47, -2135.73, 0.000, 0.000, 0.000, 14:11:57.728
9, -1828.18, -2054.82, -2317.60, -1943.61, 0.000, 0.000, 0.000, 14:11:57.743
10, -1540.44, -1744.04, -2070.31, -1727.93, 0.000, 0.000, 0.000, 14:11:57.743
11, -1815.15, -2050.41, -2341.78, -1975.41, 0.000, 0.000, 0.000, 14:11:57.743
12, -2030.24, -2282.25, -2508.34, -2130.49, 0.000, 0.000, 0.000, 14:11:57.743
13, -1842.43, -2055.08, -2314.21, -1949.31, 0.000, 0.000, 0.000, 14:11:57.757
14, -1552.94, -1749.84, -2067.59, -1723.98, 0.000, 0.000, 0.000, 14:11:57.758
15, -1819.25, -2065.78, -2349.33, -1977.41, 0.000, 0.000, 0.000, 14:11:57.773
16, -2041.80, -2284.88, -2520.26, -2132.70, 0.000, 0.000, 0.000, 14:11:57.773
17, -1843.87, -2051.59, -2317.73, -1946.61, 0.000, 0.000, 0.000, 14:11:57.773
18, -1555.59, -1747.75, -2076.14, -1726.88, 0.000, 0.000, 0.000, 14:11:57.773
19, -1821.82, -2065.14, -2351.11, -1984.66, 0.000, 0.000, 0.000, 14:11:57.788
20, -2039.91, -2285.80, -2511.34, -2135.88, 0.000, 0.000, 0.000, 14:11:57.788
21, -1834.81, -2069.60, -2325.94, -1944.85, 0.000, 0.000, 0.000, 14:11:57.802
22, -1550.71, -1744.74, -2072.79, -1721.77, 0.000, 0.000, 0.000, 14:11:57.802
23, -1831.66, -2073.39, -2362.12, -1980.94, 0.000, 0.000, 0.000, 14:11:57.803
24, -2041.27, -2290.38, -2519.97, -2127.90, 0.000, 0.000, 0.000, 14:11:57.803
25, -1840.66, -2056.23, -2324.27, -1948.07, 0.000, 0.000, 0.000, 14:11:57.817
26, -1544.76, -1740.35, -2070.68, -1723.90, 0.000, 0.000, 0.000, 14:11:57.817
27, -1827.05, -2074.86, -2360.84, -1982.67, 0.000, 0.000, 0.000, 14:11:57.832
28, -2037.80, -2290.07, -2520.92, -2130.34, 0.000, 0.000, 0.000, 14:11:57.832
29, -1818.82, -2051.38, -2306.39, -1943.53, 0.000, 0.000, 0.000, 14:11:57.833
30, -1543.16, -1744.65, -2066.07, -1733.46, 0.000, 0.000, 0.000, 14:11:57.833
31, -1831.94, -2071.85, -2351.37, -1988.46, 0.000, 0.000, 0.000, 14:11:57.847
32, -2036.34, -2292.96, -2526.29, -2133.61, 0.000, 0.000, 0.000, 14:11:57.848
33, -1826.79, -2048.68, -2319.24, -1948.03, 0.000, 0.000, 0.000, 14:11:57.862
34, -1553.78, -1747.96, -2078.45, -1727.22, 0.000, 0.000, 0.000, 14:11:57.862
35, -1825.62, -2073.33, -2359.50, -1989.47, 0.000, 0.000, 0.000, 14:11:57.863
36, -2038.03, -2292.38, -2520.20, -2134.28, 0.000, 0.000, 0.000, 14:11:57.863
37, -1827.78, -2051.16, -2306.91, -1942.11, 0.000, 0.000, 0.000, 14:11:57.878
38, -1536.99, -1746.22, -2060.85, -1727.64, 0.000, 0.000, 0.000, 14:11:57.878
39, -1839.31, -2076.83, -2358.50, -1992.70, 0.000, 0.000, 0.000, 14:11:57.894
40, -2036.38, -2285.09, -2513.19, -2131.75, 0.000, 0.000, 0.000, 14:11:57.894
41, -1824.49, -2048.72, -2305.67, -1947.57, 0.000, 0.000, 0.000, 14:11:57.894
42, -1545.15, -1743.10, -2071.70, -1726.25, 0.000, 0.000, 0.000, 14:11:57.894
43, -1831.58, -2077.66, -2363.46, -1986.35, 0.000, 0.000, 0.000, 14:11:57.908
44, -2036.22, -2300.12, -2521.26, -2127.15, 0.000, 0.000, 0.000, 14:11:57.908
45, -1829.16, -2039.40, -2312.17, -1940.74, 0.000, 0.000, 0.000, 14:11:57.923
46, -1545.87, -1744.46, -2071.78, -1727.69, 0.000, 0.000, 0.000, 14:11:57.923
47, -1826.95, -2074.18, -2366.34, -1992.99, 0.000, 0.000, 0.000, 14:11:57.923
48, -2038.79, -2287.75, -2518.56, -2124.44, 0.000, 0.000, 0.000, 14:11:57.923
49, -1827.53, -2047.92, -2311.13, -1939.34, 0.000, 0.000, 0.000, 14:11:57.938
50, -1546.45, -1745.30, -2070.92, -1721.92, 0.000, 0.000, 0.000, 14:11:57.938
51, -1836.90, -2081.27, -2368.68, -1987.67, 0.000, 0.000, 0.000, 14:11:57.953
52, -2029.67, -2292.51, -2514.69, -2130.83, 0.000, 0.000, 0.000, 14:11:57.953
53, -1825.02, -2060.61, -2316.44, -1945.51, 0.000, 0.000, 0.000, 14:11:57.953
54, -1548.95, -1769.09, -2084.50, -1740.56, 0.000, 0.000, 0.000, 14:11:57.953
55, -1841.01, -2111.21, -2377.82, -2005.23, 0.000, 0.000, 0.000, 14:11:57.968
56, -2026.09, -2333.36, -2507.47, -2118.18, 0.000, 0.000, 0.000, 14:11:57.968
57, -1807.64, -2079.58, -2301.44, -1934.09, 0.000, 0.000, 0.000, 14:11:57.982
58, -1518.79, -1744.34, -2067.02, -1714.54, 0.000, 0.000, 0.000, 14:11:57.982
59, -1800.51, -2101.89, -2362.76, -1983.31, 0.000, 0.000, 0.000, 14:11:57.983
60, -1969.63, -2303.25, -2513.41, -2120.77, 0.000, 0.000, 0.000, 14:11:57.983
61, -1740.77, -2099.04, -2287.29, -1913.87, 0.000, 0.000, 0.000, 14:11:57.997
62, -1411.44, -1779.54, -2063.64, -1705.77, 0.000, 0.000, 0.000, 14:11:57.997
63, -1657.59, -2146.96, -2350.71, -1965.43, 0.000, 0.000, 0.000, 14:11:58.012
64, -1817.52, -2370.10, -2499.20, -2087.66, 0.000, 0.000, 0.000, 14:11:58.012
65, -1520.87, -2134.11, -2290.40, -1905.89, 0.000, 0.000, 0.000, 14:11:58.013
66, -1219.03, -1872.55, -2057.23, -1684.47, 0.000, 0.000, 0.000, 14:11:58.013
67, -1512.62, -2251.93, -2361.06, -1948.79, 0.000, 0.000, 0.000, 14:11:58.028
68, -1708.01, -2439.33, -2497.50, -2086.80, 0.000, 0.000, 0.000, 14:11:58.028
69, -1501.81, -2188.36, -2287.84, -1906.88, 0.000, 0.000, 0.000, 14:11:58.043
70, -1268.19, -1900.16, -2064.32, -1695.10, 0.000, 0.000, 0.000, 14:11:58.043
71, -1582.41, -2250.22, -2370.06, -1973.22, 0.000, 0.000, 0.000, 14:11:58.043
72, -1800.72, -2430.53, -2511.01, -2115.36, 0.000, 0.000, 0.000, 14:11:58.043
73, -1611.57, -2168.99, -2301.38, -1922.73, 0.000, 0.000, 0.000, 14:11:58.057
74, -1380.18, -1855.61, -2068.88, -1714.27, 0.000, 0.000, 0.000, 14:11:58.057
75, -1721.76, -2194.44, -2379.52, -1995.95, 0.000, 0.000, 0.000, 14:11:58.087
76, -1949.36, -2361.42, -2516.85, -2126.90, 0.000, 0.000, 0.000, 14:11:58.088
77, -1774.21, -2099.20, -2302.52, -1939.42, 0.000, 0.000, 0.000, 14:11:58.088
78, -1543.30, -1776.03, -2079.41, -1728.56, 0.000, 0.000, 0.000, 14:11:58.088
79, -1877.23, -2101.55, -2382.43, -2011.45, 0.000, 0.000, 0.000, 14:11:58.088
80, -2098.07, -2274.63, -2514.30, -2144.01, 0.000, 0.000, 0.000, 14:11:58.089
81, -1901.88, -2007.83, -2305.36, -1947.06, 0.000, 0.000, 0.000, 14:11:58.089
82, -1651.29, -1697.45, -2079.93, -1738.77, 0.000, 0.000, 0.000, 14:11:58.089
83, -1986.57, -2046.70, -2390.69, -2018.93, 0.000, 0.000, 0.000, 14:11:58.102
84, -2168.91, -2211.98, -2515.26, -2137.26, 0.000, 0.000, 0.000, 14:11:58.102
85, -1970.73, -1962.67, -2305.82, -1956.58, 0.000, 0.000, 0.000, 14:11:58.117
86, -1702.68, -1666.99, -2077.81, -1744.64, 0.000, 0.000, 0.000, 14:11:58.117
87, -2016.57, -2020.57, -2389.09, -2030.64, 0.000, 0.000, 0.000, 14:11:58.132
88, -2196.74, -2208.21, -2515.03, -2144.43, 0.000, 0.000, 0.000, 14:11:58.132
89, -1979.65, -1949.26, -2302.34, -1943.32, 0.000, 0.000, 0.000, 14:11:58.133
90, -1699.95, -1666.82, -2074.34, -1738.23, 0.000, 0.000, 0.000, 14:11:58.133
91, -2006.87, -2029.32, -2392.43, -2021.89, 0.000, 0.000, 0.000, 14:11:58.162
92, -2176.63, -2207.19, -2519.68, -2144.42, 0.000, 0.000, 0.000, 14:11:58.162
93, -1947.80, -1962.66, -2303.54, -1947.20, 0.000, 0.000, 0.000, 14:11:58.163
94, -1676.66, -1680.07, -2078.41, -1733.73, 0.000, 0.000, 0.000, 14:11:58.163
95, -1983.72, -2037.22, -2389.55, -2018.08, 0.000, 0.000, 0.000, 14:11:58.164
96, -2155.37, -2225.69, -2517.24, -2135.40, 0.000, 0.000, 0.000, 14:11:58.164
97, -1920.03, -1966.21, -2297.52, -1934.08, 0.000, 0.000, 0.000, 14:11:58.192
98, -1646.41, -1681.59, -2072.06, -1732.59, 0.000, 0.000, 0.000, 14:11:58.192
99, -1948.76, -2056.53, -2382.78, -2022.24, 0.000, 0.000, 0.000, 14:11:58.193
100, -2119.14, -2228.19, -2510.25, -2131.79, 0.000, 0.000, 0.000, 14:11:58.193
