%OpenBCI Raw EEG Data
%
%Sample Rate = 200.0 Hz
%First Column = SampleIndex
%Last Column = Timestamp 
%Other Columns = EEG data in microvolts followed by Accel Data (in G) interleaved with Aux Data
0, -2389.15, -2632.93, -2995.19, -2574.25, 0.000, 0.000, 0.000, 14:18:50.323
1, -2263.35, -2469.71, -2841.42, -2435.60, 0.000, 0.000, 0.000, 14:18:50.337
2, -1826.40, -2005.38, -2455.80, -2096.19, 0.000, 0.000, 0.000, 14:18:50.337
3, -1883.55, -2097.63, -2551.96, -2174.49, 0.000, 0.000, 0.000, 14:18:50.368
4, -2377.00, -2631.90, -2990.61, -2572.40, 0.000, 0.000, 0.000, 14:18:50.368
5, -2252.66, -2462.96, -2836.52, -2430.56, 0.000, 0.000, 0.000, 14:18:50.368
6, -1815.45, -2003.19, -2449.17, -2081.27, 0.000, 0.000, 0.000, 14:18:50.368
7, -1876.81, -2097.96, -2550.54, -2172.40, 0.000, 0.000, 0.000, 14:18:50.369
8, -2370.55, -2638.68, -2993.44, -2572.80, 0.000, 0.000, 0.000, 14:18:50.369
9, -2245.69, -2470.18, -2834.60, -2434.19, 0.000, 0.000, 0.000, 14:18:50.369
10, -1819.00, -2012.96, -2448.44, -2088.14, 0.000, 0.000, 0.000, 14:18:50.369
11, -1867.21, -2092.96, -2536.93, -2170.45, 0.000, 0.000, 0.000, 14:18:50.399
12, -2370.69, -2625.23, -2978.41, -2561.18, 0.000, 0.000, 0.000, 14:18:50.399
13, -2229.50, -2455.12, -2820.29, -2419.94, 0.000, 0.000, 0.000, 14:18:50.399
14, -1810.31, -1992.57, -2432.23, -2075.76, 0.000, 0.000, 0.000, 14:18:50.399
15, -1866.00, -2084.98, -2536.53, -2163.82, 0.000, 0.000, 0.000, 14:18:50.414
16, -2363.79, -2619.16, -2978.49, -2560.78, 0.000, 0.000, 0.000, 14:18:50.414
17, -2222.19, -2451.16, -2824.61, -2418.69, 0.000, 0.000, 0.000, 14:18:50.415
18, -1802.31, -1987.57, -2427.97, -2073.02, 0.000, 0.000, 0.000, 14:18:50.415
19, -1864.03, -2088.36, -2530.89, -2159.93, 0.000, 0.000, 0.000, 14:18:50.428
20, -2354.11, -2608.71, -2974.91, -2546.48, 0.000, 0.000, 0.000, 14:18:50.428
21, -2228.98, -2443.59, -2815.45, -2413.48, 0.000, 0.000, 0.000, 14:18:50.443
22, -1806.75, -1985.21, -2425.81, -2074.26, 0.000, 0.000, 0.000, 14:18:50.443
23, -1860.99, -2087.37, -2532.24, -2170.61, 0.000, 0.000, 0.000, 14:18:50.443
24, -2358.71, -2617.33, -2965.67, -2555.56, 0.000, 0.000, 0.000, 14:18:50.443
25, -2231.90, -2451.68, -2814.48, -2412.55, 0.000, 0.000, 0.000, 14:18:50.457
26, -1801.97, -1986.21, -2426.89, -2069.65, 0.000, 0.000, 0.000, 14:18:50.457
27, -1859.30, -2076.11, -2526.45, -2158.11, 0.000, 0.000, 0.000, 14:18:50.472
28, -2363.35, -2620.11, -2971.33, -2555.87, 0.000, 0.000, 0.000, 14:18:50.472
29, -2239.41, -2451.33, -2820.85, -2415.34, 0.000, 0.000, 0.000, 14:18:50.480
30, -1811.67, -1981.94, -2429.55, -2071.91, 0.000, 0.000, 0.000, 14:18:50.480
31, -1871.02, -2086.46, -2545.28, -2167.46, 0.000, 0.000, 0.000, 14:18:50.488
32, -2366.93, -2625.44, -2978.79, -2563.54, 0.000, 0.000, 0.000, 14:18:50.488
33, -2227.20, -2449.74, -2814.52, -2413.22, 0.000, 0.000, 0.000, 14:18:50.502
34, -1806.11, -1987.84, -2434.01, -2070.32, 0.000, 0.000, 0.000, 14:18:50.502
35, -1880.51, -2088.10, -2547.51, -2170.22, 0.000, 0.000, 0.000, 14:18:50.503
36, -2366.41, -2617.04, -2979.49, -2556.00, 0.000, 0.000, 0.000, 14:18:50.503
37, -2223.78, -2450.98, -2811.99, -2410.67, 0.000, 0.000, 0.000, 14:18:50.518
38, -1806.35, -1990.05, -2426.02, -2061.94, 0.000, 0.000, 0.000, 14:18:50.518
39, -1872.70, -2081.60, -2532.82, -2166.50, 0.000, 0.000, 0.000, 14:18:50.533
40, -2360.85, -2611.85, -2969.90, -2553.91, 0.000, 0.000, 0.000, 14:18:50.533
41, -2230.78, -2446.49, -2808.53, -2408.15, 0.000, 0.000, 0.000, 14:18:50.535
42, -1799.18, -1983.40, -2419.65, -2067.23, 0.000, 0.000, 0.000, 14:18:50.535
43, -1867.38, -2089.98, -2534.98, -2170.71, 0.000, 0.000, 0.000, 14:18:50.563
44, -2359.17, -2615.35, -2968.66, -2555.60, 0.000, 0.000, 0.000, 14:18:50.563
45, -2221.84, -2448.31, -2811.26, -2407.58, 0.000, 0.000, 0.000, 14:18:50.563
46, -1798.60, -1986.74, -2419.42, -2067.88, 0.000, 0.000, 0.000, 14:18:50.563
47, -1881.24, -2093.98, -2541.45, -2170.24, 0.000, 0.000, 0.000, 14:18:50.564
48, -2367.21, -2622.21, -2975.91, -2556.36, 0.000, 0.000, 0.000, 14:18:50.564
49, -2224.55, -2450.61, -2815.05, -2407.75, 0.000, 0.000, 0.000, 14:18:50.578
50, -1801.72, -1982.61, -2430.40, -2063.35, 0.000, 0.000, 0.000, 14:18:50.578
51, -1879.66, -2093.72, -2544.14, -2169.76, 0.000, 0.000, 0.000, 14:18:50.593
52, -2360.46, -2622.44, -2978.41, -2558.14, 0.000, 0.000, 0.000, 14:18:50.593
53, -2230.59, -2457.37, -2817.35, -2416.02, 0.000, 0.000, 0.000, 14:18:50.593
54, -1796.81, -1982.72, -2426.69, -2067.24, 0.000, 0.000, 0.000, 14:18:50.593
55, -1880.98, -2093.90, -2540.94, -2176.44, 0.000, 0.000, 0.000, 14:18:50.607
56, -2361.37, -2625.01, -2976.35, -2554.66, 0.000, 0.000, 0.000, 14:18:50.608
57, -2226.02, -2449.03, -2812.61, -2408.44, 0.000, 0.000, 0.000, 14:18:50.622
58, -1791.72, -1977.27, -2421.00, -2061.55, 0.000, 0.000, 0.000, 14:18:50.623
59, -1876.74, -2094.18, -2539.94, -2169.63, 0.000, 0.000, 0.000, 14:18:50.623
60, -2365.73, -2625.04, -2977.59, -2550.02, 0.000, 0.000, 0.000, 14:18:50.623
61, -2211.23, -2434.58, -2800.52, -2402.15, 0.000, 0.000, 0.000, 14:18:50.637
62, -1792.71, -1973.53, -2419.95, -2059.46, 0.000, 0.000, 0.000, 14:18:50.638
63, -1879.00, -2091.91, -2540.67, -2167.81, 0.000, 0.000, 0.000, 14:18:50.652
64, -2363.70, -2618.31, -2971.45, -2553.33, 0.000, 0.000, 0.000, 14:18:50.652
65, -2216.92, -2438.55, -2804.10, -2402.44, 0.000, 0.000, 0.000, 14:18:50.653
66, -1797.20, -1975.52, -2424.73, -2059.53, 0.000, 0.000, 0.000, 14:18:50.653
67, -1879.58, -2096.37, -2543.70, -2167.57, 0.000, 0.000, 0.000, 14:18:50.668
68, -2371.11, -2628.34, -2977.21, -2558.64, 0.000, 0.000, 0.000, 14:18:50.668
69, -2230.55, -2444.80, -2805.58, -2406.27, 0.000, 0.000, 0.000, 14:18:50.683
70, -1791.84, -1968.13, -2420.73, -2062.84, 0.000, 0.000, 0.000, 14:18:50.683
71, -1878.03, -2089.96, -2550.33, -2174.03, 0.000, 0.000, 0.000, 14:18:50.684
72, -2366.65, -2633.13, -2983.67, -2551.60, 0.000, 0.000, 0.000, 14:18:50.684
73, -2219.95, -2439.41, -2813.00, -2397.15, 0.000, 0.000, 0.000, 14:18:50.713
74, -1791.98, -1972.75, -2420.94, -2054.08, 0.000, 0.000, 0.000, 14:18:50.714
75, -1884.36, -2107.08, -2549.81, -2172.04, 0.000, 0.000, 0.000, 14:18:50.714
76, -2366.64, -2622.34, -2974.68, -2546.62, 0.000, 0.000, 0.000, 14:18:50.714
77, -2211.20, -2439.18, -2811.35, -2401.92, 0.000, 0.000, 0.000, 14:18:50.715
78, -1793.99, -1979.24, -2426.16, -2056.31, 0.000, 0.000, 0.000, 14:18:50.715
79, -1880.16, -2093.58, -2546.76, -2172.22, 0.000, 0.000, 0.000, 14:18:50.728
80, -2356.98, -2607.58, -2965.13, -2551.97, 0.000, 0.000, 0.000, 14:18:50.728
81, -2213.70, -2432.11, -2798.14, -2402.10, 0.000, 0.000, 0.000, 14:18:50.743
82, -1786.03, -1967.71, -2418.04, -2058.32, 0.000, 0.000, 0.000, 14:18:50.743
83, -1886.87, -2104.54, -2555.91, -2182.91, 0.000, 0.000, 0.000, 14:18:50.743
84, -2358.85, -2617.02, -2974.64, -2557.61, 0.000, 0.000, 0.000, 14:18:50.743
85, -2223.93, -2430.96, -2805.97, -2404.97, 0.000, 0.000, 0.000, 14:18:50.773
86, -1794.99, -1973.16, -2421.07, -2065.08, 0.000, 0.000, 0.000, 14:18:50.773
87, -1879.17, -2103.73, -2552.70, -2180.88, 0.000, 0.000, 0.000, 14:18:50.773
88, -2368.52, -2618.48, -2978.41, -2548.26, 0.000, 0.000, 0.000, 14:18:50.773
89, -2215.16, -2430.58, -2798.17, -2393.57, 0.000, 0.000, 0.000, 14:18:50.774
90, -1801.08, -1976.34, -2425.51, -2059.17, 0.000, 0.000, 0.000, 14:18:50.774
91, -1892.06, -2109.20, -2555.69, -2186.64, 0.000, 0.000, 0.000, 14:18:50.788
92, -2365.36, -2620.76, -2978.51, -2550.53, 0.000, 0.000, 0.000, 14:18:50.788
93, -2216.32, -2433.99, -2807.02, -2399.56, 0.000, 0.000, 0.000, 14:18:50.818
94, -1795.82, -1969.07, -2422.11, -2060.09, 0.000, 0.000, 0.000, 14:18:50.818
95, -1892.30, -2110.89, -2561.15, -2185.29, 0.000, 0.000, 0.000, 14:18:50.818
96, -2366.58, -2618.18, -2974.61, -2560.39, 0.000, 0.000, 0.000, 14:18:50.818
97, -2206.54, -2430.08, -2803.01, -2396.35, 0.000, 0.000, 0.000, 14:18:50.819
98, -1799.06, -1977.40, -2420.50, -2059.19, 0.000, 0.000, 0.000, 14:18:50.819
99, -1890.17, -2112.46, -2558.82, -2187.46, 0.000, 0.000, 0.000, 14:18:50.820
100, -2361.04, -2615.26, -2972.51, -2550.48, 0.000, 0.000, 0.000, 14:18:50.821
101, -2210.33, -2436.41, -2804.02, -2402.39, 0.000, 0.000, 0.000, 14:18:50.849
102, -1789.25, -1971.81, -2418.64, -2061.89, 0.000, 0.000, 0.000, 14:18:50.849
103, -1892.12, -2110.82, -2556.93, -2185.52, 0.000, 0.000, 0.000, 14:18:50.849
104, -2366.26, -2622.85, -2979.99, -2550.13, 0.000, 0.000, 0.000, 14:18:50.850
105, -2205.55, -2436.54, -2796.20, -2399.63, 0.000, 0.000, 0.000, 14:18:50.863
106, -1781.58, -1967.90, -2409.00, -2057.16, 0.000, 0.000, 0.000, 14:18:50.863
107, -1887.96, -2107.27, -2556.75, -2183.03, 0.000, 0.000, 0.000, 14:18:50.864
108, -2361.83, -2616.54, -2975.41, -2554.22, 0.000, 0.000, 0.000, 14:18:50.864
109, -2212.21, -2431.17, -2801.84, -2403.50, 0.000, 0.000, 0.000, 14:18:50.878
110, -1780.55, -1967.55, -2417.68, -2056.43, 0.000, 0.000, 0.000, 14:18:50.878
111, -1894.56, -2117.42, -2562.49, -2187.70, 0.000, 0.000, 0.000, 14:18:50.892
112, -2373.45, -2622.83, -2983.19, -2559.56, 0.000, 0.000, 0.000, 14:18:50.892
113, -2220.35, -2438.24, -2808.10, -2398.20, 0.000, 0.000, 0.000, 14:18:50.893
114, -1784.12, -1979.16, -2419.18, -2064.87, 0.000, 0.000, 0.000, 14:18:50.893
115, -1901.30, -2114.32, -2558.95, -2184.96, 0.000, 0.000, 0.000, 14:18:50.908
116, -2360.35, -2617.43, -2976.02, -2546.91, 0.000, 0.000, 0.000, 14:18:50.908
117, -2200.54, -2433.85, -2794.73, -2391.22, 0.000, 0.000, 0.000, 14:18:50.922
118, -1783.62, -1967.52, -2418.85, -2047.49, 0.000, 0.000, 0.000, 14:18:50.923
119, -1895.21, -2121.50, -2569.37, -2185.40, 0.000, 0.000, 0.000, 14:18:50.923
120, -2354.96, -2621.04, -2979.58, -2555.53, 0.000, 0.000, 0.000, 14:18:50.923
121, -2205.14, -2430.10, -2800.09, -2400.40, 0.000, 0.000, 0.000, 14:18:50.952
122, -1796.36, -1978.45, -2420.98, -2053.62, 0.000, 0.000, 0.000, 14:18:50.952
123, -1899.85, -2114.69, -2564.63, -2187.47, 0.000, 0.000, 0.000, 14:18:50.953
124, -2363.58, -2623.92, -2983.23, -2554.16, 0.000, 0.000, 0.000, 14:18:50.953
125, -2214.58, -2424.09, -2797.40, -2396.98, 0.000, 0.000, 0.000, 14:18:50.953
126, -1780.82, -1957.46, -2413.28, -2055.63, 0.000, 0.000, 0.000, 14:18:50.953
127, -1895.21, -2118.13, -2560.87, -2186.24, 0.000, 0.000, 0.000, 14:18:50.974
128, -2364.85, -2623.32, -2978.22, -2554.60, 0.000, 0.000, 0.000, 14:18:50.974
129, -2194.93, -2430.48, -2797.63, -2395.99, 0.000, 0.000, 0.000, 14:18:50.983
130, -1785.19, -1967.77, -2415.56, -2052.40, 0.000, 0.000, 0.000, 14:18:50.983
131, -1900.46, -2116.36, -2564.94, -2191.30, 0.000, 0.000, 0.000, 14:18:50.984
132, -2376.31, -2616.88, -2980.23, -2563.55, 0.000, 0.000, 0.000, 14:18:50.984
133, -2216.69, -2429.80, -2799.51, -2395.81, 0.000, 0.000, 0.000, 14:18:50.998
134, -1786.85, -1964.47, -2410.45, -2051.39, 0.000, 0.000, 0.000, 14:18:50.998
135, -1902.64, -2121.00, -2566.89, -2192.30, 0.000, 0.000, 0.000, 14:18:51.014
136, -2364.18, -2620.82, -2983.38, -2548.72, 0.000, 0.000, 0.000, 14:18:51.014
137, -2193.06, -2422.89, -2792.30, -2383.52, 0.000, 0.000, 0.000, 14:18:51.014
138, -1782.13, -1961.44, -2413.90, -2048.81, 0.000, 0.000, 0.000, 14:18:51.014
139, -1904.19, -2118.16, -2572.03, -2194.04, 0.000, 0.000, 0.000, 14:18:51.028
140, -2365.41, -2624.38, -2979.57, -2558.16, 0.000, 0.000, 0.000, 14:18:51.028
141, -2198.42, -2422.28, -2793.18, -2390.40, 0.000, 0.000, 0.000, 14:18:51.043
142, -1787.99, -1963.67, -2415.14, -2051.39, 0.000, 0.000, 0.000, 14:18:51.043
143, -1894.32, -2119.50, -2564.01, -2190.28, 0.000, 0.000, 0.000, 14:18:51.043
144, -2370.64, -2622.33, -2979.78, -2554.50, 0.000, 0.000, 0.000, 14:18:51.044
145, -2191.20, -2415.82, -2787.23, -2386.42, 0.000, 0.000, 0.000, 14:18:51.058
146, -1783.70, -1956.02, -2405.63, -2043.72, 0.000, 0.000, 0.000, 14:18:51.058
147, -1902.27, -2124.36, -2568.51, -2195.90, 0.000, 0.000, 0.000, 14:18:51.073
148, -2368.58, -2620.89, -2976.76, -2550.13, 0.000, 0.000, 0.000, 14:18:51.073
149, -2203.87, -2418.38, -2786.57, -2388.89, 0.000, 0.000, 0.000, 14:18:51.088
150, -1785.69, -1963.83, -2412.37, -2052.76, 0.000, 0.000, 0.000, 14:18:51.088
151, -1904.57, -2134.78, -2582.02, -2199.94, 0.000, 0.000, 0.000, 14:18:51.088
152, -2365.66, -2638.95, -2986.83, -2562.81, 0.000, 0.000, 0.000, 14:18:51.089
153, -2198.87, -2438.77, -2804.71, -2392.94, 0.000, 0.000, 0.000, 14:18:51.118
154, -1786.85, -1972.28, -2416.31, -2049.71, 0.000, 0.000, 0.000, 14:18:51.118
155, -1906.19, -2141.82, -2581.55, -2201.78, 0.000, 0.000, 0.000, 14:18:51.118
156, -2358.86, -2612.07, -2966.89, -2547.62, 0.000, 0.000, 0.000, 14:18:51.118
157, -2190.53, -2407.76, -2782.07, -2382.33, 0.000, 0.000, 0.000, 14:18:51.119
158, -1773.68, -1954.43, -2399.93, -2046.46, 0.000, 0.000, 0.000, 14:18:51.119
159, -1892.61, -2124.90, -2571.36, -2196.37, 0.000, 0.000, 0.000, 14:18:51.120
160, -2367.69, -2615.09, -2966.40, -2555.37, 0.000, 0.000, 0.000, 14:18:51.120
161, -2194.09, -2405.77, -2782.19, -2387.39, 0.000, 0.000, 0.000, 14:18:51.133
162, -1780.77, -1951.27, -2401.42, -2048.43, 0.000, 0.000, 0.000, 14:18:51.133
163, -1897.43, -2124.53, -2569.24, -2197.18, 0.000, 0.000, 0.000, 14:18:51.148
164, -2369.00, -2621.27, -2970.21, -2553.28, 0.000, 0.000, 0.000, 14:18:51.148
165, -2189.55, -2402.44, -2776.72, -2383.51, 0.000, 0.000, 0.000, 14:18:51.163
166, -1777.51, -1958.56, -2402.55, -2048.30, 0.000, 0.000, 0.000, 14:18:51.164
167, -1905.59, -2129.70, -2572.34, -2199.42, 0.000, 0.000, 0.000, 14:18:51.164
168, -2373.86, -2628.61, -2973.15, -2557.18, 0.000, 0.000, 0.000, 14:18:51.164
169, -2202.14, -2412.67, -2785.36, -2388.99, 0.000, 0.000, 0.000, 14:18:51.178
170, -1776.83, -1955.81, -2407.43, -2047.21, 0.000, 0.000, 0.000, 14:18:51.178
171, -1911.87, -2133.94, -2582.16, -2201.80, 0.000, 0.000, 0.000, 14:18:51.193
172, -2372.49, -2635.89, -2978.40, -2558.26, 0.000, 0.000, 0.000, 14:18:51.193
173, -2213.72, -2429.33, -2794.72, -2388.10, 0.000, 0.000, 0.000, 14:18:51.193
174, -1784.81, -1962.94, -2407.64, -2048.65, 0.000, 0.000, 0.000, 14:18:51.194
175, -1912.09, -2136.70, -2583.91, -2201.69, 0.000, 0.000, 0.000, 14:18:51.208
176, -2380.32, -2623.73, -2978.65, -2559.25, 0.000, 0.000, 0.000, 14:18:51.208
177, -2197.18, -2416.52, -2792.11, -2390.70, 0.000, 0.000, 0.000, 14:18:51.223
178, -1776.87, -1958.78, -2409.41, -2045.46, 0.000, 0.000, 0.000, 14:18:51.223
179, -1908.66, -2138.10, -2586.83, -2204.39, 0.000, 0.000, 0.000, 14:18:51.223
180, -2375.30, -2623.59, -2981.12, -2558.33, 0.000, 0.000, 0.000, 14:18:51.223
181, -2196.33, -2408.64, -2786.66, -2382.21, 0.000, 0.000, 0.000, 14:18:51.237
182, -1780.01, -1955.90, -2401.81, -2050.01, 0.000, 0.000, 0.000, 14:18:51.237
183, -1909.76, -2132.22, -2582.33, -2205.24, 0.000, 0.000, 0.000, 14:18:51.268
184, -2375.32, -2622.06, -2979.09, -2556.54, 0.000, 0.000, 0.000, 14:18:51.268
185, -2201.29, -2414.49, -2786.63, -2393.88, 0.000, 0.000, 0.000, 14:18:51.268
186, -1772.42, -1954.98, -2406.98, -2057.06, 0.000, 0.000, 0.000, 14:18:51.268
187, -1920.01, -2149.95, -2587.48, -2215.94, 0.000, 0.000, 0.000, 14:18:51.269
188, -2366.28, -2625.50, -2983.80, -2559.80, 0.000, 0.000, 0.000, 14:18:51.269
189, -2198.46, -2414.72, -2783.94, -2390.57, 0.000, 0.000, 0.000, 14:18:51.270
190, -1783.03, -1961.46, -2405.55, -2050.21, 0.000, 0.000, 0.000, 14:18:51.270
191, -1914.35, -2144.53, -2584.57, -2213.43, 0.000, 0.000, 0.000, 14:18:51.283
192, -2362.06, -2622.41, -2979.79, -2563.05, 0.000, 0.000, 0.000, 14:18:51.283
193, -2195.92, -2418.66, -2784.63, -2386.34, 0.000, 0.000, 0.000, 14:18:51.298
194, -1762.79, -1961.27, -2408.25, -2052.08, 0.000, 0.000, 0.000, 14:18:51.299
195, -1918.89, -2145.07, -2583.05, -2209.60, 0.000, 0.000, 0.000, 14:18:51.328
196, -2387.47, -2630.10, -2983.26, -2559.15, 0.000, 0.000, 0.000, 14:18:51.328
197, -2185.57, -2408.86, -2782.40, -2384.60, 0.000, 0.000, 0.000, 14:18:51.329
198, -1774.32, -1956.16, -2405.73, -2047.65, 0.000, 0.000, 0.000, 14:18:51.329
199, -1925.14, -2144.65, -2591.52, -2209.43, 0.000, 0.000, 0.000, 14:18:51.329
200, -2361.76, -2627.26, -2979.28, -2552.06, 0.000, 0.000, 0.000, 14:18:51.329
0, -2196.67, -2409.45, -2782.78, -2380.92, 0.000, 0.000, 0.000, 14:18:51.330
1, -1769.34, -1952.99, -2403.77, -2042.70, 0.000, 0.000, 0.000, 14:18:51.344
2, -1924.99, -2135.56, -2588.50, -2213.53, 0.000, 0.000, 0.000, 14:18:51.344
3, -2369.47, -2619.65, -2977.66, -2557.16, 0.000, 0.000, 0.000, 14:18:51.358
4, -2189.97, -2411.64, -2780.38, -2385.98, 0.000, 0.000, 0.000, 14:18:51.358
5, -1772.86, -1951.85, -2404.09, -2046.69, 0.000, 0.000, 0.000, 14:18:51.359
6, -1923.15, -2142.94, -2590.18, -2215.50, 0.000, 0.000, 0.000, 14:18:51.359
7, -2370.37, -2623.43, -2978.73, -2562.24, 0.000, 0.000, 0.000, 14:18:51.373
8, -2191.64, -2411.81, -2784.41, -2380.00, 0.000, 0.000, 0.000, 14:18:51.373
9, -1769.30, -1949.87, -2402.48, -2041.69, 0.000, 0.000, 0.000, 14:18:51.388
10, -1923.45, -2151.44, -2594.51, -2209.35, 0.000, 0.000, 0.000, 14:18:51.388
11, -2364.36, -2627.29, -2979.71, -2557.43, 0.000, 0.000, 0.000, 14:18:51.402
12, -2187.63, -2405.44, -2779.85, -2377.43, 0.000, 0.000, 0.000, 14:18:51.402
13, -1768.78, -1954.56, -2408.07, -2041.65, 0.000, 0.000, 0.000, 14:18:51.403
14, -1925.66, -2153.14, -2593.41, -2207.94, 0.000, 0.000, 0.000, 14:18:51.403
15, -2366.27, -2617.86, -2981.87, -2551.19, 0.000, 0.000, 0.000, 14:18:51.418
16, -2196.30, -2409.33, -2788.41, -2379.46, 0.000, 0.000, 0.000, 14:18:51.418
17, -1766.96, -1953.98, -2410.25, -2048.43, 0.000, 0.000, 0.000, 14:18:51.418
18, -1927.63, -2142.79, -2591.98, -2216.41, 0.000, 0.000, 0.000, 14:18:51.418
19, -2364.91, -2621.48, -2980.90, -2555.48, 0.000, 0.000, 0.000, 14:18:51.433
20, -2190.97, -2413.69, -2783.56, -2383.46, 0.000, 0.000, 0.000, 14:18:51.433
21, -1769.57, -1958.80, -2406.51, -2042.33, 0.000, 0.000, 0.000, 14:18:51.449
22, -1933.91, -2152.40, -2598.91, -2212.29, 0.000, 0.000, 0.000, 14:18:51.449
23, -2365.66, -2622.78, -2985.38, -2556.48, 0.000, 0.000, 0.000, 14:18:51.449
24, -2192.04, -2412.42, -2784.91, -2371.53, 0.000, 0.000, 0.000, 14:18:51.449
25, -1765.45, -1946.00, -2393.64, -2037.98, 0.000, 0.000, 0.000, 14:18:51.463
26, -1936.64, -2157.80, -2600.70, -2215.71, 0.000, 0.000, 0.000, 14:18:51.463
27, -2373.28, -2621.90, -2977.82, -2551.77, 0.000, 0.000, 0.000, 14:18:51.478
28, -2195.07, -2414.50, -2783.70, -2372.79, 0.000, 0.000, 0.000, 14:18:51.479
29, -1767.34, -1952.51, -2399.34, -2041.82, 0.000, 0.000, 0.000, 14:18:51.479
30, -1919.73, -2155.70, -2593.41, -2219.60, 0.000, 0.000, 0.000, 14:18:51.479
31, -2368.04, -2615.36, -2969.99, -2550.47, 0.000, 0.000, 0.000, 14:18:51.508
32, -2195.27, -2404.72, -2783.39, -2371.05, 0.000, 0.000, 0.000, 14:18:51.508
33, -1759.96, -1943.72, -2396.08, -2037.83, 0.000, 0.000, 0.000, 14:18:51.509
34, -1922.99, -2154.18, -2592.00, -2222.60, 0.000, 0.000, 0.000, 14:18:51.509
35, -2367.40, -2622.25, -2973.88, -2555.60, 0.000, 0.000, 0.000, 14:18:51.509
36, -2181.99, -2401.06, -2774.96, -2378.60, 0.000, 0.000, 0.000, 14:18:51.509
37, -1770.64, -1947.68, -2399.28, -2045.53, 0.000, 0.000, 0.000, 14:18:51.537
38, -1940.30, -2156.61, -2605.04, -2222.00, 0.000, 0.000, 0.000, 14:18:51.537
39, -2370.35, -2623.17, -2981.32, -2553.64, 0.000, 0.000, 0.000, 14:18:51.538
40, -2186.47, -2407.51, -2779.24, -2376.35, 0.000, 0.000, 0.000, 14:18:51.538
41, -1762.85, -1939.77, -2399.26, -2041.17, 0.000, 0.000, 0.000, 14:18:51.539
42, -1930.25, -2156.39, -2597.11, -2222.93, 0.000, 0.000, 0.000, 14:18:51.539
43, -2379.32, -2631.46, -2979.48, -2563.83, 0.000, 0.000, 0.000, 14:18:51.553
44, -2195.13, -2402.50, -2779.36, -2379.85, 0.000, 0.000, 0.000, 14:18:51.553
45, -1764.61, -1944.61, -2392.40, -2040.31, 0.000, 0.000, 0.000, 14:18:51.568
46, -1933.83, -2161.37, -2597.02, -2224.39, 0.000, 0.000, 0.000, 14:18:51.568
47, -2380.44, -2618.72, -2970.89, -2556.96, 0.000, 0.000, 0.000, 14:18:51.569
48, -2188.43, -2403.66, -2770.37, -2372.28, 0.000, 0.000, 0.000, 14:18:51.569
49, -1769.44, -1943.94, -2397.44, -2044.14, 0.000, 0.000, 0.000, 14:18:51.582
50, -1936.94, -2169.42, -2606.13, -2232.04, 0.000, 0.000, 0.000, 14:18:51.582
51, -2367.36, -2626.75, -2977.73, -2561.19, 0.000, 0.000, 0.000, 14:18:51.598
52, -2179.64, -2398.30, -2776.02, -2375.44, 0.000, 0.000, 0.000, 14:18:51.598
53, -1759.35, -1943.95, -2396.96, -2042.71, 0.000, 0.000, 0.000, 14:18:51.599
54, -1935.52, -2156.41, -2600.58, -2221.49, 0.000, 0.000, 0.000, 14:18:51.599
55, -2356.11, -2616.84, -2969.95, -2550.04, 0.000, 0.000, 0.000, 14:18:51.613
56, -2181.50, -2409.66, -2769.72, -2368.84, 0.000, 0.000, 0.000, 14:18:51.614
57, -1758.62, -1937.10, -2397.37, -2040.41, 0.000, 0.000, 0.000, 14:18:51.643
58, -1935.22, -2165.14, -2601.86, -2223.43, 0.000, 0.000, 0.000, 14:18:51.643
59, -2365.53, -2620.63, -2971.86, -2548.01, 0.000, 0.000, 0.000, 14:18:51.643
60, -2182.78, -2395.86, -2769.76, -2371.84, 0.000, 0.000, 0.000, 14:18:51.643
61, -1763.19, -1945.62, -2398.24, -2038.67, 0.000, 0.000, 0.000, 14:18:51.644
62, -1936.25, -2167.60, -2603.61, -2230.08, 0.000, 0.000, 0.000, 14:18:51.644
63, -2371.52, -2624.11, -2981.03, -2563.26, 0.000, 0.000, 0.000, 14:18:51.645
64, -2180.31, -2402.98, -2773.81, -2380.43, 0.000, 0.000, 0.000, 14:18:51.645
65, -1767.65, -1949.54, -2401.78, -2045.90, 0.000, 0.000, 0.000, 14:18:51.657
66, -1941.77, -2170.63, -2605.78, -2235.00, 0.000, 0.000, 0.000, 14:18:51.657
67, -2376.36, -2632.37, -2983.81, -2557.07, 0.000, 0.000, 0.000, 14:18:51.673
68, -2188.07, -2404.54, -2778.36, -2372.93, 0.000, 0.000, 0.000, 14:18:51.673
69, -1773.27, -1949.15, -2402.78, -2042.21, 0.000, 0.000, 0.000, 14:18:51.687
70, -1941.76, -2168.84, -2611.19, -2234.12, 0.000, 0.000, 0.000, 14:18:51.687
71, -2377.94, -2625.51, -2981.43, -2558.39, 0.000, 0.000, 0.000, 14:18:51.688
72, -2185.37, -2389.21, -2766.02, -2373.20, 0.000, 0.000, 0.000, 14:18:51.688
73, -1760.95, -1928.02, -2387.79, -2035.38, 0.000, 0.000, 0.000, 14:18:51.718
74, -1931.94, -2169.45, -2603.00, -2218.94, 0.000, 0.000, 0.000, 14:18:51.718
75, -2371.31, -2617.28, -2971.79, -2553.53, 0.000, 0.000, 0.000, 14:18:51.718
76, -2170.83, -2405.51, -2773.17, -2360.18, 0.000, 0.000, 0.000, 14:18:51.718
77, -1749.05, -1940.11, -2384.98, -2031.20, 0.000, 0.000, 0.000, 14:18:51.719
78, -1935.39, -2165.33, -2606.79, -2233.82, 0.000, 0.000, 0.000, 14:18:51.719
79, -2366.74, -2626.38, -2978.27, -2551.47, 0.000, 0.000, 0.000, 14:18:51.732
80, -2169.17, -2377.58, -2760.07, -2362.76, 0.000, 0.000, 0.000, 14:18:51.733
81, -1743.86, -1919.79, -2381.88, -2028.89, 0.000, 0.000, 0.000, 14:18:51.748
82, -1951.36, -2183.56, -2622.60, -2230.78, 0.000, 0.000, 0.000, 14:18:51.748
83, -2369.58, -2624.22, -2986.85, -2562.34, 0.000, 0.000, 0.000, 14:18:51.749
84, -2178.83, -2408.43, -2777.13, -2370.26, 0.000, 0.000, 0.000, 14:18:51.749
85, -1757.29, -1944.85, -2397.65, -2034.62, 0.000, 0.000, 0.000, 14:18:51.778
86, -1953.56, -2168.35, -2614.22, -2231.30, 0.000, 0.000, 0.000, 14:18:51.778
87, -2370.26, -2620.60, -2971.83, -2563.85, 0.000, 0.000, 0.000, 14:18:51.778
88, -2179.11, -2395.46, -2775.38, -2374.56, 0.000, 0.000, 0.000, 14:18:51.778
89, -1752.28, -1924.38, -2387.63, -2040.29, 0.000, 0.000, 0.000, 14:18:51.779
90, -1952.76, -2169.92, -2618.98, -2245.13, 0.000, 0.000, 0.000, 14:18:51.779
91, -2372.12, -2620.71, -2980.64, -2568.36, 0.000, 0.000, 0.000, 14:18:51.793
92, -2183.79, -2401.40, -2777.92, -2372.50, 0.000, 0.000, 0.000, 14:18:51.793
93, -1760.64, -1939.51, -2397.15, -2038.04, 0.000, 0.000, 0.000, 14:18:51.823
94, -1952.55, -2186.89, -2622.06, -2242.72, 0.000, 0.000, 0.000, 14:18:51.823
95, -2375.07, -2622.87, -2973.90, -2562.68, 0.000, 0.000, 0.000, 14:18:51.824
96, -2179.01, -2388.99, -2770.01, -2383.11, 0.000, 0.000, 0.000, 14:18:51.824
97, -1754.82, -1934.08, -2390.38, -2042.58, 0.000, 0.000, 0.000, 14:18:51.824
98, -1942.81, -2170.62, -2608.84, -2236.66, 0.000, 0.000, 0.000, 14:18:51.824
99, -2373.02, -2626.53, -2984.32, -2562.24, 0.000, 0.000, 0.000, 14:18:51.825
100, -2187.73, -2404.39, -2772.20, -2375.93, 0.000, 0.000, 0.000, 14:18:51.825
101, -1772.81, -1942.00, -2399.40, -2050.51, 0.000, 0.000, 0.000, 14:18:51.838
102, -1960.38, -2165.10, -2617.74, -2241.86, 0.000, 0.000, 0.000, 14:18:51.838
103, -2377.27, -2616.20, -2968.11, -2554.09, 0.000, 0.000, 0.000, 14:18:51.853
104, -2186.96, -2393.40, -2766.45, -2379.33, 0.000, 0.000, 0.000, 14:18:51.853
105, -1764.37, -1947.46, -2397.06, -2044.00, 0.000, 0.000, 0.000, 14:18:51.867
106, -1976.35, -2200.79, -2635.07, -2245.19, 0.000, 0.000, 0.000, 14:18:51.867
107, -2375.21, -2619.64, -2975.79, -2557.23, 0.000, 0.000, 0.000, 14:18:51.877
108, -2178.95, -2392.42, -2769.34, -2372.75, 0.000, 0.000, 0.000, 14:18:51.877
109, -1778.97, -1945.75, -2405.24, -2038.37, 0.000, 0.000, 0.000, 14:18:51.883
110, -1951.51, -2177.19, -2614.55, -2234.04, 0.000, 0.000, 0.000, 14:18:51.883
111, -2381.81, -2633.50, -2982.58, -2559.58, 0.000, 0.000, 0.000, 14:18:51.898
112, -2186.58, -2400.47, -2782.31, -2379.80, 0.000, 0.000, 0.000, 14:18:51.898
113, -1760.95, -1957.24, -2402.81, -2049.04, 0.000, 0.000, 0.000, 14:18:51.898
114, -1971.35, -2201.48, -2632.75, -2247.01, 0.000, 0.000, 0.000, 14:18:51.898
115, -2380.87, -2657.24, -2989.78, -2560.19, 0.000, 0.000, 0.000, 14:18:51.913
116, -2180.24, -2387.36, -2762.59, -2364.72, 0.000, 0.000, 0.000, 14:18:51.913
117, -1765.27, -1941.82, -2404.49, -2046.30, 0.000, 0.000, 0.000, 14:18:51.928
118, -1983.91, -2221.53, -2651.65, -2265.65, 0.000, 0.000, 0.000, 14:18:51.928
119, -2403.51, -2657.15, -3002.72, -2579.50, 0.000, 0.000, 0.000, 14:18:51.929
120, -2175.68, -2406.84, -2762.40, -2364.80, 0.000, 0.000, 0.000, 14:18:51.929
121, -1770.51, -1961.47, -2405.28, -2042.88, 0.000, 0.000, 0.000, 14:18:51.943
122, -1961.79, -2203.50, -2637.28, -2249.96, 0.000, 0.000, 0.000, 14:18:51.943
123, -2388.89, -2647.68, -2996.56, -2564.55, 0.000, 0.000, 0.000, 14:18:51.958
124, -2187.45, -2418.52, -2779.96, -2376.52, 0.000, 0.000, 0.000, 14:18:51.958
125, -1778.15, -1977.54, -2410.62, -2052.35, 0.000, 0.000, 0.000, 14:18:51.959
126, -1957.68, -2211.22, -2623.89, -2235.67, 0.000, 0.000, 0.000, 14:18:51.959
127, -2368.59, -2635.80, -2977.15, -2553.54, 0.000, 0.000, 0.000, 14:18:51.987
128, -2165.72, -2399.13, -2759.14, -2366.78, 0.000, 0.000, 0.000, 14:18:51.987
129, -1755.62, -1927.81, -2382.70, -2030.78, 0.000, 0.000, 0.000, 14:18:51.988
130, -1966.01, -2211.90, -2631.91, -2247.50, 0.000, 0.000, 0.000, 14:18:51.988
131, -2386.58, -2638.35, -2996.03, -2561.12, 0.000, 0.000, 0.000, 14:18:51.989
132, -2163.41, -2372.23, -2760.24, -2363.32, 0.000, 0.000, 0.000, 14:18:51.989
133, -1743.05, -1902.05, -2393.32, -2021.72, 0.000, 0.000, 0.000, 14:18:52.003
134, -1956.71, -2211.90, -2616.59, -2255.40, 0.000, 0.000, 0.000, 14:18:52.003
135, -2377.87, -2656.79, -2978.94, -2554.93, 0.000, 0.000, 0.000, 14:18:52.032
136, -2177.50, -2398.44, -2763.64, -2360.31, 0.000, 0.000, 0.000, 14:18:52.032
137, -1757.22, -1931.86, -2387.99, -2023.99, 0.000, 0.000, 0.000, 14:18:52.034
138, -1967.91, -2198.05, -2623.44, -2246.96, 0.000, 0.000, 0.000, 14:18:52.034
139, -2374.53, -2634.74, -2970.89, -2562.26, 0.000, 0.000, 0.000, 14:18:52.034
140, -2167.73, -2396.52, -2758.69, -2366.38, 0.000, 0.000, 0.000, 14:18:52.034
141, -1765.98, -1959.90, -2393.25, -2044.36, 0.000, 0.000, 0.000, 14:18:52.034
142, -1956.12, -2203.56, -2622.28, -2256.39, 0.000, 0.000, 0.000, 14:18:52.034
143, -2382.74, -2627.32, -2968.27, -2564.20, 0.000, 0.000, 0.000, 14:18:52.063
144, -2170.67, -2401.76, -2759.75, -2361.78, 0.000, 0.000, 0.000, 14:18:52.063
145, -1759.82, -1950.37, -2391.14, -2045.77, 0.000, 0.000, 0.000, 14:18:52.064
146, -1959.78, -2201.26, -2627.07, -2245.17, 0.000, 0.000, 0.000, 14:18:52.064
147, -2377.79, -2634.58, -2974.74, -2560.54, 0.000, 0.000, 0.000, 14:18:52.093
148, -2166.22, -2373.30, -2757.67, -2365.43, 0.000, 0.000, 0.000, 14:18:52.093
149, -1750.70, -1928.57, -2383.12, -2035.18, 0.000, 0.000, 0.000, 14:18:52.093
150, -1971.45, -2188.94, -2628.65, -2246.54, 0.000, 0.000, 0.000, 14:18:52.093
151, -2363.98, -2625.18, -2967.77, -2551.09, 0.000, 0.000, 0.000, 14:18:52.094
152, -2166.02, -2382.07, -2763.15, -2366.40, 0.000, 0.000, 0.000, 14:18:52.095
153, -1758.32, -1931.52, -2388.03, -2034.37, 0.000, 0.000, 0.000, 14:18:52.095
154, -1963.55, -2189.53, -2626.63, -2249.82, 0.000, 0.000, 0.000, 14:18:52.095
155, -2360.66, -2613.00, -2961.08, -2553.39, 0.000, 0.000, 0.000, 14:18:52.108
156, -2154.57, -2356.04, -2747.47, -2354.15, 0.000, 0.000, 0.000, 14:18:52.108
157, -1731.79, -1895.50, -2378.31, -2019.32, 0.000, 0.000, 0.000, 14:18:52.123
158, -1974.97, -2224.30, -2639.82, -2249.49, 0.000, 0.000, 0.000, 14:18:52.123
159, -2371.73, -2634.52, -2981.36, -2559.97, 0.000, 0.000, 0.000, 14:18:52.137
160, -2162.63, -2405.37, -2757.91, -2355.05, 0.000, 0.000, 0.000, 14:18:52.138
161, -1745.91, -1923.87, -2385.38, -2039.83, 0.000, 0.000, 0.000, 14:18:52.138
162, -1952.33, -2148.64, -2619.36, -2248.92, 0.000, 0.000, 0.000, 14:18:52.138
163, -2351.49, -2602.56, -2957.92, -2548.47, 0.000, 0.000, 0.000, 14:18:52.153
164, -2138.42, -2342.51, -2730.48, -2341.27, 0.000, 0.000, 0.000, 14:18:52.153
165, -1732.95, -1905.83, -2379.65, -2031.18, 0.000, 0.000, 0.000, 14:18:52.168
166, -1957.01, -2178.07, -2624.47, -2248.50, 0.000, 0.000, 0.000, 14:18:52.168
167, -2352.06, -2600.41, -2957.55, -2543.52, 0.000, 0.000, 0.000, 14:18:52.168
168, -2155.32, -2369.35, -2746.70, -2353.66, 0.000, 0.000, 0.000, 14:18:52.168
169, -1751.59, -1931.30, -2382.02, -2039.54, 0.000, 0.000, 0.000, 14:18:52.183
170, -1990.25, -2231.90, -2649.23, -2264.67, 0.000, 0.000, 0.000, 14:18:52.183
171, -2376.26, -2646.36, -2984.97, -2567.40, 0.000, 0.000, 0.000, 14:18:52.199
172, -2155.31, -2385.57, -2750.96, -2354.30, 0.000, 0.000, 0.000, 14:18:52.199
173, -1733.11, -1915.81, -2373.12, -2018.88, 0.000, 0.000, 0.000, 14:18:52.200
174, -1974.75, -2216.19, -2644.23, -2258.91, 0.000, 0.000, 0.000, 14:18:52.200
175, -2377.78, -2644.78, -2979.99, -2553.85, 0.000, 0.000, 0.000, 14:18:52.213
176, -2172.23, -2391.50, -2762.94, -2361.34, 0.000, 0.000, 0.000, 14:18:52.214
177, -1767.94, -1953.22, -2401.53, -2030.81, 0.000, 0.000, 0.000, 14:18:52.228
178, -1987.60, -2233.10, -2668.70, -2255.49, 0.000, 0.000, 0.000, 14:18:52.228
179, -2373.13, -2632.56, -2983.28, -2553.90, 0.000, 0.000, 0.000, 14:18:52.229
180, -2167.15, -2379.30, -2755.33, -2353.51, 0.000, 0.000, 0.000, 14:18:52.229
181, -1751.24, -1929.66, -2386.07, -2024.67, 0.000, 0.000, 0.000, 14:18:52.243
182, -1971.42, -2192.48, -2633.81, -2251.78, 0.000, 0.000, 0.000, 14:18:52.243
183, -2378.43, -2621.94, -2969.37, -2564.25, 0.000, 0.000, 0.000, 14:18:52.258
184, -2173.56, -2355.68, -2752.44, -2361.90, 0.000, 0.000, 0.000, 14:18:52.258
185, -1754.03, -1901.53, -2378.64, -2018.45, 0.000, 0.000, 0.000, 14:18:52.258
186, -1968.32, -2181.78, -2629.38, -2255.32, 0.000, 0.000, 0.000, 14:18:52.258
187, -2371.79, -2613.42, -2967.27, -2554.88, 0.000, 0.000, 0.000, 14:18:52.280
188, -2147.65, -2318.35, -2743.76, -2342.28, 0.000, 0.000, 0.000, 14:18:52.280
189, -1734.91, -1885.05, -2366.57, -2015.53, 0.000, 0.000, 0.000, 14:18:52.287
190, -1975.19, -2175.43, -2642.57, -2255.66, 0.000, 0.000, 0.000, 14:18:52.287
191, -2358.16, -2575.57, -2962.40, -2545.31, 0.000, 0.000, 0.000, 14:18:52.288
192, -2148.75, -2335.89, -2748.15, -2351.80, 0.000, 0.000, 0.000, 14:18:52.288
193, -1747.68, -1904.97, -2375.56, -2023.77, 0.000, 0.000, 0.000, 14:18:52.303
194, -1988.42, -2189.06, -2656.87, -2261.93, 0.000, 0.000, 0.000, 14:18:52.303
195, -2364.97, -2595.03, -2979.79, -2552.66, 0.000, 0.000, 0.000, 14:18:52.333
196, -2175.17, -2377.09, -2764.84, -2361.88, 0.000, 0.000, 0.000, 14:18:52.333
197, -1757.13, -1924.34, -2396.14, -2031.76, 0.000, 0.000, 0.000, 14:18:52.334
198, -1996.43, -2218.22, -2649.32, -2277.80, 0.000, 0.000, 0.000, 14:18:52.334
199, -2371.71, -2641.94, -2985.13, -2568.64, 0.000, 0.000, 0.000, 14:18:52.334
200, -2178.05, -2398.41, -2757.51, -2377.49, 0.000, 0.000, 0.000, 14:18:52.334
0, -1761.24, -1964.67, -2400.54, -2043.73, 0.000, 0.000, 0.000, 14:18:52.334
1, -1997.42, -2244.09, -2651.73, -2279.66, 0.000, 0.000, 0.000, 14:18:52.348
2, -2389.62, -2665.74, -2993.63, -2581.17, 0.000, 0.000, 0.000, 14:18:52.348
3, -2165.71, -2396.75, -2765.40, -2357.56, 0.000, 0.000, 0.000, 14:18:52.363
4, -1756.56, -1948.14, -2391.91, -2031.75, 0.000, 0.000, 0.000, 14:18:52.364
5, -1978.61, -2214.56, -2647.40, -2261.60, 0.000, 0.000, 0.000, 14:18:52.364
6, -2377.67, -2645.18, -2994.57, -2567.96, 0.000, 0.000, 0.000, 14:18:52.364
7, -2152.01, -2393.81, -2757.25, -2350.96, 0.000, 0.000, 0.000, 14:18:52.378
8, -1742.03, -1945.42, -2390.97, -2035.56, 0.000, 0.000, 0.000, 14:18:52.378
9, -1967.15, -2209.81, -2638.40, -2260.37, 0.000, 0.000, 0.000, 14:18:52.392
10, -2374.44, -2633.52, -2981.61, -2556.24, 0.000, 0.000, 0.000, 14:18:52.393
11, -2163.17, -2385.04, -2755.05, -2357.92, 0.000, 0.000, 0.000, 14:18:52.393
12, -1740.98, -1937.91, -2385.46, -2027.46, 0.000, 0.000, 0.000, 14:18:52.393
13, -1982.30, -2221.54, -2653.09, -2262.77, 0.000, 0.000, 0.000, 14:18:52.407
14, -2368.55, -2624.36, -2978.60, -2554.55, 0.000, 0.000, 0.000, 14:18:52.410
15, -2163.90, -2380.97, -2763.34, -2351.93, 0.000, 0.000, 0.000, 14:18:52.424
16, -1735.86, -1940.49, -2386.87, -2029.66, 0.000, 0.000, 0.000, 14:18:52.424
17, -1980.90, -2211.70, -2647.27, -2274.52, 0.000, 0.000, 0.000, 14:18:52.424
18, -2363.87, -2617.66, -2973.21, -2552.50, 0.000, 0.000, 0.000, 14:18:52.424
19, -2146.15, -2373.54, -2750.64, -2345.85, 0.000, 0.000, 0.000, 14:18:52.438
20, -1732.46, -1940.40, -2384.38, -2018.17, 0.000, 0.000, 0.000, 14:18:52.438
21, -1987.06, -2242.67, -2654.62, -2268.50, 0.000, 0.000, 0.000, 14:18:52.468
22, -2361.53, -2638.49, -2968.93, -2554.37, 0.000, 0.000, 0.000, 14:18:52.468
23, -2150.77, -2407.42, -2769.52, -2350.10, 0.000, 0.000, 0.000, 14:18:52.469
24, -1746.21, -1966.30, -2390.30, -2019.92, 0.000, 0.000, 0.000, 14:18:52.469
25, -1967.26, -2234.10, -2658.03, -2267.72, 0.000, 0.000, 0.000, 14:18:52.469
26, -2323.90, -2626.25, -2949.43, -2549.93, 0.000, 0.000, 0.000, 14:18:52.469
27, -2111.48, -2386.82, -2741.99, -2334.03, 0.000, 0.000, 0.000, 14:18:52.470
28, -1677.21, -1973.06, -2382.42, -2027.45, 0.000, 0.000, 0.000, 14:18:52.470
29, -1878.13, -2253.17, -2640.12, -2260.10, 0.000, 0.000, 0.000, 14:18:52.483
30, -2230.51, -2648.65, -2957.58, -2536.72, 0.000, 0.000, 0.000, 14:18:52.484
31, -1980.49, -2405.16, -2724.88, -2330.07, 0.000, 0.000, 0.000, 14:18:52.513
32, -1532.60, -1975.63, -2356.58, -1993.22, 0.000, 0.000, 0.000, 14:18:52.513
33, -1767.41, -2314.25, -2652.86, -2259.15, 0.000, 0.000, 0.000, 14:18:52.514
34, -2133.29, -2696.05, -2944.46, -2521.12, 0.000, 0.000, 0.000, 14:18:52.514
35, -1941.22, -2449.61, -2737.93, -2326.27, 0.000, 0.000, 0.000, 14:18:52.514
36, -1569.91, -2005.48, -2376.81, -2011.17, 0.000, 0.000, 0.000, 14:18:52.514
37, -1861.48, -2302.59, -2660.95, -2260.77, 0.000, 0.000, 0.000, 14:18:52.543
38, -2281.53, -2676.12, -2983.78, -2546.29, 0.000, 0.000, 0.000, 14:18:52.543
39, -2097.05, -2407.79, -2751.03, -2349.18, 0.000, 0.000, 0.000, 14:18:52.543
40, -1714.87, -1953.03, -2388.07, -2031.09, 0.000, 0.000, 0.000, 14:18:52.543
41, -2001.71, -2244.42, -2668.63, -2277.93, 0.000, 0.000, 0.000, 14:18:52.551
42, -2395.23, -2623.77, -2994.35, -2570.57, 0.000, 0.000, 0.000, 14:18:52.551
43, -2205.96, -2390.99, -2780.54, -2376.21, 0.000, 0.000, 0.000, 14:18:52.573
44, -1811.25, -1945.88, -2412.00, -2044.14, 0.000, 0.000, 0.000, 14:18:52.573
45, -2062.67, -2223.86, -2674.56, -2283.09, 0.000, 0.000, 0.000, 14:18:52.574
46, -2426.36, -2578.83, -2968.95, -2561.94, 0.000, 0.000, 0.000, 14:18:52.574
47, -2220.88, -2336.85, -2750.10, -2360.45, 0.000, 0.000, 0.000, 14:18:52.588
48, -1817.55, -1886.52, -2387.49, -2035.00, 0.000, 0.000, 0.000, 14:18:52.588
49, -2066.00, -2208.91, -2652.88, -2281.31, 0.000, 0.000, 0.000, 14:18:52.589
50, -2451.91, -2580.47, -2971.64, -2561.49, 0.000, 0.000, 0.000, 14:18:52.589
51, -2238.73, -2357.23, -2760.31, -2353.44, 0.000, 0.000, 0.000, 14:18:52.603
52, -1818.39, -1916.99, -2388.70, -2030.02, 0.000, 0.000, 0.000, 14:18:52.603
53, -2070.15, -2208.82, -2658.51, -2282.27, 0.000, 0.000, 0.000, 14:18:52.603
54, -2458.44, -2610.92, -2980.37, -2571.62, 0.000, 0.000, 0.000, 14:18:52.604
55, -2233.49, -2356.14, -2760.22, -2362.30, 0.000, 0.000, 0.000, 14:18:52.618
56, -1796.16, -1878.25, -2371.61, -2021.34, 0.000, 0.000, 0.000, 14:18:52.618
57, -2067.30, -2220.19, -2676.65, -2288.40, 0.000, 0.000, 0.000, 14:18:52.633
58, -2427.63, -2591.60, -2974.60, -2558.69, 0.000, 0.000, 0.000, 14:18:52.633
59, -2202.95, -2345.74, -2749.80, -2351.63, 0.000, 0.000, 0.000, 14:18:52.633
60, -1807.88, -1917.90, -2391.50, -2034.77, 0.000, 0.000, 0.000, 14:18:52.634
61, -2048.40, -2214.70, -2667.82, -2290.89, 0.000, 0.000, 0.000, 14:18:52.648
62, -2417.42, -2584.35, -2972.40, -2556.44, 0.000, 0.000, 0.000, 14:18:52.648
63, -2194.74, -2326.46, -2748.76, -2349.39, 0.000, 0.000, 0.000, 14:18:52.664
64, -1789.26, -1888.72, -2386.12, -2027.22, 0.000, 0.000, 0.000, 14:18:52.664
65, -2032.10, -2216.57, -2671.52, -2278.04, 0.000, 0.000, 0.000, 14:18:52.664
66, -2421.44, -2624.63, -2981.86, -2560.59, 0.000, 0.000, 0.000, 14:18:52.664
67, -2195.32, -2360.64, -2753.25, -2362.20, 0.000, 0.000, 0.000, 14:18:52.678
68, -1777.53, -1943.37, -2389.48, -2038.93, 0.000, 0.000, 0.000, 14:18:52.678
69, -2019.44, -2217.95, -2657.25, -2279.12, 0.000, 0.000, 0.000, 14:18:52.693
70, -2397.46, -2580.81, -2952.02, -2546.38, 0.000, 0.000, 0.000, 14:18:52.693
71, -2183.90, -2324.06, -2734.42, -2337.35, 0.000, 0.000, 0.000, 14:18:52.693
72, -1776.34, -1892.03, -2382.20, -2020.62, 0.000, 0.000, 0.000, 14:18:52.693
73, -2031.87, -2220.34, -2658.34, -2280.21, 0.000, 0.000, 0.000, 14:18:52.708
74, -2403.47, -2590.72, -2975.00, -2555.10, 0.000, 0.000, 0.000, 14:18:52.708
75, -2171.37, -2350.03, -2749.91, -2336.73, 0.000, 0.000, 0.000, 14:18:52.723
76, -1754.23, -1911.59, -2382.63, -2018.93, 0.000, 0.000, 0.000, 14:18:52.723
77, -2005.99, -2196.22, -2648.61, -2265.93, 0.000, 0.000, 0.000, 14:18:52.724
78, -2375.87, -2577.23, -2951.21, -2534.78, 0.000, 0.000, 0.000, 14:18:52.724
79, -2166.60, -2330.83, -2743.69, -2365.78, 0.000, 0.000, 0.000, 14:18:52.753
80, -1757.34, -1891.13, -2380.50, -2022.59, 0.000, 0.000, 0.000, 14:18:52.753
81, -1998.25, -2212.44, -2656.42, -2274.97, 0.000, 0.000, 0.000, 14:18:52.753
82, -2394.44, -2612.57, -2981.77, -2560.62, 0.000, 0.000, 0.000, 14:18:52.753
83, -2167.35, -2355.33, -2750.66, -2338.93, 0.000, 0.000, 0.000, 14:18:52.754
84, -1742.64, -1898.42, -2373.90, -2027.87, 0.000, 0.000, 0.000, 14:18:52.754
85, -2011.09, -2240.19, -2663.72, -2303.21, 0.000, 0.000, 0.000, 14:18:52.784
86, -2382.00, -2615.11, -2976.99, -2565.45, 0.000, 0.000, 0.000, 14:18:52.784
87, -2158.11, -2369.96, -2752.57, -2362.34, 0.000, 0.000, 0.000, 14:18:52.784
88, -1715.60, -1868.76, -2359.40, -2001.90, 0.000, 0.000, 0.000, 14:18:52.784
89, -2000.70, -2232.82, -2673.34, -2275.12, 0.000, 0.000, 0.000, 14:18:52.784
90, -2367.20, -2618.50, -2996.83, -2543.51, 0.000, 0.000, 0.000, 14:18:52.784
91, -2147.36, -2340.71, -2737.80, -2336.81, 0.000, 0.000, 0.000, 14:18:52.798
92, -1746.66, -1896.32, -2357.46, -2033.85, 0.000, 0.000, 0.000, 14:18:52.798
93, -1994.68, -2214.58, -2647.92, -2283.50, 0.000, 0.000, 0.000, 14:18:52.813
94, -2378.63, -2619.90, -2971.72, -2532.74, 0.000, 0.000, 0.000, 14:18:52.813
95, -2154.28, -2377.85, -2754.52, -2346.39, 0.000, 0.000, 0.000, 14:18:52.814
96, -1730.61, -1919.97, -2370.82, -2019.45, 0.000, 0.000, 0.000, 14:18:52.814
97, -1995.49, -2214.55, -2661.91, -2265.58, 0.000, 0.000, 0.000, 14:18:52.828
98, -2378.44, -2643.47, -2988.63, -2563.29, 0.000, 0.000, 0.000, 14:18:52.828
99, -2155.68, -2363.09, -2747.73, -2350.53, 0.000, 0.000, 0.000, 14:18:52.858
100, -1730.42, -1905.04, -2370.92, -2011.36, 0.000, 0.000, 0.000, 14:18:52.858
101, -1993.98, -2255.51, -2668.19, -2279.02, 0.000, 0.000, 0.000, 14:18:52.858
102, -2364.98, -2611.61, -2978.15, -2557.64, 0.000, 0.000, 0.000, 14:18:52.858
103, -2131.79, -2361.13, -2745.85, -2328.93, 0.000, 0.000, 0.000, 14:18:52.859
104, -1722.83, -1913.56, -2375.03, -2001.94, 0.000, 0.000, 0.000, 14:18:52.859
105, -1988.72, -2242.92, -2669.38, -2290.24, 0.000, 0.000, 0.000, 14:18:52.860
106, -2370.67, -2613.69, -2963.31, -2548.50, 0.000, 0.000, 0.000, 14:18:52.860
107, -2139.42, -2360.77, -2746.84, -2342.11, 0.000, 0.000, 0.000, 14:18:52.887
108, -1724.06, -1914.47, -2368.20, -2021.23, 0.000, 0.000, 0.000, 14:18:52.888
109, -2002.43, -2260.88, -2673.02, -2289.96, 0.000, 0.000, 0.000, 14:18:52.888
110, -2384.18, -2645.06, -2979.46, -2566.09, 0.000, 0.000, 0.000, 14:18:52.888
111, -2135.93, -2375.40, -2739.87, -2350.17, 0.000, 0.000, 0.000, 14:18:52.902
112, -1722.81, -1924.86, -2375.85, -2022.99, 0.000, 0.000, 0.000, 14:18:52.902
113, -2001.33, -2247.62, -2675.63, -2285.36, 0.000, 0.000, 0.000, 14:18:52.903
114, -2348.68, -2572.23, -2959.32, -2527.42, 0.000, 0.000, 0.000, 14:18:52.903
115, -2131.32, -2307.68, -2729.52, -2337.57, 0.000, 0.000, 0.000, 14:18:52.933
116, -1724.28, -1880.60, -2378.45, -2023.00, 0.000, 0.000, 0.000, 14:18:52.933
117, -1992.99, -2211.67, -2655.95, -2267.42, 0.000, 0.000, 0.000, 14:18:52.934
118, -2358.56, -2605.25, -2967.67, -2553.82, 0.000, 0.000, 0.000, 14:18:52.934
119, -2136.39, -2344.06, -2741.02, -2337.91, 0.000, 0.000, 0.000, 14:18:52.935
120, -1723.86, -1911.83, -2378.28, -2025.38, 0.000, 0.000, 0.000, 14:18:52.935
121, -1993.45, -2240.43, -2668.46, -2288.51, 0.000, 0.000, 0.000, 14:18:52.963
122, -2357.11, -2610.92, -2971.41, -2553.42, 0.000, 0.000, 0.000, 14:18:52.963
123, -2132.82, -2341.83, -2736.12, -2344.55, 0.000, 0.000, 0.000, 14:18:52.963
124, -1721.36, -1898.09, -2366.84, -2015.98, 0.000, 0.000, 0.000, 14:18:52.963
125, -2012.60, -2243.12, -2682.05, -2294.94, 0.000, 0.000, 0.000, 14:18:52.963
126, -2384.36, -2641.23, -2991.92, -2567.76, 0.000, 0.000, 0.000, 14:18:52.963
127, -2128.92, -2356.11, -2721.96, -2329.99, 0.000, 0.000, 0.000, 14:18:52.978
128, -1742.83, -1934.46, -2383.70, -2026.51, 0.000, 0.000, 0.000, 14:18:52.978
129, -2029.77, -2267.99, -2683.93, -2304.35, 0.000, 0.000, 0.000, 14:18:52.993
130, -2394.09, -2644.56, -2994.43, -2570.34, 0.000, 0.000, 0.000, 14:18:52.993
131, -2132.22, -2358.80, -2729.22, -2341.07, 0.000, 0.000, 0.000, 14:18:52.994
132, -1728.18, -1925.63, -2365.77, -2014.48, 0.000, 0.000, 0.000, 14:18:52.994
133, -2027.78, -2276.43, -2694.30, -2306.43, 0.000, 0.000, 0.000, 14:18:53.008
134, -2384.50, -2655.94, -2985.63, -2559.36, 0.000, 0.000, 0.000, 14:18:53.008
135, -2148.96, -2379.84, -2747.81, -2344.46, 0.000, 0.000, 0.000, 14:18:53.038
136, -1729.83, -1906.72, -2371.10, -2028.54, 0.000, 0.000, 0.000, 14:18:53.038
137, -2013.00, -2258.49, -2678.24, -2297.05, 0.000, 0.000, 0.000, 14:18:53.039
138, -2393.49, -2651.96, -2987.15, -2568.20, 0.000, 0.000, 0.000, 14:18:53.039
139, -2135.34, -2364.47, -2728.86, -2339.88, 0.000, 0.000, 0.000, 14:18:53.039
140, -1721.30, -1916.11, -2365.38, -2015.40, 0.000, 0.000, 0.000, 14:18:53.039
141, -2014.47, -2242.85, -2675.02, -2297.58, 0.000, 0.000, 0.000, 14:18:53.040
142, -2390.19, -2640.43, -2981.39, -2561.66, 0.000, 0.000, 0.000, 14:18:53.040
143, -2138.50, -2352.65, -2727.80, -2343.14, 0.000, 0.000, 0.000, 14:18:53.068
144, -1715.70, -1896.12, -2360.47, -2010.16, 0.000, 0.000, 0.000, 14:18:53.068
145, -2020.90, -2256.38, -2684.65, -2302.82, 0.000, 0.000, 0.000, 14:18:53.068
146, -2386.68, -2651.43, -2987.65, -2562.70, 0.000, 0.000, 0.000, 14:18:53.068
147, -2131.91, -2343.03, -2728.21, -2333.40, 0.000, 0.000, 0.000, 14:18:53.099
148, -1730.99, -1901.98, -2369.94, -2010.35, 0.000, 0.000, 0.000, 14:18:53.099
149, -2023.84, -2265.74, -2695.63, -2294.12, 0.000, 0.000, 0.000, 14:18:53.099
150, -2381.42, -2645.90, -2986.30, -2562.06, 0.000, 0.000, 0.000, 14:18:53.099
151, -2125.84, -2350.24, -2724.28, -2338.85, 0.000, 0.000, 0.000, 14:18:53.099
152, -1730.36, -1911.33, -2365.31, -2013.10, 0.000, 0.000, 0.000, 14:18:53.099
153, -2009.64, -2255.27, -2676.91, -2299.19, 0.000, 0.000, 0.000, 14:18:53.100
154, -2378.47, -2629.93, -2965.95, -2556.29, 0.000, 0.000, 0.000, 14:18:53.101
155, -2119.51, -2330.89, -2719.92, -2321.78, 0.000, 0.000, 0.000, 14:18:53.113
156, -1700.91, -1886.27, -2356.22, -1999.73, 0.000, 0.000, 0.000, 14:18:53.114
157, -2006.55, -2241.48, -2678.22, -2293.09, 0.000, 0.000, 0.000, 14:18:53.128
158, -2357.99, -2602.11, -2967.16, -2540.95, 0.000, 0.000, 0.000, 14:18:53.129
159, -2111.08, -2333.26, -2725.36, -2322.18, 0.000, 0.000, 0.000, 14:18:53.143
160, -1713.05, -1890.48, -2364.75, -2007.31, 0.000, 0.000, 0.000, 14:18:53.143
161, -2003.05, -2253.90, -2680.67, -2292.96, 0.000, 0.000, 0.000, 14:18:53.143
162, -2362.18, -2616.14, -2972.94, -2551.15, 0.000, 0.000, 0.000, 14:18:53.143
163, -2125.19, -2333.94, -2730.49, -2330.65, 0.000, 0.000, 0.000, 14:18:53.158
164, -1719.34, -1911.90, -2366.83, -2010.69, 0.000, 0.000, 0.000, 14:18:53.158
165, -2012.35, -2254.20, -2684.51, -2293.80, 0.000, 0.000, 0.000, 14:18:53.173
166, -2376.87, -2626.52, -2969.18, -2553.69, 0.000, 0.000, 0.000, 14:18:53.173
167, -2122.54, -2342.03, -2725.91, -2335.89, 0.000, 0.000, 0.000, 14:18:53.174
168, -1727.27, -1922.52, -2381.02, -2022.72, 0.000, 0.000, 0.000, 14:18:53.174
169, -2027.55, -2282.87, -2700.15, -2307.95, 0.000, 0.000, 0.000, 14:18:53.203
170, -2369.01, -2638.64, -2976.47, -2555.58, 0.000, 0.000, 0.000, 14:18:53.203
171, -2122.63, -2348.18, -2729.12, -2335.06, 0.000, 0.000, 0.000, 14:18:53.203
172, -1721.02, -1910.21, -2364.39, -2011.43, 0.000, 0.000, 0.000, 14:18:53.203
173, -2028.16, -2274.81, -2690.73, -2302.89, 0.000, 0.000, 0.000, 14:18:53.204
174, -2374.41, -2634.62, -2978.10, -2554.50, 0.000, 0.000, 0.000, 14:18:53.204
175, -2126.89, -2356.95, -2723.68, -2330.28, 0.000, 0.000, 0.000, 14:18:53.218
176, -1714.65, -1907.28, -2361.52, -2000.03, 0.000, 0.000, 0.000, 14:18:53.218
177, -2017.35, -2265.05, -2689.92, -2299.25, 0.000, 0.000, 0.000, 14:18:53.233
178, -2375.88, -2647.85, -2985.94, -2571.52, 0.000, 0.000, 0.000, 14:18:53.233
179, -2130.00, -2355.19, -2724.96, -2329.45, 0.000, 0.000, 0.000, 14:18:53.234
180, -1726.70, -1911.42, -2361.40, -2000.99, 0.000, 0.000, 0.000, 14:18:53.234
181, -2018.16, -2268.25, -2683.34, -2306.05, 0.000, 0.000, 0.000, 14:18:53.248
182, -2377.56, -2647.65, -2985.86, -2566.65, 0.000, 0.000, 0.000, 14:18:53.248
183, -2133.45, -2346.87, -2725.04, -2330.40, 0.000, 0.000, 0.000, 14:18:53.263
184, -1716.39, -1906.31, -2358.58, -2003.82, 0.000, 0.000, 0.000, 14:18:53.263
185, -2035.22, -2273.80, -2689.87, -2315.06, 0.000, 0.000, 0.000, 14:18:53.263
186, -2378.25, -2630.75, -2976.25, -2563.67, 0.000, 0.000, 0.000, 14:18:53.264
187, -2130.43, -2349.99, -2724.67, -2335.38, 0.000, 0.000, 0.000, 14:18:53.278
188, -1715.81, -1906.92, -2361.75, -2008.24, 0.000, 0.000, 0.000, 14:18:53.278
189, -2031.84, -2282.49, -2695.69, -2311.75, 0.000, 0.000, 0.000, 14:18:53.292
190, -2362.59, -2606.11, -2965.27, -2560.46, 0.000, 0.000, 0.000, 14:18:53.293
191, -2124.59, -2330.16, -2722.66, -2331.69, 0.000, 0.000, 0.000, 14:18:53.293
192, -1715.63, -1905.32, -2362.32, -2006.39, 0.000, 0.000, 0.000, 14:18:53.293
193, -2020.36, -2269.82, -2693.46, -2297.74, 0.000, 0.000, 0.000, 14:18:53.308
194, -2373.38, -2623.47, -2970.92, -2554.06, 0.000, 0.000, 0.000, 14:18:53.308
195, -2130.69, -2344.44, -2729.03, -2332.78, 0.000, 0.000, 0.000, 14:18:53.324
196, -1727.02, -1911.41, -2370.26, -2013.10, 0.000, 0.000, 0.000, 14:18:53.324
197, -2036.41, -2271.54, -2694.46, -2310.18, 0.000, 0.000, 0.000, 14:18:53.324
198, -2370.40, -2621.17, -2969.79, -2544.25, 0.000, 0.000, 0.000, 14:18:53.324
199, -2129.09, -2346.14, -2720.23, -2337.37, 0.000, 0.000, 0.000, 14:18:53.338
200, -1718.16, -1898.72, -2362.63, -2010.29, 0.000, 0.000, 0.000, 14:18:53.338
0, -2029.36, -2267.84, -2697.97, -2301.39, 0.000, 0.000, 0.000, 14:18:53.339
1, -2371.21, -2626.12, -2983.17, -2560.61, 0.000, 0.000, 0.000, 14:18:53.353
2, -2127.68, -2349.96, -2742.24, -2325.59, 0.000, 0.000, 0.000, 14:18:53.353
3, -1713.35, -1906.11, -2372.40, -2007.62, 0.000, 0.000, 0.000, 14:18:53.368
4, -2035.41, -2278.83, -2704.55, -2311.34, 0.000, 0.000, 0.000, 14:18:53.368
5, -2370.06, -2623.32, -2980.20, -2559.02, 0.000, 0.000, 0.000, 14:18:53.368
6, -2117.47, -2336.43, -2721.99, -2320.91, 0.000, 0.000, 0.000, 14:18:53.369
7, -1711.76, -1896.88, -2362.29, -2001.41, 0.000, 0.000, 0.000, 14:18:53.384
8, -2017.06, -2249.40, -2688.70, -2297.21, 0.000, 0.000, 0.000, 14:18:53.384
9, -2351.56, -2591.26, -2959.34, -2545.25, 0.000, 0.000, 0.000, 14:18:53.397
10, -2103.98, -2305.28, -2714.59, -2317.11, 0.000, 0.000, 0.000, 14:18:53.398
11, -1694.74, -1866.96, -2345.38, -1990.89, 0.000, 0.000, 0.000, 14:18:53.399
12, -2019.36, -2253.32, -2690.07, -2302.74, 0.000, 0.000, 0.000, 14:18:53.399
13, -2358.38, -2602.11, -2973.50, -2547.12, 0.000, 0.000, 0.000, 14:18:53.413
14, -2117.35, -2302.07, -2713.92, -2324.58, 0.000, 0.000, 0.000, 14:18:53.413
15, -1704.06, -1885.03, -2360.30, -1998.65, 0.000, 0.000, 0.000, 14:18:53.428
16, -2027.98, -2265.23, -2699.07, -2311.08, 0.000, 0.000, 0.000, 14:18:53.429
17, -2383.54, -2621.05, -2983.63, -2555.87, 0.000, 0.000, 0.000, 14:18:53.443
18, -2117.90, -2331.67, -2727.51, -2328.27, 0.000, 0.000, 0.000, 14:18:53.443
19, -1715.91, -1898.24, -2370.82, -2005.12, 0.000, 0.000, 0.000, 14:18:53.443
20, -2033.29, -2273.38, -2706.92, -2310.46, 0.000, 0.000, 0.000, 14:18:53.443
21, -2371.26, -2612.52, -2979.94, -2552.66, 0.000, 0.000, 0.000, 14:18:53.458
22, -2119.38, -2315.62, -2725.55, -2328.86, 0.000, 0.000, 0.000, 14:18:53.458
23, -1718.33, -1905.02, -2371.34, -2005.37, 0.000, 0.000, 0.000, 14:18:53.465
24, -2044.78, -2291.22, -2710.26, -2313.31, 0.000, 0.000, 0.000, 14:18:53.465
25, -2380.56, -2628.72, -2986.41, -2554.65, 0.000, 0.000, 0.000, 14:18:53.487
26, -2131.04, -2344.12, -2729.32, -2329.49, 0.000, 0.000, 0.000, 14:18:53.488
27, -1714.36, -1903.45, -2365.46, -2011.37, 0.000, 0.000, 0.000, 14:18:53.488
28, -2037.11, -2269.44, -2703.39, -2306.89, 0.000, 0.000, 0.000, 14:18:53.488
29, -2372.69, -2622.15, -2979.23, -2550.68, 0.000, 0.000, 0.000, 14:18:53.489
30, -2117.42, -2313.67, -2715.54, -2321.54, 0.000, 0.000, 0.000, 14:18:53.490
31, -1709.96, -1898.44, -2357.24, -2001.90, 0.000, 0.000, 0.000, 14:18:53.502
32, -2041.29, -2280.52, -2702.21, -2308.83, 0.000, 0.000, 0.000, 14:18:53.502
33, -2380.46, -2625.19, -2973.24, -2556.46, 0.000, 0.000, 0.000, 14:18:53.533
34, -2112.02, -2334.99, -2716.51, -2325.96, 0.000, 0.000, 0.000, 14:18:53.534
35, -1708.35, -1896.16, -2363.29, -2010.20, 0.000, 0.000, 0.000, 14:18:53.534
36, -2048.44, -2275.30, -2708.13, -2315.36, 0.000, 0.000, 0.000, 14:18:53.534
37, -2377.85, -2628.84, -2974.07, -2563.70, 0.000, 0.000, 0.000, 14:18:53.534
38, -2114.45, -2330.96, -2709.86, -2333.71, 0.000, 0.000, 0.000, 14:18:53.534
39, -1723.19, -1906.68, -2368.86, -2010.97, 0.000, 0.000, 0.000, 14:18:53.535
40, -2046.12, -2279.15, -2710.07, -2312.89, 0.000, 0.000, 0.000, 14:18:53.535
41, -2375.17, -2631.85, -2975.83, -2558.30, 0.000, 0.000, 0.000, 14:18:53.548
42, -2107.11, -2326.69, -2711.79, -2323.12, 0.000, 0.000, 0.000, 14:18:53.548
43, -1725.33, -1912.18, -2364.54, -2011.84, 0.000, 0.000, 0.000, 14:18:53.563
44, -2037.96, -2274.25, -2703.90, -2312.89, 0.000, 0.000, 0.000, 14:18:53.563
45, -2378.92, -2628.07, -2980.11, -2558.11, 0.000, 0.000, 0.000, 14:18:53.593
46, -2121.29, -2334.83, -2718.40, -2323.36, 0.000, 0.000, 0.000, 14:18:53.593
47, -1717.94, -1890.84, -2367.87, -2004.23, 0.000, 0.000, 0.000, 14:18:53.593
48, -2040.99, -2268.33, -2708.13, -2312.85, 0.000, 0.000, 0.000, 14:18:53.593
49, -2381.04, -2639.18, -2978.44, -2554.69, 0.000, 0.000, 0.000, 14:18:53.595
50, -2111.32, -2343.46, -2713.18, -2318.14, 0.000, 0.000, 0.000, 14:18:53.595
51, -1725.40, -1909.68, -2368.63, -2022.09, 0.000, 0.000, 0.000, 14:18:53.595
52, -2043.47, -2284.01, -2711.37, -2315.15, 0.000, 0.000, 0.000, 14:18:53.595
53, -2371.64, -2620.91, -2974.97, -2554.93, 0.000, 0.000, 0.000, 14:18:53.623
54, -2117.08, -2340.96, -2716.91, -2322.31, 0.000, 0.000, 0.000, 14:18:53.623
55, -1718.21, -1898.08, -2363.05, -2013.00, 0.000, 0.000, 0.000, 14:18:53.624
56, -2051.54, -2283.55, -2707.52, -2317.67, 0.000, 0.000, 0.000, 14:18:53.624
57, -2371.90, -2617.02, -2968.42, -2553.97, 0.000, 0.000, 0.000, 14:18:53.638
58, -2113.53, -2329.72, -2714.55, -2318.14, 0.000, 0.000, 0.000, 14:18:53.638
59, -1710.87, -1890.15, -2358.91, -2017.52, 0.000, 0.000, 0.000, 14:18:53.638
60, -2049.84, -2296.12, -2721.38, -2319.57, 0.000, 0.000, 0.000, 14:18:53.638
61, -2371.11, -2624.23, -2972.25, -2549.42, 0.000, 0.000, 0.000, 14:18:53.652
62, -2112.50, -2335.19, -2722.45, -2322.70, 0.000, 0.000, 0.000, 14:18:53.653
63, -1717.84, -1903.87, -2368.47, -2009.58, 0.000, 0.000, 0.000, 14:18:53.667
64, -2045.92, -2282.01, -2721.35, -2324.81, 0.000, 0.000, 0.000, 14:18:53.667
65, -2371.38, -2624.50, -2976.90, -2552.16, 0.000, 0.000, 0.000, 14:18:53.668
66, -2116.52, -2325.92, -2721.92, -2322.76, 0.000, 0.000, 0.000, 14:18:53.668
67, -1726.80, -1905.48, -2370.32, -2006.18, 0.000, 0.000, 0.000, 14:18:53.683
68, -2049.61, -2296.83, -2719.98, -2318.35, 0.000, 0.000, 0.000, 14:18:53.683
69, -2363.07, -2621.33, -2970.20, -2552.60, 0.000, 0.000, 0.000, 14:18:53.699
70, -2104.01, -2327.27, -2714.09, -2318.38, 0.000, 0.000, 0.000, 14:18:53.699
71, -1720.90, -1903.65, -2368.58, -2014.27, 0.000, 0.000, 0.000, 14:18:53.699
72, -2037.95, -2288.99, -2714.88, -2314.29, 0.000, 0.000, 0.000, 14:18:53.699
73, -2369.13, -2623.68, -2971.50, -2550.64, 0.000, 0.000, 0.000, 14:18:53.714
74, -2108.80, -2329.39, -2712.43, -2318.60, 0.000, 0.000, 0.000, 14:18:53.714
75, -1708.80, -1900.78, -2363.82, -2007.54, 0.000, 0.000, 0.000, 14:18:53.728
76, -2045.28, -2287.90, -2709.04, -2317.66, 0.000, 0.000, 0.000, 14:18:53.729
77, -2366.21, -2619.58, -2975.78, -2552.86, 0.000, 0.000, 0.000, 14:18:53.729
78, -2104.38, -2330.77, -2709.73, -2314.82, 0.000, 0.000, 0.000, 14:18:53.729
79, -1700.65, -1891.30, -2357.50, -2004.00, 0.000, 0.000, 0.000, 14:18:53.743
80, -2046.70, -2295.42, -2722.97, -2318.39, 0.000, 0.000, 0.000, 14:18:53.743
81, -2361.21, -2624.37, -2972.38, -2547.36, 0.000, 0.000, 0.000, 14:18:53.759
82, -2114.49, -2328.89, -2707.33, -2320.20, 0.000, 0.000, 0.000, 14:18:53.759
83, -1715.56, -1903.65, -2364.00, -2014.15, 0.000, 0.000, 0.000, 14:18:53.759
84, -2043.21, -2285.58, -2716.05, -2322.72, 0.000, 0.000, 0.000, 14:18:53.759
85, -2362.23, -2617.01, -2968.14, -2547.70, 0.000, 0.000, 0.000, 14:18:53.773
86, -2115.29, -2331.29, -2716.52, -2324.41, 0.000, 0.000, 0.000, 14:18:53.773
87, -1706.25, -1903.21, -2364.66, -2007.91, 0.000, 0.000, 0.000, 14:18:53.788
88, -2047.33, -2288.43, -2715.61, -2320.99, 0.000, 0.000, 0.000, 14:18:53.788
89, -2372.18, -2623.59, -2974.25, -2552.86, 0.000, 0.000, 0.000, 14:18:53.790
90, -2104.71, -2328.40, -2711.70, -2311.35, 0.000, 0.000, 0.000, 14:18:53.790
91, -1715.23, -1897.51, -2362.01, -2005.99, 0.000, 0.000, 0.000, 14:18:53.817
92, -2056.47, -2294.24, -2715.11, -2324.02, 0.000, 0.000, 0.000, 14:18:53.817
93, -2376.47, -2625.56, -2982.70, -2550.00, 0.000, 0.000, 0.000, 14:18:53.818
94, -2110.02, -2320.03, -2713.74, -2324.49, 0.000, 0.000, 0.000, 14:18:53.818
95, -1716.97, -1910.08, -2366.89, -2011.14, 0.000, 0.000, 0.000, 14:18:53.819
96, -2061.22, -2310.82, -2734.32, -2328.48, 0.000, 0.000, 0.000, 14:18:53.819
97, -2375.12, -2621.40, -2977.90, -2549.63, 0.000, 0.000, 0.000, 14:18:53.834
98, -2112.19, -2312.30, -2706.62, -2313.98, 0.000, 0.000, 0.000, 14:18:53.834
99, -1711.35, -1896.97, -2369.95, -2006.97, 0.000, 0.000, 0.000, 14:18:53.848
100, -2057.06, -2292.27, -2721.64, -2329.14, 0.000, 0.000, 0.000, 14:18:53.848
101, -2375.24, -2620.31, -2975.11, -2555.76, 0.000, 0.000, 0.000, 14:18:53.848
102, -2121.70, -2329.91, -2712.88, -2313.71, 0.000, 0.000, 0.000, 14:18:53.848
103, -1712.26, -1903.17, -2369.99, -2007.52, 0.000, 0.000, 0.000, 14:18:53.863
104, -2051.96, -2289.09, -2719.73, -2327.72, 0.000, 0.000, 0.000, 14:18:53.863
105, -2379.03, -2622.93, -2980.65, -2549.08, 0.000, 0.000, 0.000, 14:18:53.878
106, -2102.64, -2318.23, -2702.16, -2309.92, 0.000, 0.000, 0.000, 14:18:53.878
107, -1716.86, -1901.26, -2368.33, -2013.55, 0.000, 0.000, 0.000, 14:18:53.879
108, -2064.34, -2309.41, -2731.34, -2327.42, 0.000, 0.000, 0.000, 14:18:53.879
109, -2367.44, -2615.15, -2965.89, -2549.21, 0.000, 0.000, 0.000, 14:18:53.893
110, -2109.96, -2326.07, -2708.07, -2306.37, 0.000, 0.000, 0.000, 14:18:53.893
111, -1714.71, -1891.49, -2369.29, -2010.33, 0.000, 0.000, 0.000, 14:18:53.908
112, -2062.90, -2305.85, -2732.05, -2330.38, 0.000, 0.000, 0.000, 14:18:53.908
113, -2362.47, -2614.09, -2968.21, -2541.14, 0.000, 0.000, 0.000, 14:18:53.909
114, -2113.57, -2319.67, -2705.48, -2305.44, 0.000, 0.000, 0.000, 14:18:53.909
115, -1722.79, -1905.55, -2369.94, -2012.32, 0.000, 0.000, 0.000, 14:18:53.923
116, -2071.87, -2303.41, -2725.55, -2328.58, 0.000, 0.000, 0.000, 14:18:53.923
117, -2361.76, -2611.76, -2963.08, -2548.78, 0.000, 0.000, 0.000, 14:18:53.938
118, -2103.04, -2311.88, -2703.20, -2310.38, 0.000, 0.000, 0.000, 14:18:53.938
119, -1719.52, -1902.86, -2360.71, -2005.36, 0.000, 0.000, 0.000, 14:18:53.939
120, -2055.97, -2309.95, -2726.98, -2324.75, 0.000, 0.000, 0.000, 14:18:53.939
121, -2368.62, -2619.37, -2971.21, -2542.99, 0.000, 0.000, 0.000, 14:18:53.967
122, -2105.88, -2309.56, -2694.98, -2310.34, 0.000, 0.000, 0.000, 14:18:53.967
123, -1716.61, -1899.56, -2369.17, -2018.71, 0.000, 0.000, 0.000, 14:18:53.968
124, -2059.16, -2296.36, -2713.33, -2339.98, 0.000, 0.000, 0.000, 14:18:53.968
125, -2366.84, -2617.99, -2964.06, -2546.85, 0.000, 0.000, 0.000, 14:18:53.975
126, -2114.64, -2319.65, -2701.59, -2303.14, 0.000, 0.000, 0.000, 14:18:53.975
127, -1714.75, -1902.86, -2358.54, -2002.71, 0.000, 0.000, 0.000, 14:18:53.984
128, -2064.22, -2305.29, -2718.12, -2336.02, 0.000, 0.000, 0.000, 14:18:53.984
129, -2363.15, -2600.55, -2965.33, -2553.32, 0.000, 0.000, 0.000, 14:18:53.998
130, -2107.94, -2326.40, -2709.56, -2308.54, 0.000, 0.000, 0.000, 14:18:53.998
131, -1724.65, -1906.50, -2377.37, -2010.50, 0.000, 0.000, 0.000, 14:18:53.999
132, -2064.53, -2315.15, -2729.35, -2332.68, 0.000, 0.000, 0.000, 14:18:53.999
133, -2361.27, -2612.52, -2961.33, -2546.03, 0.000, 0.000, 0.000, 14:18:54.014
134, -2102.81, -2315.04, -2694.14, -2311.62, 0.000, 0.000, 0.000, 14:18:54.014
135, -1711.05, -1896.32, -2356.29, -2005.28, 0.000, 0.000, 0.000, 14:18:54.043
136, -2062.46, -2303.73, -2728.36, -2334.23, 0.000, 0.000, 0.000, 14:18:54.043
137, -2370.23, -2627.27, -2972.01, -2551.49, 0.000, 0.000, 0.000, 14:18:54.044
138, -2097.16, -2320.24, -2701.37, -2308.26, 0.000, 0.000, 0.000, 14:18:54.044
139, -1728.78, -1907.06, -2369.97, -2009.61, 0.000, 0.000, 0.000, 14:18:54.044
140, -2079.56, -2318.54, -2739.17, -2330.60, 0.000, 0.000, 0.000, 14:18:54.045
141, -2374.21, -2623.70, -2977.05, -2547.79, 0.000, 0.000, 0.000, 14:18:54.045
142, -2106.89, -2318.06, -2708.62, -2311.05, 0.000, 0.000, 0.000, 14:18:54.045
143, -1722.21, -1907.55, -2372.75, -2014.12, 0.000, 0.000, 0.000, 14:18:54.058
144, -2074.53, -2322.72, -2734.48, -2332.51, 0.000, 0.000, 0.000, 14:18:54.058
145, -2375.95, -2630.08, -2977.93, -2548.12, 0.000, 0.000, 0.000, 14:18:54.073
146, -2095.53, -2318.38, -2704.49, -2307.18, 0.000, 0.000, 0.000, 14:18:54.073
147, -1707.25, -1898.31, -2356.04, -2010.65, 0.000, 0.000, 0.000, 14:18:54.102
148, -2068.77, -2313.39, -2732.08, -2341.64, 0.000, 0.000, 0.000, 14:18:54.102
149, -2368.39, -2620.32, -2968.73, -2548.09, 0.000, 0.000, 0.000, 14:18:54.104
150, -2092.75, -2322.69, -2694.27, -2304.81, 0.000, 0.000, 0.000, 14:18:54.104
151, -1706.75, -1929.05, -2359.33, -2005.61, 0.000, 0.000, 0.000, 14:18:54.104
152, -2057.17, -2360.00, -2719.77, -2330.08, 0.000, 0.000, 0.000, 14:18:54.104
153, -2359.26, -2627.38, -2962.16, -2544.76, 0.000, 0.000, 0.000, 14:18:54.105
154, -2052.52, -2316.87, -2688.99, -2299.86, 0.000, 0.000, 0.000, 14:18:54.105
155, -1669.42, -1931.68, -2361.86, -2007.21, 0.000, 0.000, 0.000, 14:18:54.118
156, -2001.18, -2340.75, -2722.41, -2324.32, 0.000, 0.000, 0.000, 14:18:54.118
157, -2263.03, -2652.54, -2952.99, -2534.91, 0.000, 0.000, 0.000, 14:18:54.134
158, -1974.67, -2353.11, -2684.98, -2302.10, 0.000, 0.000, 0.000, 14:18:54.134
159, -1566.88, -1964.99, -2360.48, -1997.86, 0.000, 0.000, 0.000, 14:18:54.148
160, -1882.65, -2407.48, -2733.65, -2320.58, 0.000, 0.000, 0.000, 14:18:54.148
161, -2142.45, -2704.03, -2943.38, -2523.34, 0.000, 0.000, 0.000, 14:18:54.148
162, -1861.64, -2405.79, -2671.33, -2296.75, 0.000, 0.000, 0.000, 14:18:54.148
163, -1506.34, -2004.01, -2349.46, -1995.83, 0.000, 0.000, 0.000, 14:18:54.178
164, -1887.17, -2407.85, -2723.15, -2323.18, 0.000, 0.000, 0.000, 14:18:54.178
165, -2227.98, -2691.11, -2956.03, -2536.17, 0.000, 0.000, 0.000, 14:18:54.178
166, -2004.56, -2371.04, -2694.52, -2302.88, 0.000, 0.000, 0.000, 14:18:54.178
167, -1652.05, -1950.96, -2372.86, -2013.20, 0.000, 0.000, 0.000, 14:18:54.179
168, -2050.59, -2346.98, -2742.22, -2342.13, 0.000, 0.000, 0.000, 14:18:54.179
169, -2375.53, -2634.59, -2975.73, -2554.47, 0.000, 0.000, 0.000, 14:18:54.193
170, -2122.39, -2329.66, -2717.67, -2322.23, 0.000, 0.000, 0.000, 14:18:54.193
171, -1754.04, -1911.68, -2384.18, -2024.30, 0.000, 0.000, 0.000, 14:18:54.208
172, -2126.15, -2314.90, -2745.19, -2352.88, 0.000, 0.000, 0.000, 14:18:54.208
173, -2420.40, -2597.83, -2969.06, -2550.29, 0.000, 0.000, 0.000, 14:18:54.209
174, -2149.80, -2276.58, -2691.74, -2307.81, 0.000, 0.000, 0.000, 14:18:54.209
175, -1785.83, -1870.19, -2374.23, -2018.10, 0.000, 0.000, 0.000, 14:18:54.223
176, -2143.48, -2280.25, -2736.97, -2344.46, 0.000, 0.000, 0.000, 14:18:54.223
177, -2432.51, -2568.80, -2960.35, -2552.85, 0.000, 0.000, 0.000, 14:18:54.239
178, -2169.19, -2271.93, -2697.52, -2315.27, 0.000, 0.000, 0.000, 14:18:54.239
179, -1781.99, -1859.85, -2371.29, -2011.77, 0.000, 0.000, 0.000, 14:18:54.253
180, -2139.47, -2275.84, -2740.54, -2340.68, 0.000, 0.000, 0.000, 14:18:54.253
181, -2434.35, -2579.94, -2964.63, -2546.52, 0.000, 0.000, 0.000, 14:18:54.254
182, -2158.20, -2262.79, -2694.36, -2308.58, 0.000, 0.000, 0.000, 14:18:54.254
183, -1777.75, -1866.18, -2371.11, -2016.03, 0.000, 0.000, 0.000, 14:18:54.283
184, -2140.19, -2283.32, -2747.80, -2351.39, 0.000, 0.000, 0.000, 14:18:54.283
185, -2433.55, -2586.50, -2975.03, -2556.38, 0.000, 0.000, 0.000, 14:18:54.284
186, -2158.37, -2283.53, -2707.71, -2319.24, 0.000, 0.000, 0.000, 14:18:54.284
187, -1775.30, -1870.26, -2372.64, -2013.46, 0.000, 0.000, 0.000, 14:18:54.284
188, -2134.51, -2296.12, -2746.62, -2354.13, 0.000, 0.000, 0.000, 14:18:54.284
189, -2423.50, -2598.15, -2970.68, -2556.51, 0.000, 0.000, 0.000, 14:18:54.284
190, -2144.84, -2279.26, -2699.80, -2315.50, 0.000, 0.000, 0.000, 14:18:54.284
191, -1755.13, -1873.12, -2369.16, -2013.44, 0.000, 0.000, 0.000, 14:18:54.298
192, -2122.81, -2303.26, -2751.24, -2346.74, 0.000, 0.000, 0.000, 14:18:54.298
193, -2403.78, -2593.61, -2973.87, -2544.39, 0.000, 0.000, 0.000, 14:18:54.314
194, -2131.50, -2294.47, -2708.16, -2304.56, 0.000, 0.000, 0.000, 14:18:54.314
195, -1744.51, -1880.32, -2371.73, -2008.89, 0.000, 0.000, 0.000, 14:18:54.343
196, -2110.98, -2314.37, -2748.76, -2347.26, 0.000, 0.000, 0.000, 14:18:54.343
197, -2390.65, -2599.52, -2970.56, -2541.19, 0.000, 0.000, 0.000, 14:18:54.344
198, -2125.98, -2284.00, -2699.15, -2307.24, 0.000, 0.000, 0.000, 14:18:54.344
199, -1729.27, -1887.49, -2370.16, -2007.47, 0.000, 0.000, 0.000, 14:18:54.344
200, -2095.89, -2322.38, -2750.13, -2351.08, 0.000, 0.000, 0.000, 14:18:54.344
0, -2378.22, -2606.38, -2971.19, -2543.72, 0.000, 0.000, 0.000, 14:18:54.345
1, -2110.75, -2288.39, -2694.45, -2299.11, 0.000, 0.000, 0.000, 14:18:54.358
2, -1733.19, -1889.32, -2365.78, -2013.24, 0.000, 0.000, 0.000, 14:18:54.358
3, -2097.45, -2325.84, -2744.54, -2350.17, 0.000, 0.000, 0.000, 14:18:54.372
4, -2378.12, -2610.19, -2967.41, -2552.14, 0.000, 0.000, 0.000, 14:18:54.372
5, -2101.81, -2299.27, -2689.59, -2300.79, 0.000, 0.000, 0.000, 14:18:54.373
6, -1725.55, -1883.02, -2362.16, -2009.81, 0.000, 0.000, 0.000, 14:18:54.373
7, -2090.16, -2319.51, -2744.21, -2356.98, 0.000, 0.000, 0.000, 14:18:54.388
8, -2376.41, -2606.13, -2963.52, -2554.59, 0.000, 0.000, 0.000, 14:18:54.388
9, -2095.74, -2291.74, -2697.87, -2306.68, 0.000, 0.000, 0.000, 14:18:54.418
10, -1729.29, -1895.67, -2370.27, -2018.79, 0.000, 0.000, 0.000, 14:18:54.418
11, -2099.63, -2331.27, -2746.46, -2352.31, 0.000, 0.000, 0.000, 14:18:54.418
12, -2365.28, -2618.30, -2961.25, -2551.91, 0.000, 0.000, 0.000, 14:18:54.418
13, -2104.45, -2302.29, -2691.27, -2304.01, 0.000, 0.000, 0.000, 14:18:54.419
14, -1718.25, -1892.66, -2363.08, -2014.02, 0.000, 0.000, 0.000, 14:18:54.419
15, -2089.57, -2329.78, -2747.73, -2353.72, 0.000, 0.000, 0.000, 14:18:54.420
16, -2367.50, -2608.41, -2970.82, -2539.00, 0.000, 0.000, 0.000, 14:18:54.420
17, -2086.86, -2298.48, -2692.51, -2298.42, 0.000, 0.000, 0.000, 14:18:54.448
18, -1717.40, -1895.18, -2367.81, -2006.63, 0.000, 0.000, 0.000, 14:18:54.448
19, -2082.66, -2323.71, -2751.90, -2345.19, 0.000, 0.000, 0.000, 14:18:54.449
20, -2363.41, -2617.68, -2971.36, -2545.85, 0.000, 0.000, 0.000, 14:18:54.449
21, -2098.71, -2298.88, -2696.73, -2301.21, 0.000, 0.000, 0.000, 14:18:54.464
22, -1706.97, -1893.46, -2354.19, -2011.33, 0.000, 0.000, 0.000, 14:18:54.464
23, -2088.58, -2330.64, -2752.65, -2355.63, 0.000, 0.000, 0.000, 14:18:54.464
24, -2356.11, -2613.57, -2967.86, -2542.92, 0.000, 0.000, 0.000, 14:18:54.464
25, -2103.04, -2300.95, -2693.23, -2297.14, 0.000, 0.000, 0.000, 14:18:54.478
26, -1718.62, -1895.64, -2367.22, -1999.83, 0.000, 0.000, 0.000, 14:18:54.478
27, -2089.31, -2326.69, -2745.44, -2355.58, 0.000, 0.000, 0.000, 14:18:54.493
28, -2374.71, -2605.46, -2960.57, -2547.67, 0.000, 0.000, 0.000, 14:18:54.493
29, -2098.63, -2300.92, -2693.70, -2300.69, 0.000, 0.000, 0.000, 14:18:54.494
30, -1715.77, -1896.85, -2366.04, -2011.10, 0.000, 0.000, 0.000, 14:18:54.494
31, -2082.02, -2330.82, -2743.85, -2349.66, 0.000, 0.000, 0.000, 14:18:54.523
32, -2359.02, -2617.67, -2970.96, -2542.40, 0.000, 0.000, 0.000, 14:18:54.523
33, -2087.61, -2308.75, -2688.24, -2296.66, 0.000, 0.000, 0.000, 14:18:54.523
34, -1709.49, -1901.56, -2357.69, -2013.51, 0.000, 0.000, 0.000, 14:18:54.524
35, -2087.12, -2331.12, -2748.68, -2347.56, 0.000, 0.000, 0.000, 14:18:54.524
36, -2371.75, -2613.25, -2961.66, -2546.18, 0.000, 0.000, 0.000, 14:18:54.524
37, -2084.65, -2298.37, -2690.47, -2293.26, 0.000, 0.000, 0.000, 14:18:54.538
38, -1708.58, -1899.71, -2357.71, -2004.18, 0.000, 0.000, 0.000, 14:18:54.538
39, -2087.32, -2332.63, -2752.64, -2353.16, 0.000, 0.000, 0.000, 14:18:54.553
40, -2351.00, -2608.75, -2957.39, -2535.81, 0.000, 0.000, 0.000, 14:18:54.553
41, -2081.22, -2290.58, -2685.84, -2291.88, 0.000, 0.000, 0.000, 14:18:54.554
42, -1698.41, -1890.82, -2359.86, -2002.67, 0.000, 0.000, 0.000, 14:18:54.555
43, -2092.08, -2338.59, -2752.14, -2354.45, 0.000, 0.000, 0.000, 14:18:54.568
44, -2367.99, -2615.18, -2964.89, -2550.52, 0.000, 0.000, 0.000, 14:18:54.568
45, -2071.70, -2290.67, -2689.05, -2298.48, 0.000, 0.000, 0.000, 14:18:54.584
46, -1704.88, -1891.34, -2357.48, -2012.02, 0.000, 0.000, 0.000, 14:18:54.584
47, -2089.18, -2339.08, -2748.99, -2360.81, 0.000, 0.000, 0.000, 14:18:54.599
48, -2364.47, -2614.34, -2961.06, -2544.30, 0.000, 0.000, 0.000, 14:18:54.599
49, -2083.79, -2291.99, -2687.84, -2293.65, 0.000, 0.000, 0.000, 14:18:54.599
50, -1704.64, -1892.63, -2358.10, -2011.35, 0.000, 0.000, 0.000, 14:18:54.599
51, -2079.12, -2339.13, -2749.33, -2357.02, 0.000, 0.000, 0.000, 14:18:54.615
52, -2365.73, -2617.75, -2963.03, -2546.43, 0.000, 0.000, 0.000, 14:18:54.615
53, -2076.03, -2300.27, -2686.40, -2297.33, 0.000, 0.000, 0.000, 14:18:54.615
54, -1707.83, -1895.22, -2358.21, -2010.50, 0.000, 0.000, 0.000, 14:18:54.615
55, -2093.33, -2347.60, -2756.72, -2360.17, 0.000, 0.000, 0.000, 14:18:54.628
56, -2363.06, -2620.73, -2965.77, -2547.73, 0.000, 0.000, 0.000, 14:18:54.628
57, -2076.98, -2294.57, -2678.31, -2295.09, 0.000, 0.000, 0.000, 14:18:54.643
58, -1708.26, -1894.08, -2366.43, -2005.23, 0.000, 0.000, 0.000, 14:18:54.643
59, -2098.07, -2338.18, -2753.47, -2354.93, 0.000, 0.000, 0.000, 14:18:54.658
60, -2358.88, -2609.88, -2964.44, -2546.41, 0.000, 0.000, 0.000, 14:18:54.658
61, -2087.47, -2294.65, -2684.18, -2292.22, 0.000, 0.000, 0.000, 14:18:54.658
62, -1706.54, -1894.15, -2353.23, -2012.57, 0.000, 0.000, 0.000, 14:18:54.659
63, -2090.10, -2346.29, -2756.87, -2371.68, 0.000, 0.000, 0.000, 14:18:54.673
64, -2364.22, -2613.50, -2964.43, -2539.14, 0.000, 0.000, 0.000, 14:18:54.673
65, -2082.71, -2288.93, -2684.22, -2290.92, 0.000, 0.000, 0.000, 14:18:54.674
66, -1717.30, -1897.28, -2365.45, -2007.49, 0.000, 0.000, 0.000, 14:18:54.674
67, -2096.50, -2347.21, -2759.15, -2358.72, 0.000, 0.000, 0.000, 14:18:54.688
68, -2369.78, -2611.41, -2954.09, -2543.72, 0.000, 0.000, 0.000, 14:18:54.688
69, -2061.70, -2285.93, -2683.78, -2290.30, 0.000, 0.000, 0.000, 14:18:54.703
70, -1721.89, -1898.89, -2365.80, -2010.24, 0.000, 0.000, 0.000, 14:18:54.703
71, -2095.86, -2342.62, -2757.19, -2358.28, 0.000, 0.000, 0.000, 14:18:54.704
72, -2366.63, -2608.32, -2966.61, -2540.59, 0.000, 0.000, 0.000, 14:18:54.704
73, -2074.53, -2295.97, -2687.18, -2289.85, 0.000, 0.000, 0.000, 14:18:54.734
74, -1704.78, -1901.93, -2366.09, -2012.18, 0.000, 0.000, 0.000, 14:18:54.734
75, -2098.92, -2351.93, -2762.95, -2366.40, 0.000, 0.000, 0.000, 14:18:54.735
76, -2370.25, -2608.75, -2968.31, -2540.53, 0.000, 0.000, 0.000, 14:18:54.735
77, -2089.93, -2294.23, -2686.40, -2291.65, 0.000, 0.000, 0.000, 14:18:54.735
78, -1705.17, -1893.24, -2358.38, -2004.27, 0.000, 0.000, 0.000, 14:18:54.735
79, -2092.97, -2340.19, -2756.43, -2360.88, 0.000, 0.000, 0.000, 14:18:54.763
80, -2357.25, -2606.53, -2966.07, -2542.25, 0.000, 0.000, 0.000, 14:18:54.763
81, -2074.43, -2289.17, -2677.75, -2289.69, 0.000, 0.000, 0.000, 14:18:54.764
82, -1700.88, -1895.91, -2365.67, -2006.63, 0.000, 0.000, 0.000, 14:18:54.764
83, -2086.19, -2346.54, -2760.41, -2361.74, 0.000, 0.000, 0.000, 14:18:54.764
84, -2351.14, -2614.70, -2960.11, -2536.25, 0.000, 0.000, 0.000, 14:18:54.765
85, -2059.22, -2292.41, -2677.10, -2286.89, 0.000, 0.000, 0.000, 14:18:54.778
86, -1705.17, -1900.98, -2365.81, -2008.83, 0.000, 0.000, 0.000, 14:18:54.778
87, -2107.54, -2357.68, -2765.73, -2367.17, 0.000, 0.000, 0.000, 14:18:54.793
88, -2362.09, -2614.99, -2964.58, -2540.70, 0.000, 0.000, 0.000, 14:18:54.793
89, -2081.31, -2290.77, -2683.00, -2294.40, 0.000, 0.000, 0.000, 14:18:54.801
90, -1701.20, -1907.16, -2364.98, -2014.14, 0.000, 0.000, 0.000, 14:18:54.801
91, -2100.03, -2349.41, -2763.63, -2366.20, 0.000, 0.000, 0.000, 14:18:54.808
92, -2366.10, -2612.45, -2964.91, -2545.07, 0.000, 0.000, 0.000, 14:18:54.808
93, -2077.95, -2290.80, -2680.55, -2299.88, 0.000, 0.000, 0.000, 14:18:54.838
94, -1713.95, -1905.29, -2364.77, -2008.83, 0.000, 0.000, 0.000, 14:18:54.838
95, -2098.51, -2358.97, -2769.52, -2364.95, 0.000, 0.000, 0.000, 14:18:54.838
96, -2367.28, -2622.43, -2970.65, -2540.88, 0.000, 0.000, 0.000, 14:18:54.838
97, -2070.90, -2285.32, -2678.52, -2289.75, 0.000, 0.000, 0.000, 14:18:54.839
98, -1694.78, -1897.94, -2358.20, -2007.18, 0.000, 0.000, 0.000, 14:18:54.839
99, -2097.14, -2358.57, -2770.99, -2369.89, 0.000, 0.000, 0.000, 14:18:54.841
100, -2358.63, -2608.42, -2960.48, -2536.40, 0.000, 0.000, 0.000, 14:18:54.841
101, -2066.12, -2274.11, -2679.26, -2284.25, 0.000, 0.000, 0.000, 14:18:54.853
102, -1704.25, -1903.14, -2365.87, -2012.15, 0.000, 0.000, 0.000, 14:18:54.853
103, -2111.01, -2349.43, -2761.27, -2373.74, 0.000, 0.000, 0.000, 14:18:54.868
104, -2368.73, -2613.19, -2957.89, -2543.96, 0.000, 0.000, 0.000, 14:18:54.868
105, -2079.66, -2280.86, -2673.99, -2284.14, 0.000, 0.000, 0.000, 14:18:54.884
106, -1700.71, -1901.38, -2362.84, -2009.23, 0.000, 0.000, 0.000, 14:18:54.884
107, -2113.29, -2349.38, -2762.33, -2369.27, 0.000, 0.000, 0.000, 14:18:54.884
108, -2362.32, -2602.58, -2959.66, -2540.82, 0.000, 0.000, 0.000, 14:18:54.884
109, -2077.32, -2275.34, -2672.39, -2296.44, 0.000, 0.000, 0.000, 14:18:54.898
110, -1698.31, -1885.25, -2363.91, -2009.08, 0.000, 0.000, 0.000, 14:18:54.898
111, -2101.60, -2355.52, -2773.36, -2369.71, 0.000, 0.000, 0.000, 14:18:54.913
112, -2353.32, -2604.42, -2951.20, -2536.51, 0.000, 0.000, 0.000, 14:18:54.913
113, -2064.12, -2280.67, -2675.73, -2281.60, 0.000, 0.000, 0.000, 14:18:54.914
114, -1706.32, -1900.73, -2367.35, -2007.16, 0.000, 0.000, 0.000, 14:18:54.914
115, -2096.78, -2348.08, -2763.01, -2368.68, 0.000, 0.000, 0.000, 14:18:54.928
116, -2349.71, -2609.00, -2959.65, -2540.37, 0.000, 0.000, 0.000, 14:18:54.928
117, -2076.11, -2287.24, -2684.03, -2291.85, 0.000, 0.000, 0.000, 14:18:54.943
118, -1708.11, -1915.96, -2376.64, -2014.84, 0.000, 0.000, 0.000, 14:18:54.943
119, -2097.81, -2368.97, -2778.64, -2368.88, 0.000, 0.000, 0.000, 14:18:54.943
120, -2352.74, -2610.12, -2963.32, -2537.15, 0.000, 0.000, 0.000, 14:18:54.943
121, -2070.38, -2279.30, -2671.95, -2284.82, 0.000, 0.000, 0.000, 14:18:54.958
122, -1706.53, -1900.85, -2371.56, -2010.39, 0.000, 0.000, 0.000, 14:18:54.958
123, -2104.94, -2364.05, -2785.22, -2375.12, 0.000, 0.000, 0.000, 14:18:54.973
124, -2369.74, -2614.42, -2960.20, -2540.17, 0.000, 0.000, 0.000, 14:18:54.973
125, -2068.37, -2285.01, -2669.81, -2276.70, 0.000, 0.000, 0.000, 14:18:54.974
126, -1707.73, -1896.67, -2363.42, -2008.37, 0.000, 0.000, 0.000, 14:18:54.974
127, -2099.01, -2357.13, -2767.81, -2368.05, 0.000, 0.000, 0.000, 14:18:55.003
128, -2349.69, -2605.46, -2959.28, -2536.34, 0.000, 0.000, 0.000, 14:18:55.003
129, -2066.01, -2281.44, -2669.76, -2280.27, 0.000, 0.000, 0.000, 14:18:55.003
130, -1699.13, -1895.41, -2363.85, -2008.31, 0.000, 0.000, 0.000, 14:18:55.003
131, -2107.95, -2359.69, -2769.23, -2370.02, 0.000, 0.000, 0.000, 14:18:55.004
132, -2349.86, -2599.14, -2959.51, -2535.12, 0.000, 0.000, 0.000, 14:18:55.004
133, -2058.79, -2281.57, -2666.76, -2286.46, 0.000, 0.000, 0.000, 14:18:55.018
134, -1699.52, -1901.28, -2367.64, -2006.19, 0.000, 0.000, 0.000, 14:18:55.018
135, -2105.01, -2355.81, -2766.47, -2370.34, 0.000, 0.000, 0.000, 14:18:55.034
136, -2342.23, -2600.39, -2959.46, -2535.39, 0.000, 0.000, 0.000, 14:18:55.034
137, -2070.71, -2279.21, -2668.07, -2282.39, 0.000, 0.000, 0.000, 14:18:55.034
138, -1703.87, -1893.94, -2360.07, -2013.08, 0.000, 0.000, 0.000, 14:18:55.034
139, -2115.63, -2367.13, -2768.59, -2378.47, 0.000, 0.000, 0.000, 14:18:55.048
140, -2355.36, -2612.13, -2965.93, -2544.09, 0.000, 0.000, 0.000, 14:18:55.048
141, -2074.34, -2285.97, -2669.38, -2286.41, 0.000, 0.000, 0.000, 14:18:55.064
142, -1721.86, -1913.66, -2380.50, -2018.09, 0.000, 0.000, 0.000, 14:18:55.064
143, -2107.14, -2364.63, -2776.50, -2374.24, 0.000, 0.000, 0.000, 14:18:55.078
144, -2364.16, -2613.54, -2957.56, -2542.56, 0.000, 0.000, 0.000, 14:18:55.079
145, -2064.51, -2286.75, -2677.07, -2286.87, 0.000, 0.000, 0.000, 14:18:55.079
146, -1713.33, -1906.90, -2372.42, -2021.79, 0.000, 0.000, 0.000, 14:18:55.079
147, -2103.49, -2364.45, -2773.50, -2375.32, 0.000, 0.000, 0.000, 14:18:55.093
148, -2362.23, -2617.20, -2957.87, -2542.07, 0.000, 0.000, 0.000, 14:18:55.093
149, -2058.71, -2278.42, -2670.37, -2278.27, 0.000, 0.000, 0.000, 14:18:55.108
150, -1716.35, -1904.47, -2370.26, -2010.40, 0.000, 0.000, 0.000, 14:18:55.108
151, -2127.11, -2372.95, -2783.09, -2380.95, 0.000, 0.000, 0.000, 14:18:55.109
152, -2359.39, -2622.59, -2962.62, -2540.74, 0.000, 0.000, 0.000, 14:18:55.109
153, -2064.95, -2280.59, -2673.55, -2281.43, 0.000, 0.000, 0.000, 14:18:55.123
154, -1707.80, -1908.06, -2371.08, -2010.15, 0.000, 0.000, 0.000, 14:18:55.123
155, -2122.02, -2374.40, -2776.14, -2372.99, 0.000, 0.000, 0.000, 14:18:55.124
156, -2348.12, -2601.94, -2950.02, -2522.40, 0.000, 0.000, 0.000, 14:18:55.124
157, -2062.47, -2275.07, -2667.60, -2271.17, 0.000, 0.000, 0.000, 14:18:55.138
158, -1700.09, -1901.48, -2362.90, -2005.09, 0.000, 0.000, 0.000, 14:18:55.138
159, -2104.37, -2363.74, -2767.72, -2372.98, 0.000, 0.000, 0.000, 14:18:55.153
160, -2356.98, -2616.59, -2956.72, -2536.13, 0.000, 0.000, 0.000, 14:18:55.153
161, -2050.16, -2277.70, -2665.40, -2270.85, 0.000, 0.000, 0.000, 14:18:55.154
162, -1704.73, -1907.12, -2381.21, -2018.74, 0.000, 0.000, 0.000, 14:18:55.154
163, -2110.09, -2367.57, -2782.44, -2379.59, 0.000, 0.000, 0.000, 14:18:55.168
164, -2346.48, -2602.77, -2953.70, -2533.19, 0.000, 0.000, 0.000, 14:18:55.168
165, -2046.88, -2281.10, -2664.70, -2286.28, 0.000, 0.000, 0.000, 14:18:55.184
166, -1711.45, -1912.18, -2372.51, -2019.18, 0.000, 0.000, 0.000, 14:18:55.184
167, -2115.92, -2383.96, -2788.48, -2380.71, 0.000, 0.000, 0.000, 14:18:55.184
168, -2354.31, -2610.65, -2965.53, -2541.36, 0.000, 0.000, 0.000, 14:18:55.184
169, -2056.52, -2273.77, -2664.25, -2279.88, 0.000, 0.000, 0.000, 14:18:55.214
170, -1709.27, -1906.40, -2376.48, -2017.11, 0.000, 0.000, 0.000, 14:18:55.214
171, -2114.43, -2373.40, -2781.57, -2384.41, 0.000, 0.000, 0.000, 14:18:55.214
172, -2349.44, -2606.15, -2952.93, -2537.67, 0.000, 0.000, 0.000, 14:18:55.214
173, -2054.08, -2282.55, -2673.27, -2285.77, 0.000, 0.000, 0.000, 14:18:55.214
174, -1703.46, -1902.91, -2358.37, -2011.17, 0.000, 0.000, 0.000, 14:18:55.214
175, -2114.86, -2383.44, -2782.05, -2388.03, 0.000, 0.000, 0.000, 14:18:55.228
176, -2357.09, -2612.02, -2956.82, -2537.61, 0.000, 0.000, 0.000, 14:18:55.228
177, -2054.55, -2277.97, -2656.99, -2279.71, 0.000, 0.000, 0.000, 14:18:55.243
178, -1695.05, -1902.41, -2359.45, -2006.71, 0.000, 0.000, 0.000, 14:18:55.243
179, -2126.00, -2390.36, -2796.22, -2383.62, 0.000, 0.000, 0.000, 14:18:55.244
180, -2349.90, -2600.97, -2957.92, -2528.44, 0.000, 0.000, 0.000, 14:18:55.244
181, -2054.04, -2281.40, -2665.09, -2282.02, 0.000, 0.000, 0.000, 14:18:55.258
182, -1713.74, -1907.88, -2368.30, -2024.18, 0.000, 0.000, 0.000, 14:18:55.258
183, -2116.52, -2387.10, -2785.85, -2384.23, 0.000, 0.000, 0.000, 14:18:55.273
184, -2342.97, -2604.81, -2947.20, -2523.72, 0.000, 0.000, 0.000, 14:18:55.273
185, -2067.31, -2282.67, -2669.96, -2275.58, 0.000, 0.000, 0.000, 14:18:55.288
186, -1719.26, -1918.08, -2379.88, -2025.03, 0.000, 0.000, 0.000, 14:18:55.288
187, -2109.61, -2370.70, -2778.21, -2369.23, 0.000, 0.000, 0.000, 14:18:55.289
188, -2350.24, -2615.31, -2960.15, -2529.35, 0.000, 0.000, 0.000, 14:18:55.289
189, -2057.94, -2279.46, -2667.97, -2284.01, 0.000, 0.000, 0.000, 14:18:55.318
190, -1718.43, -1923.93, -2382.40, -2017.78, 0.000, 0.000, 0.000, 14:18:55.318
191, -2122.85, -2377.26, -2784.94, -2372.81, 0.000, 0.000, 0.000, 14:18:55.319
192, -2359.76, -2622.34, -2975.03, -2536.28, 0.000, 0.000, 0.000, 14:18:55.319
193, -2055.78, -2275.16, -2669.81, -2269.69, 0.000, 0.000, 0.000, 14:18:55.319
194, -1693.52, -1900.32, -2355.42, -2014.76, 0.000, 0.000, 0.000, 14:18:55.319
195, -2129.67, -2391.32, -2795.25, -2389.27, 0.000, 0.000, 0.000, 14:18:55.320
196, -2336.67, -2596.09, -2940.77, -2523.60, 0.000, 0.000, 0.000, 14:18:55.320
197, -2073.52, -2287.39, -2680.41, -2282.70, 0.000, 0.000, 0.000, 14:18:55.334
198, -1702.33, -1914.60, -2374.64, -2024.74, 0.000, 0.000, 0.000, 14:18:55.334
199, -2126.37, -2399.99, -2803.27, -2386.91, 0.000, 0.000, 0.000, 14:18:55.348
200, -2348.34, -2616.35, -2959.25, -2523.88, 0.000, 0.000, 0.000, 14:18:55.348
0, -2031.84, -2257.23, -2654.14, -2251.36, 0.000, 0.000, 0.000, 14:18:55.349
1, -1700.55, -1905.91, -2377.78, -2015.97, 0.000, 0.000, 0.000, 14:18:55.378
2, -2130.64, -2398.55, -2801.58, -2388.29, 0.000, 0.000, 0.000, 14:18:55.378
3, -2345.73, -2616.69, -2953.89, -2523.32, 0.000, 0.000, 0.000, 14:18:55.378
4, -2046.08, -2260.32, -2652.57, -2270.24, 0.000, 0.000, 0.000, 14:18:55.379
5, -1718.81, -1922.81, -2378.99, -2033.55, 0.000, 0.000, 0.000, 14:18:55.393
6, -2098.55, -2369.52, -2775.87, -2376.70, 0.000, 0.000, 0.000, 14:18:55.393
7, -2343.83, -2603.53, -2949.06, -2523.52, 0.000, 0.000, 0.000, 14:18:55.394
8, -2060.48, -2281.35, -2679.12, -2281.35, 0.000, 0.000, 0.000, 14:18:55.394
9, -1706.77, -1909.36, -2377.30, -2022.75, 0.000, 0.000, 0.000, 14:18:55.408
10, -2116.07, -2376.36, -2781.29, -2378.28, 0.000, 0.000, 0.000, 14:18:55.408
11, -2337.13, -2599.69, -2948.24, -2531.39, 0.000, 0.000, 0.000, 14:18:55.408
12, -2041.82, -2265.04, -2662.40, -2272.55, 0.000, 0.000, 0.000, 14:18:55.409
13, -1737.76, -1932.12, -2397.55, -2035.38, 0.000, 0.000, 0.000, 14:18:55.423
14, -2116.56, -2389.32, -2786.33, -2378.71, 0.000, 0.000, 0.000, 14:18:55.423
15, -2366.52, -2618.75, -2961.77, -2535.27, 0.000, 0.000, 0.000, 14:18:55.438
16, -2060.02, -2282.47, -2677.01, -2283.70, 0.000, 0.000, 0.000, 14:18:55.438
17, -1715.87, -1906.46, -2377.64, -2017.95, 0.000, 0.000, 0.000, 14:18:55.439
18, -2107.64, -2363.42, -2764.43, -2369.86, 0.000, 0.000, 0.000, 14:18:55.439
19, -2326.40, -2579.64, -2925.41, -2513.99, 0.000, 0.000, 0.000, 14:18:55.453
20, -2050.20, -2255.23, -2649.29, -2263.62, 0.000, 0.000, 0.000, 14:18:55.453
21, -1711.22, -1914.76, -2370.54, -2017.80, 0.000, 0.000, 0.000, 14:18:55.468
22, -2128.00, -2386.51, -2787.30, -2385.63, 0.000, 0.000, 0.000, 14:18:55.468
23, -2334.07, -2586.00, -2933.99, -2523.36, 0.000, 0.000, 0.000, 14:18:55.468
24, -2047.56, -2261.35, -2653.56, -2273.45, 0.000, 0.000, 0.000, 14:18:55.469
25, -1716.98, -1917.02, -2375.10, -2024.69, 0.000, 0.000, 0.000, 14:18:55.483
26, -2136.28, -2389.43, -2790.19, -2389.93, 0.000, 0.000, 0.000, 14:18:55.483
27, -2338.62, -2604.86, -2943.86, -2518.85, 0.000, 0.000, 0.000, 14:18:55.498
28, -2053.32, -2264.09, -2654.62, -2274.83, 0.000, 0.000, 0.000, 14:18:55.498
29, -1746.57, -1929.94, -2405.91, -2052.48, 0.000, 0.000, 0.000, 14:18:55.498
30, -2127.01, -2386.10, -2795.31, -2385.07, 0.000, 0.000, 0.000, 14:18:55.498
31, -2327.42, -2589.44, -2941.52, -2511.16, 0.000, 0.000, 0.000, 14:18:55.514
32, -2031.25, -2248.19, -2644.57, -2259.14, 0.000, 0.000, 0.000, 14:18:55.514
33, -1720.91, -1907.80, -2372.03, -2026.98, 0.000, 0.000, 0.000, 14:18:55.528
34, -2128.62, -2389.45, -2792.96, -2394.13, 0.000, 0.000, 0.000, 14:18:55.528
35, -2343.57, -2592.94, -2936.44, -2520.49, 0.000, 0.000, 0.000, 14:18:55.529
36, -2045.76, -2259.37, -2658.46, -2265.71, 0.000, 0.000, 0.000, 14:18:55.529
37, -1714.08, -1923.66, -2392.72, -2034.70, 0.000, 0.000, 0.000, 14:18:55.558
38, -2134.62, -2393.22, -2802.45, -2394.09, 0.000, 0.000, 0.000, 14:18:55.558
39, -2365.70, -2628.48, -2978.45, -2548.90, 0.000, 0.000, 0.000, 14:18:55.559
40, -2084.03, -2302.63, -2699.13, -2302.43, 0.000, 0.000, 0.000, 14:18:55.559
41, -1672.30, -1882.15, -2345.92, -2001.21, 0.000, 0.000, 0.000, 14:18:55.559
42, -2086.06, -2359.11, -2760.86, -2367.26, 0.000, 0.000, 0.000, 14:18:55.559
43, -2299.36, -2566.57, -2905.76, -2500.28, 0.000, 0.000, 0.000, 14:18:55.573
44, -1991.30, -2234.66, -2623.69, -2244.71, 0.000, 0.000, 0.000, 14:18:55.573
45, -1681.21, -1901.39, -2353.66, -2008.51, 0.000, 0.000, 0.000, 14:18:55.589
46, -2095.42, -2390.30, -2778.04, -2378.33, 0.000, 0.000, 0.000, 14:18:55.589
47, -2307.85, -2607.39, -2930.39, -2513.76, 0.000, 0.000, 0.000, 14:18:55.589
48, -2019.05, -2248.98, -2644.08, -2270.68, 0.000, 0.000, 0.000, 14:18:55.589
49, -1683.86, -1917.99, -2364.00, -2022.11, 0.000, 0.000, 0.000, 14:18:55.609
50, -2090.76, -2400.68, -2789.51, -2382.36, 0.000, 0.000, 0.000, 14:18:55.610
51, -2302.96, -2609.66, -2937.87, -2526.20, 0.000, 0.000, 0.000, 14:18:55.618
52, -1978.83, -2287.58, -2641.25, -2261.76, 0.000, 0.000, 0.000, 14:18:55.618
53, -1647.72, -1937.87, -2366.72, -2012.32, 0.000, 0.000, 0.000, 14:18:55.619
54, -2075.28, -2452.23, -2793.69, -2390.05, 0.000, 0.000, 0.000, 14:18:55.619
55, -2296.91, -2655.11, -2949.95, -2527.00, 0.000, 0.000, 0.000, 14:18:55.633
56, -1947.31, -2284.85, -2640.51, -2251.40, 0.000, 0.000, 0.000, 14:18:55.633
57, -1614.26, -1941.50, -2352.98, -2013.15, 0.000, 0.000, 0.000, 14:18:55.648
58, -2033.80, -2436.72, -2784.60, -2399.39, 0.000, 0.000, 0.000, 14:18:55.648
59, -2233.04, -2656.23, -2941.84, -2522.86, 0.000, 0.000, 0.000, 14:18:55.649
60, -1899.89, -2319.46, -2637.07, -2257.83, 0.000, 0.000, 0.000, 14:18:55.649
61, -1563.49, -1974.67, -2361.19, -2009.54, 0.000, 0.000, 0.000, 14:18:55.663
62, -1988.98, -2482.93, -2788.89, -2390.19, 0.000, 0.000, 0.000, 14:18:55.663
63, -2191.15, -2679.41, -2937.90, -2519.39, 0.000, 0.000, 0.000, 14:18:55.679
64, -1893.17, -2333.31, -2643.45, -2250.35, 0.000, 0.000, 0.000, 14:18:55.679
65, -1579.49, -1968.65, -2367.37, -2016.01, 0.000, 0.000, 0.000, 14:18:55.680
66, -2033.39, -2445.91, -2797.00, -2381.39, 0.000, 0.000, 0.000, 14:18:55.680
67, -2273.04, -2639.40, -2951.03, -2511.43, 0.000, 0.000, 0.000, 14:18:55.708
68, -2008.95, -2279.91, -2652.22, -2256.62, 0.000, 0.000, 0.000, 14:18:55.708
69, -1694.41, -1910.97, -2378.01, -2023.50, 0.000, 0.000, 0.000, 14:18:55.708
70, -2140.05, -2375.46, -2790.29, -2384.35, 0.000, 0.000, 0.000, 14:18:55.709
71, -2373.63, -2571.50, -2943.55, -2521.45, 0.000, 0.000, 0.000, 14:18:55.709
72, -2100.96, -2220.64, -2650.59, -2262.30, 0.000, 0.000, 0.000, 14:18:55.709
73, -1773.14, -1868.45, -2386.58, -2019.59, 0.000, 0.000, 0.000, 14:18:55.723
74, -2211.96, -2350.16, -2808.84, -2390.47, 0.000, 0.000, 0.000, 14:18:55.723
75, -2431.99, -2548.37, -2957.90, -2520.25, 0.000, 0.000, 0.000, 14:18:55.738
76, -2137.15, -2204.04, -2664.87, -2266.25, 0.000, 0.000, 0.000, 14:18:55.738
77, -1808.04, -1854.83, -2395.22, -2024.23, 0.000, 0.000, 0.000, 14:18:55.738
78, -2239.31, -2332.73, -2814.20, -2386.30, 0.000, 0.000, 0.000, 14:18:55.738
79, -2427.82, -2537.38, -2951.80, -2509.93, 0.000, 0.000, 0.000, 14:18:55.753
80, -2135.19, -2198.03, -2668.71, -2256.42, 0.000, 0.000, 0.000, 14:18:55.753
81, -1803.72, -1859.01, -2394.29, -2023.90, 0.000, 0.000, 0.000, 14:18:55.768
82, -2221.99, -2345.76, -2803.07, -2382.29, 0.000, 0.000, 0.000, 14:18:55.768
83, -2419.95, -2539.33, -2947.81, -2514.53, 0.000, 0.000, 0.000, 14:18:55.769
84, -2112.60, -2206.41, -2668.00, -2262.54, 0.000, 0.000, 0.000, 14:18:55.769
85, -1803.96, -1869.70, -2393.88, -2026.91, 0.000, 0.000, 0.000, 14:18:55.783
86, -2222.23, -2357.99, -2811.55, -2384.71, 0.000, 0.000, 0.000, 14:18:55.783
87, -2413.19, -2554.92, -2955.02, -2502.86, 0.000, 0.000, 0.000, 14:18:55.798
88, -2114.89, -2211.76, -2667.53, -2254.00, 0.000, 0.000, 0.000, 14:18:55.798
89, -1794.40, -1874.97, -2398.32, -2023.54, 0.000, 0.000, 0.000, 14:18:55.799
90, -2201.32, -2349.31, -2807.27, -2377.34, 0.000, 0.000, 0.000, 14:18:55.799
91, -2401.30, -2553.90, -2947.97, -2497.13, 0.000, 0.000, 0.000, 14:18:55.813
92, -2104.29, -2220.01, -2664.69, -2254.52, 0.000, 0.000, 0.000, 14:18:55.814
93, -1774.99, -1885.28, -2394.89, -2027.95, 0.000, 0.000, 0.000, 14:18:55.843
94, -2197.60, -2363.01, -2808.23, -2380.55, 0.000, 0.000, 0.000, 14:18:55.843
95, -2384.32, -2548.71, -2941.16, -2497.30, 0.000, 0.000, 0.000, 14:18:55.843
96, -2089.61, -2217.85, -2656.01, -2256.88, 0.000, 0.000, 0.000, 14:18:55.843
97, -1776.59, -1882.19, -2393.47, -2025.07, 0.000, 0.000, 0.000, 14:18:55.844
98, -2177.61, -2361.41, -2796.82, -2375.26, 0.000, 0.000, 0.000, 14:18:55.844
99, -2377.17, -2559.94, -2942.65, -2498.13, 0.000, 0.000, 0.000, 14:18:55.845
100, -2076.57, -2221.46, -2651.69, -2251.71, 0.000, 0.000, 0.000, 14:18:55.845
101, -1754.71, -1893.77, -2396.67, -2031.12, 0.000, 0.000, 0.000, 14:18:55.873
102, -2170.01, -2372.32, -2808.52, -2383.30, 0.000, 0.000, 0.000, 14:18:55.873
103, -2369.56, -2561.09, -2942.87, -2493.02, 0.000, 0.000, 0.000, 14:18:55.873
104, -2067.52, -2226.76, -2651.42, -2253.69, 0.000, 0.000, 0.000, 14:18:55.874
105, -1753.40, -1909.02, -2397.02, -2034.50, 0.000, 0.000, 0.000, 14:18:55.888
106, -2161.95, -2377.58, -2801.07, -2376.20, 0.000, 0.000, 0.000, 14:18:55.888
107, -2364.41, -2559.77, -2940.40, -2494.32, 0.000, 0.000, 0.000, 14:18:55.889
108, -2078.11, -2232.26, -2653.29, -2248.14, 0.000, 0.000, 0.000, 14:18:55.889
109, -1737.99, -1896.61, -2390.19, -2029.10, 0.000, 0.000, 0.000, 14:18:55.910
110, -2161.14, -2374.97, -2806.57, -2379.88, 0.000, 0.000, 0.000, 14:18:55.910
111, -2347.05, -2562.86, -2941.28, -2494.24, 0.000, 0.000, 0.000, 14:18:55.918
112, -2062.81, -2232.61, -2657.31, -2250.19, 0.000, 0.000, 0.000, 14:18:55.918
113, -1739.37, -1909.35, -2402.24, -2034.09, 0.000, 0.000, 0.000, 14:18:55.919
114, -2154.93, -2387.52, -2805.21, -2383.71, 0.000, 0.000, 0.000, 14:18:55.919
115, -2342.59, -2562.12, -2935.84, -2497.97, 0.000, 0.000, 0.000, 14:18:55.933
116, -2058.48, -2228.01, -2647.57, -2258.51, 0.000, 0.000, 0.000, 14:18:55.933
117, -1748.20, -1895.31, -2383.96, -2031.37, 0.000, 0.000, 0.000, 14:18:55.948
118, -2152.36, -2388.32, -2796.42, -2390.12, 0.000, 0.000, 0.000, 14:18:55.948
119, -2343.90, -2566.87, -2934.52, -2496.68, 0.000, 0.000, 0.000, 14:18:55.948
120, -2052.74, -2243.14, -2648.02, -2257.27, 0.000, 0.000, 0.000, 14:18:55.948
121, -1738.38, -1902.78, -2379.05, -2028.42, 0.000, 0.000, 0.000, 14:18:55.963
122, -2150.21, -2373.54, -2791.02, -2379.48, 0.000, 0.000, 0.000, 14:18:55.963
123, -2352.10, -2569.93, -2943.19, -2493.30, 0.000, 0.000, 0.000, 14:18:55.978
124, -2051.03, -2225.05, -2647.38, -2247.13, 0.000, 0.000, 0.000, 14:18:55.978
125, -1737.13, -1905.75, -2383.56, -2026.67, 0.000, 0.000, 0.000, 14:18:55.979
126, -2175.12, -2394.69, -2803.03, -2397.12, 0.000, 0.000, 0.000, 14:18:55.979
127, -2354.43, -2585.80, -2928.63, -2507.90, 0.000, 0.000, 0.000, 14:18:55.993
128, -2031.48, -2229.74, -2623.20, -2251.60, 0.000, 0.000, 0.000, 14:18:55.993
129, -1745.72, -1920.23, -2387.04, -2039.04, 0.000, 0.000, 0.000, 14:18:56.008
130, -2159.80, -2395.12, -2791.55, -2400.12, 0.000, 0.000, 0.000, 14:18:56.008
131, -2336.50, -2564.39, -2907.85, -2511.12, 0.000, 0.000, 0.000, 14:18:56.008
132, -2043.06, -2220.23, -2632.98, -2247.63, 0.000, 0.000, 0.000, 14:18:56.008
133, -1703.85, -1864.59, -2349.15, -2007.17, 0.000, 0.000, 0.000, 14:18:56.023
134, -2148.76, -2381.11, -2804.17, -2398.54, 0.000, 0.000, 0.000, 14:18:56.023
135, -2346.14, -2551.77, -2921.57, -2513.51, 0.000, 0.000, 0.000, 14:18:56.038
136, -2028.38, -2187.00, -2605.56, -2234.01, 0.000, 0.000, 0.000, 14:18:56.038
137, -1711.17, -1844.33, -2341.04, -1999.71, 0.000, 0.000, 0.000, 14:18:56.039
138, -2170.47, -2380.21, -2817.22, -2409.02, 0.000, 0.000, 0.000, 14:18:56.039
139, -2368.22, -2560.09, -2945.75, -2527.16, 0.000, 0.000, 0.000, 14:18:56.053
140, -2020.58, -2185.36, -2609.23, -2241.02, 0.000, 0.000, 0.000, 14:18:56.053
141, -1683.04, -1809.78, -2303.05, -1981.32, 0.000, 0.000, 0.000, 14:18:56.068
142, -2164.28, -2366.92, -2796.23, -2415.09, 0.000, 0.000, 0.000, 14:18:56.068
143, -2365.29, -2587.62, -2954.82, -2551.13, 0.000, 0.000, 0.000, 14:18:56.069
144, -2010.23, -2189.90, -2597.70, -2238.38, 0.000, 0.000, 0.000, 14:18:56.069
145, -1648.23, -1799.95, -2280.73, -1966.20, 0.000, 0.000, 0.000, 14:18:56.114
146, -2182.83, -2378.94, -2810.42, -2436.95, 0.000, 0.000, 0.000, 14:18:56.114
147, -2385.52, -2592.46, -2958.64, -2572.25, 0.000, 0.000, 0.000, 14:18:56.114
148, -2001.91, -2164.38, -2576.92, -2239.66, 0.000, 0.000, 0.000, 14:18:56.114
149, -1620.33, -1764.75, -2244.27, -1945.87, 0.000, 0.000, 0.000, 14:18:56.115
150, -2191.62, -2415.30, -2818.02, -2459.25, 0.000, 0.000, 0.000, 14:18:56.115
151, -2403.38, -2626.97, -2976.61, -2591.44, 0.000, 0.000, 0.000, 14:18:56.115
152, -2013.65, -2182.40, -2581.84, -2239.21, 0.000, 0.000, 0.000, 14:18:56.115
153, -1604.50, -1767.13, -2234.54, -1932.35, 0.000, 0.000, 0.000, 14:18:56.116
154, -2216.58, -2449.39, -2847.08, -2477.39, 0.000, 0.000, 0.000, 14:18:56.116
155, -2432.51, -2661.25, -3018.46, -2614.73, 0.000, 0.000, 0.000, 14:18:56.129
156, -2007.50, -2197.60, -2594.17, -2242.08, 0.000, 0.000, 0.000, 14:18:56.129
157, -1602.69, -1774.24, -2242.19, -1919.68, 0.000, 0.000, 0.000, 14:18:56.143
158, -2235.41, -2473.63, -2878.18, -2485.59, 0.000, 0.000, 0.000, 14:18:56.143
159, -2451.34, -2682.74, -3034.98, -2631.19, 0.000, 0.000, 0.000, 14:18:56.158
160, -2020.04, -2205.36, -2603.63, -2245.99, 0.000, 0.000, 0.000, 14:18:56.158
161, -1616.93, -1793.96, -2258.12, -1925.77, 0.000, 0.000, 0.000, 14:18:56.159
162, -2238.67, -2495.15, -2896.82, -2493.07, 0.000, 0.000, 0.000, 14:18:56.159
163, -2440.83, -2694.94, -3046.03, -2625.59, 0.000, 0.000, 0.000, 14:18:56.174
164, -2023.43, -2232.14, -2625.65, -2254.08, 0.000, 0.000, 0.000, 14:18:56.174
165, -1622.66, -1809.68, -2278.64, -1940.98, 0.000, 0.000, 0.000, 14:18:56.188
166, -2219.13, -2485.24, -2883.14, -2475.20, 0.000, 0.000, 0.000, 14:18:56.188
167, -2426.77, -2686.97, -3031.71, -2607.51, 0.000, 0.000, 0.000, 14:18:56.189
168, -2017.80, -2233.09, -2624.42, -2245.92, 0.000, 0.000, 0.000, 14:18:56.189
169, -1641.07, -1844.88, -2311.05, -1970.93, 0.000, 0.000, 0.000, 14:18:56.218
170, -2212.07, -2479.39, -2882.14, -2465.25, 0.000, 0.000, 0.000, 14:18:56.218
171, -2384.93, -2649.50, -3006.96, -2582.62, 0.000, 0.000, 0.000, 14:18:56.218
172, -2023.42, -2247.40, -2637.98, -2256.07, 0.000, 0.000, 0.000, 14:18:56.219
173, -1694.41, -1895.34, -2355.20, -2013.30, 0.000, 0.000, 0.000, 14:18:56.219
174, -2216.70, -2497.08, -2885.01, -2470.60, 0.000, 0.000, 0.000, 14:18:56.219
175, -2400.60, -2658.85, -3003.46, -2571.50, 0.000, 0.000, 0.000, 14:18:56.233
176, -2012.37, -2226.06, -2623.39, -2248.67, 0.000, 0.000, 0.000, 14:18:56.233
177, -1670.60, -1891.47, -2345.42, -2015.71, 0.000, 0.000, 0.000, 14:18:56.248
178, -2139.04, -2410.17, -2809.88, -2413.32, 0.000, 0.000, 0.000, 14:18:56.248
179, -2309.17, -2583.00, -2921.78, -2513.79, 0.000, 0.000, 0.000, 14:18:56.264
180, -2020.80, -2244.16, -2640.52, -2257.04, 0.000, 0.000, 0.000, 14:18:56.264
181, -1713.66, -1923.81, -2390.61, -2044.89, 0.000, 0.000, 0.000, 14:18:56.264
182, -2140.19, -2417.55, -2811.21, -2404.96, 0.000, 0.000, 0.000, 14:18:56.264
183, -2295.25, -2572.47, -2916.48, -2496.82, 0.000, 0.000, 0.000, 14:18:56.279
184, -2029.89, -2242.46, -2633.70, -2254.96, 0.000, 0.000, 0.000, 14:18:56.279
185, -1735.30, -1933.48, -2395.24, -2045.87, 0.000, 0.000, 0.000, 14:18:56.279
186, -2144.52, -2409.38, -2804.93, -2390.74, 0.000, 0.000, 0.000, 14:18:56.279
187, -2317.38, -2580.62, -2926.31, -2500.53, 0.000, 0.000, 0.000, 14:18:56.293
188, -2036.87, -2240.61, -2641.37, -2254.09, 0.000, 0.000, 0.000, 14:18:56.293
189, -1746.10, -1941.63, -2410.43, -2051.13, 0.000, 0.000, 0.000, 14:18:56.308
190, -2176.32, -2429.88, -2826.11, -2411.91, 0.000, 0.000, 0.000, 14:18:56.308
191, -2300.80, -2553.98, -2904.92, -2481.51, 0.000, 0.000, 0.000, 14:18:56.323
192, -1991.58, -2192.42, -2599.80, -2209.51, 0.000, 0.000, 0.000, 14:18:56.323
193, -1690.80, -1883.12, -2354.04, -1997.09, 0.000, 0.000, 0.000, 14:18:56.324
194, -2149.27, -2400.45, -2801.43, -2396.36, 0.000, 0.000, 0.000, 14:18:56.324
195, -2325.46, -2571.33, -2924.26, -2502.27, 0.000, 0.000, 0.000, 14:18:56.338
196, -2005.97, -2207.48, -2614.91, -2230.74, 0.000, 0.000, 0.000, 14:18:56.338
197, -1684.55, -1887.79, -2363.48, -1999.85, 0.000, 0.000, 0.000, 14:18:56.339
198, -2173.18, -2432.70, -2829.63, -2420.45, 0.000, 0.000, 0.000, 14:18:56.339
199, -2349.58, -2600.37, -2949.79, -2524.76, 0.000, 0.000, 0.000, 14:18:56.353
200, -2030.36, -2239.71, -2642.67, -2242.47, 0.000, 0.000, 0.000, 14:18:56.353
0, -1717.76, -1915.57, -2381.95, -2011.71, 0.000, 0.000, 0.000, 14:18:56.354
1, -2203.77, -2458.34, -2851.55, -2439.71, 0.000, 0.000, 0.000, 14:18:56.368
2, -2426.42, -2686.99, -3030.66, -2584.34, 0.000, 0.000, 0.000, 14:18:56.368
3, -2026.77, -2236.97, -2637.24, -2243.84, 0.000, 0.000, 0.000, 14:18:56.383
4, -1690.66, -1897.40, -2356.36, -1997.40, 0.000, 0.000, 0.000, 14:18:56.384
5, -2185.97, -2466.83, -2856.18, -2438.62, 0.000, 0.000, 0.000, 14:18:56.384
6, -2365.91, -2646.42, -2986.11, -2550.37, 0.000, 0.000, 0.000, 14:18:56.384
7, -2020.86, -2262.12, -2643.39, -2251.49, 0.000, 0.000, 0.000, 14:18:56.398
8, -1700.60, -1951.14, -2404.79, -2044.50, 0.000, 0.000, 0.000, 14:18:56.398
9, -2220.87, -2532.51, -2913.85, -2495.60, 0.000, 0.000, 0.000, 14:18:56.429
10, -2412.42, -2704.73, -3038.50, -2596.07, 0.000, 0.000, 0.000, 14:18:56.429
11, -2019.93, -2300.29, -2661.60, -2263.74, 0.000, 0.000, 0.000, 14:18:56.429
12, -1685.64, -1921.90, -2376.52, -2011.89, 0.000, 0.000, 0.000, 14:18:56.429
13, -2198.89, -2527.79, -2899.65, -2469.94, 0.000, 0.000, 0.000, 14:18:56.429
14, -2381.99, -2691.86, -2996.21, -2559.08, 0.000, 0.000, 0.000, 14:18:56.429
15, -1966.28, -2248.37, -2641.99, -2232.37, 0.000, 0.000, 0.000, 14:18:56.430
16, -1579.23, -1906.32, -2322.48, -1999.84, 0.000, 0.000, 0.000, 14:18:56.430
17, -2049.60, -2431.54, -2772.26, -2381.67, 0.000, 0.000, 0.000, 14:18:56.443
18, -2135.53, -2542.45, -2816.91, -2413.13, 0.000, 0.000, 0.000, 14:18:56.443
19, -1761.89, -2129.38, -2474.11, -2120.87, 0.000, 0.000, 0.000, 14:18:56.458
20, -1557.84, -1967.32, -2356.67, -2017.08, 0.000, 0.000, 0.000, 14:18:56.458
21, -2050.15, -2522.88, -2849.86, -2421.01, 0.000, 0.000, 0.000, 14:18:56.473
22, -2221.70, -2703.19, -2957.26, -2503.63, 0.000, 0.000, 0.000, 14:18:56.473
23, -1871.84, -2335.13, -2637.25, -2229.55, 0.000, 0.000, 0.000, 14:18:56.474
24, -1557.83, -2008.29, -2388.08, -1997.06, 0.000, 0.000, 0.000, 14:18:56.474
25, -1999.36, -2487.30, -2805.60, -2361.29, 0.000, 0.000, 0.000, 14:18:56.488
26, -2185.58, -2664.40, -2929.38, -2465.74, 0.000, 0.000, 0.000, 14:18:56.488
27, -1924.60, -2352.28, -2673.10, -2238.72, 0.000, 0.000, 0.000, 14:18:56.503
28, -1626.25, -2018.74, -2421.47, -2037.50, 0.000, 0.000, 0.000, 14:18:56.503
29, -2060.61, -2483.09, -2821.62, -2393.55, 0.000, 0.000, 0.000, 14:18:56.504
30, -2248.60, -2627.60, -2926.14, -2473.62, 0.000, 0.000, 0.000, 14:18:56.504
31, -1967.51, -2283.19, -2650.25, -2233.89, 0.000, 0.000, 0.000, 14:18:56.534
32, -1697.93, -1973.76, -2420.52, -2041.77, 0.000, 0.000, 0.000, 14:18:56.534
33, -2108.91, -2437.68, -2817.25, -2393.72, 0.000, 0.000, 0.000, 14:18:56.534
34, -2308.66, -2591.00, -2927.87, -2483.46, 0.000, 0.000, 0.000, 14:18:56.534
35, -2004.00, -2217.62, -2629.47, -2221.45, 0.000, 0.000, 0.000, 14:18:56.534
36, -1742.79, -1909.33, -2399.95, -2026.43, 0.000, 0.000, 0.000, 14:18:56.534
37, -2170.40, -2388.16, -2798.12, -2392.47, 0.000, 0.000, 0.000, 14:18:56.548
38, -2357.37, -2542.74, -2911.36, -2489.07, 0.000, 0.000, 0.000, 14:18:56.548
39, -2062.16, -2182.16, -2611.61, -2230.87, 0.000, 0.000, 0.000, 14:18:56.564
40, -1767.12, -1873.93, -2379.99, -2028.43, 0.000, 0.000, 0.000, 14:18:56.564
41, -2232.25, -2376.50, -2809.26, -2410.95, 0.000, 0.000, 0.000, 14:18:56.564
42, -2396.46, -2522.49, -2909.89, -2499.17, 0.000, 0.000, 0.000, 14:18:56.564
43, -2091.63, -2176.60, -2618.53, -2241.64, 0.000, 0.000, 0.000, 14:18:56.578
44, -1778.63, -1848.26, -2377.37, -2027.44, 0.000, 0.000, 0.000, 14:18:56.579
45, -2255.61, -2384.58, -2817.73, -2421.20, 0.000, 0.000, 0.000, 14:18:56.593
46, -2400.40, -2527.53, -2912.52, -2506.32, 0.000, 0.000, 0.000, 14:18:56.593
47, -2093.68, -2171.70, -2620.80, -2246.17, 0.000, 0.000, 0.000, 14:18:56.594
48, -1799.76, -1871.41, -2383.83, -2038.15, 0.000, 0.000, 0.000, 14:18:56.594
49, -2250.10, -2381.56, -2816.32, -2426.27, 0.000, 0.000, 0.000, 14:18:56.615
50, -2420.52, -2533.34, -2921.65, -2526.35, 0.000, 0.000, 0.000, 14:18:56.615
51, -2085.63, -2174.22, -2616.16, -2246.70, 0.000, 0.000, 0.000, 14:18:56.623
52, -1777.99, -1859.45, -2367.35, -2026.63, 0.000, 0.000, 0.000, 14:18:56.623
53, -2245.94, -2384.11, -2817.90, -2427.31, 0.000, 0.000, 0.000, 14:18:56.624
54, -2394.64, -2542.14, -2917.47, -2514.39, 0.000, 0.000, 0.000, 14:18:56.624
55, -2078.22, -2188.66, -2615.31, -2247.21, 0.000, 0.000, 0.000, 14:18:56.638
56, -1770.91, -1873.86, -2381.62, -2040.30, 0.000, 0.000, 0.000, 14:18:56.638
57, -2237.59, -2397.78, -2823.43, -2418.94, 0.000, 0.000, 0.000, 14:18:56.653
58, -2386.67, -2543.00, -2920.41, -2509.91, 0.000, 0.000, 0.000, 14:18:56.653
59, -2056.07, -2187.49, -2617.66, -2247.45, 0.000, 0.000, 0.000, 14:18:56.654
60, -1774.17, -1887.38, -2385.98, -2045.71, 0.000, 0.000, 0.000, 14:18:56.654
61, -2217.86, -2407.22, -2824.38, -2423.82, 0.000, 0.000, 0.000, 14:18:56.668
62, -2372.50, -2560.35, -2926.08, -2511.32, 0.000, 0.000, 0.000, 14:18:56.668
63, -2060.71, -2201.64, -2627.65, -2252.84, 0.000, 0.000, 0.000, 14:18:56.683
64, -1749.90, -1903.29, -2395.84, -2050.81, 0.000, 0.000, 0.000, 14:18:56.684
65, -2214.40, -2411.40, -2828.65, -2419.61, 0.000, 0.000, 0.000, 14:18:56.684
66, -2351.08, -2550.14, -2917.66, -2502.62, 0.000, 0.000, 0.000, 14:18:56.684
67, -2033.07, -2200.03, -2622.49, -2249.31, 0.000, 0.000, 0.000, 14:18:56.698
68, -1758.00, -1910.30, -2398.99, -2056.12, 0.000, 0.000, 0.000, 14:18:56.698
69, -2192.20, -2417.38, -2820.33, -2417.86, 0.000, 0.000, 0.000, 14:18:56.713
70, -2340.88, -2555.31, -2920.00, -2502.47, 0.000, 0.000, 0.000, 14:18:56.714
71, -2023.99, -2208.32, -2626.98, -2242.00, 0.000, 0.000, 0.000, 14:18:56.714
72, -1742.40, -1907.37, -2398.35, -2054.96, 0.000, 0.000, 0.000, 14:18:56.714
73, -2182.30, -2421.43, -2825.20, -2415.58, 0.000, 0.000, 0.000, 14:18:56.729
74, -2335.13, -2564.07, -2915.66, -2494.35, 0.000, 0.000, 0.000, 14:18:56.729
75, -2021.26, -2208.19, -2625.54, -2249.35, 0.000, 0.000, 0.000, 14:18:56.743
76, -1729.61, -1908.09, -2392.37, -2045.30, 0.000, 0.000, 0.000, 14:18:56.743
77, -2181.58, -2421.83, -2823.85, -2415.85, 0.000, 0.000, 0.000, 14:18:56.758
78, -2331.73, -2563.16, -2909.88, -2499.13, 0.000, 0.000, 0.000, 14:18:56.758
79, -2008.85, -2219.12, -2621.77, -2244.20, 0.000, 0.000, 0.000, 14:18:56.773
80, -1736.07, -1920.10, -2398.03, -2049.47, 0.000, 0.000, 0.000, 14:18:56.773
81, -2185.83, -2435.68, -2834.06, -2428.61, 0.000, 0.000, 0.000, 14:18:56.773
82, -2337.55, -2585.02, -2931.91, -2509.87, 0.000, 0.000, 0.000, 14:18:56.773
83, -2015.46, -2213.77, -2624.50, -2243.35, 0.000, 0.000, 0.000, 14:18:56.774
84, -1747.70, -1908.84, -2402.40, -2037.01, 0.000, 0.000, 0.000, 14:18:56.774
85, -2200.87, -2436.49, -2847.50, -2429.19, 0.000, 0.000, 0.000, 14:18:56.788
86, -2344.41, -2567.84, -2931.00, -2503.20, 0.000, 0.000, 0.000, 14:18:56.788
87, -2024.43, -2204.11, -2626.95, -2241.41, 0.000, 0.000, 0.000, 14:18:56.803
88, -1724.25, -1911.19, -2387.60, -2038.37, 0.000, 0.000, 0.000, 14:18:56.803
89, -2187.65, -2426.88, -2831.92, -2426.19, 0.000, 0.000, 0.000, 14:18:56.804
90, -2349.50, -2581.95, -2936.02, -2509.06, 0.000, 0.000, 0.000, 14:18:56.804
91, -2013.25, -2207.73, -2622.29, -2237.32, 0.000, 0.000, 0.000, 14:18:56.818
92, -1716.36, -1904.49, -2382.59, -2029.26, 0.000, 0.000, 0.000, 14:18:56.818
93, -2193.46, -2434.82, -2835.37, -2431.46, 0.000, 0.000, 0.000, 14:18:56.833
94, -2332.40, -2569.65, -2931.31, -2507.54, 0.000, 0.000, 0.000, 14:18:56.833
95, -2003.44, -2217.84, -2613.77, -2232.76, 0.000, 0.000, 0.000, 14:18:56.834
96, -1720.34, -1915.44, -2385.41, -2037.04, 0.000, 0.000, 0.000, 14:18:56.834
97, -2165.33, -2433.31, -2824.50, -2422.69, 0.000, 0.000, 0.000, 14:18:56.863
98, -2315.22, -2564.39, -2923.00, -2504.29, 0.000, 0.000, 0.000, 14:18:56.864
99, -1998.42, -2211.50, -2614.83, -2232.31, 0.000, 0.000, 0.000, 14:18:56.864
100, -1704.19, -1914.92, -2367.00, -2033.16, 0.000, 0.000, 0.000, 14:18:56.864
101, -2184.70, -2450.39, -2831.56, -2429.34, 0.000, 0.000, 0.000, 14:18:56.879
102, -2306.62, -2563.86, -2904.19, -2503.77, 0.000, 0.000, 0.000, 14:18:56.879
103, -1987.16, -2204.35, -2607.54, -2236.88, 0.000, 0.000, 0.000, 14:18:56.879
104, -1711.88, -1937.69, -2393.58, -2043.20, 0.000, 0.000, 0.000, 14:18:56.879
105, -2153.53, -2441.26, -2816.47, -2428.46, 0.000, 0.000, 0.000, 14:18:56.893
106, -2314.15, -2547.20, -2912.31, -2504.98, 0.000, 0.000, 0.000, 14:18:56.893
107, -2001.24, -2185.09, -2617.01, -2230.76, 0.000, 0.000, 0.000, 14:18:56.894
108, -1708.11, -1902.16, -2391.66, -2030.68, 0.000, 0.000, 0.000, 14:18:56.894
109, -2175.89, -2436.47, -2832.57, -2429.21, 0.000, 0.000, 0.000, 14:18:56.908
110, -2302.82, -2572.93, -2919.42, -2498.57, 0.000, 0.000, 0.000, 14:18:56.908
111, -1977.89, -2180.60, -2593.92, -2221.66, 0.000, 0.000, 0.000, 14:18:56.923
112, -1700.19, -1876.16, -2365.85, -2014.07, 0.000, 0.000, 0.000, 14:18:56.923
113, -2156.76, -2420.78, -2825.31, -2423.42, 0.000, 0.000, 0.000, 14:18:56.923
114, -2307.25, -2552.80, -2906.95, -2506.42, 0.000, 0.000, 0.000, 14:18:56.923
115, -1980.82, -2177.67, -2582.88, -2225.57, 0.000, 0.000, 0.000, 14:18:56.938
116, -1690.82, -1884.50, -2352.28, -2018.21, 0.000, 0.000, 0.000, 14:18:56.938
117, -2165.14, -2427.75, -2824.77, -2437.67, 0.000, 0.000, 0.000, 14:18:56.953
118, -2309.07, -2564.27, -2912.62, -2515.01, 0.000, 0.000, 0.000, 14:18:56.953
119, -1958.64, -2184.39, -2581.27, -2222.29, 0.000, 0.000, 0.000, 14:18:56.954
120, -1677.24, -1884.31, -2338.51, -2001.29, 0.000, 0.000, 0.000, 14:18:56.954
121, -2187.52, -2467.11, -2844.49, -2447.73, 0.000, 0.000, 0.000, 14:18:56.984
122, -2313.49, -2602.97, -2920.61, -2526.54, 0.000, 0.000, 0.000, 14:18:56.984
123, -1960.76, -2174.80, -2582.54, -2222.30, 0.000, 0.000, 0.000, 14:18:56.984
124, -1648.18, -1892.96, -2335.47, -2002.36, 0.000, 0.000, 0.000, 14:18:56.984
125, -2169.99, -2481.17, -2853.69, -2456.26, 0.000, 0.000, 0.000, 14:18:56.984
126, -2296.62, -2627.27, -2945.69, -2535.59, 0.000, 0.000, 0.000, 14:18:56.984
127, -1922.93, -2222.85, -2581.34, -2221.05, 0.000, 0.000, 0.000, 14:18:56.998
128, -1598.26, -1937.09, -2335.54, -1992.64, 0.000, 0.000, 0.000, 14:18:56.998
129, -2145.88, -2536.48, -2885.79, -2465.45, 0.000, 0.000, 0.000, 14:18:57.013
130, -2239.52, -2679.65, -2951.42, -2529.36, 0.000, 0.000, 0.000, 14:18:57.013
131, -1827.25, -2266.42, -2584.13, -2206.13, 0.000, 0.000, 0.000, 14:18:57.028
132, -1512.32, -1975.09, -2331.97, -1983.72, 0.000, 0.000, 0.000, 14:18:57.029
133, -2030.95, -2580.76, -2871.46, -2451.70, 0.000, 0.000, 0.000, 14:18:57.029
134, -2164.62, -2721.33, -2955.30, -2533.08, 0.000, 0.000, 0.000, 14:18:57.029
135, -1789.16, -2302.64, -2591.48, -2211.23, 0.000, 0.000, 0.000, 14:18:57.043
136, -1504.01, -1988.50, -2342.66, -1987.58, 0.000, 0.000, 0.000, 14:18:57.043
137, -2064.75, -2588.00, -2880.59, -2458.02, 0.000, 0.000, 0.000, 14:18:57.044
138, -2245.72, -2704.59, -2971.47, -2535.63, 0.000, 0.000, 0.000, 14:18:57.044
139, -1906.73, -2261.18, -2611.73, -2216.45, 0.000, 0.000, 0.000, 14:18:57.058
140, -1637.20, -1942.75, -2378.74, -2005.74, 0.000, 0.000, 0.000, 14:18:57.058
141, -2202.04, -2537.24, -2905.01, -2471.96, 0.000, 0.000, 0.000, 14:18:57.073
142, -2380.18, -2640.82, -2985.97, -2548.37, 0.000, 0.000, 0.000, 14:18:57.073
143, -2038.60, -2225.56, -2633.84, -2235.35, 0.000, 0.000, 0.000, 14:18:57.073
144, -1754.23, -1904.45, -2390.48, -2028.41, 0.000, 0.000, 0.000, 14:18:57.073
145, -2265.04, -2456.39, -2876.54, -2466.53, 0.000, 0.000, 0.000, 14:18:57.088
146, -2411.97, -2551.50, -2940.40, -2526.44, 0.000, 0.000, 0.000, 14:18:57.088
147, -2078.33, -2167.64, -2625.52, -2234.67, 0.000, 0.000, 0.000, 14:18:57.103
148, -1806.32, -1885.43, -2412.92, -2047.12, 0.000, 0.000, 0.000, 14:18:57.103
149, -2285.16, -2412.92, -2859.42, -2450.77, 0.000, 0.000, 0.000, 14:18:57.103
150, -2400.67, -2515.76, -2932.32, -2513.24, 0.000, 0.000, 0.000, 14:18:57.103
151, -2085.81, -2154.53, -2624.51, -2238.69, 0.000, 0.000, 0.000, 14:18:57.118
152, -1818.81, -1890.94, -2414.23, -2056.48, 0.000, 0.000, 0.000, 14:18:57.118
153, -2261.39, -2397.73, -2845.87, -2434.25, 0.000, 0.000, 0.000, 14:18:57.133
154, -2399.42, -2512.07, -2916.94, -2503.51, 0.000, 0.000, 0.000, 14:18:57.133
155, -2084.05, -2160.35, -2619.30, -2235.96, 0.000, 0.000, 0.000, 14:18:57.134
156, -1825.65, -1900.46, -2412.39, -2059.15, 0.000, 0.000, 0.000, 14:18:57.134
157, -2257.03, -2412.13, -2835.23, -2434.21, 0.000, 0.000, 0.000, 14:18:57.148
158, -2384.80, -2520.38, -2906.14, -2488.79, 0.000, 0.000, 0.000, 14:18:57.148
159, -2056.45, -2173.40, -2614.85, -2233.63, 0.000, 0.000, 0.000, 14:18:57.164
160, -1798.06, -1893.08, -2404.60, -2054.29, 0.000, 0.000, 0.000, 14:18:57.164
161, -2244.57, -2404.78, -2839.53, -2430.73, 0.000, 0.000, 0.000, 14:18:57.164
162, -2368.40, -2529.20, -2909.90, -2491.33, 0.000, 0.000, 0.000, 14:18:57.164
163, -2043.10, -2163.42, -2598.86, -2221.19, 0.000, 0.000, 0.000, 14:18:57.193
164, -1758.71, -1884.09, -2384.01, -2030.21, 0.000, 0.000, 0.000, 14:18:57.193
165, -2245.26, -2427.09, -2843.51, -2440.66, 0.000, 0.000, 0.000, 14:18:57.194
166, -2368.99, -2542.51, -2919.41, -2512.41, 0.000, 0.000, 0.000, 14:18:57.194
167, -2025.16, -2166.89, -2598.28, -2221.88, 0.000, 0.000, 0.000, 14:18:57.194
168, -1736.41, -1871.53, -2370.46, -2017.14, 0.000, 0.000, 0.000, 14:18:57.194
169, -2246.98, -2449.18, -2862.34, -2452.50, 0.000, 0.000, 0.000, 14:18:57.223
170, -2369.84, -2561.06, -2933.93, -2521.41, 0.000, 0.000, 0.000, 14:18:57.223
171, -2008.37, -2162.23, -2597.61, -2214.06, 0.000, 0.000, 0.000, 14:18:57.224
172, -1730.67, -1879.99, -2365.48, -2015.77, 0.000, 0.000, 0.000, 14:18:57.224
173, -2233.20, -2460.31, -2866.27, -2464.14, 0.000, 0.000, 0.000, 14:18:57.224
174, -2372.44, -2579.72, -2942.70, -2528.21, 0.000, 0.000, 0.000, 14:18:57.224
175, -1997.63, -2171.54, -2592.13, -2209.51, 0.000, 0.000, 0.000, 14:18:57.238
176, -1723.18, -1884.72, -2360.30, -2007.07, 0.000, 0.000, 0.000, 14:18:57.239
177, -2246.36, -2477.84, -2879.25, -2471.32, 0.000, 0.000, 0.000, 14:18:57.253
178, -2372.45, -2589.46, -2946.40, -2534.94, 0.000, 0.000, 0.000, 14:18:57.253
179, -2009.51, -2181.52, -2605.07, -2222.45, 0.000, 0.000, 0.000, 14:18:57.254
180, -1729.85, -1888.39, -2364.05, -2017.09, 0.000, 0.000, 0.000, 14:18:57.254
181, -2236.20, -2485.68, -2880.59, -2473.07, 0.000, 0.000, 0.000, 14:18:57.268
182, -2372.69, -2591.05, -2950.38, -2526.53, 0.000, 0.000, 0.000, 14:18:57.268
183, -2004.46, -2193.48, -2604.80, -2221.25, 0.000, 0.000, 0.000, 14:18:57.283
184, -1717.71, -1896.73, -2369.96, -2019.54, 0.000, 0.000, 0.000, 14:18:57.284
185, -2239.51, -2469.36, -2870.23, -2466.38, 0.000, 0.000, 0.000, 14:18:57.284
186, -2357.85, -2574.66, -2936.99, -2519.67, 0.000, 0.000, 0.000, 14:18:57.284
187, -1995.46, -2182.50, -2600.42, -2220.17, 0.000, 0.000, 0.000, 14:18:57.298
188, -1717.32, -1909.22, -2383.65, -2030.69, 0.000, 0.000, 0.000, 14:18:57.298
189, -2218.45, -2467.20, -2864.12, -2455.06, 0.000, 0.000, 0.000, 14:18:57.329
190, -2333.26, -2572.54, -2930.98, -2510.90, 0.000, 0.000, 0.000, 14:18:57.329
191, -1991.55, -2189.20, -2603.31, -2226.67, 0.000, 0.000, 0.000, 14:18:57.329
192, -1724.88, -1921.09, -2392.40, -2038.00, 0.000, 0.000, 0.000, 14:18:57.329
193, -2207.11, -2458.90, -2857.16, -2451.28, 0.000, 0.000, 0.000, 14:18:57.330
194, -2321.06, -2571.32, -2922.12, -2506.17, 0.000, 0.000, 0.000, 14:18:57.330
195, -1996.01, -2203.28, -2610.15, -2231.54, 0.000, 0.000, 0.000, 14:18:57.330
196, -1736.82, -1927.88, -2399.39, -2054.36, 0.000, 0.000, 0.000, 14:18:57.330
197, -2200.10, -2460.86, -2854.58, -2445.41, 0.000, 0.000, 0.000, 14:18:57.343
198, -2318.41, -2565.57, -2918.02, -2489.32, 0.000, 0.000, 0.000, 14:18:57.343
199, -1982.60, -2197.00, -2607.68, -2226.91, 0.000, 0.000, 0.000, 14:18:57.358
200, -1751.00, -1933.24, -2410.16, -2046.10, 0.000, 0.000, 0.000, 14:18:57.359
0, -2199.70, -2457.99, -2853.23, -2435.31, 0.000, 0.000, 0.000, 14:18:57.359
1, -2319.92, -2563.78, -2926.09, -2494.52, 0.000, 0.000, 0.000, 14:18:57.373
2, -1994.50, -2203.37, -2610.30, -2221.44, 0.000, 0.000, 0.000, 14:18:57.373
3, -1738.32, -1931.65, -2404.90, -2041.68, 0.000, 0.000, 0.000, 14:18:57.388
4, -2191.86, -2457.81, -2849.02, -2440.81, 0.000, 0.000, 0.000, 14:18:57.388
5, -2318.70, -2563.29, -2916.24, -2498.96, 0.000, 0.000, 0.000, 14:18:57.388
6, -1988.26, -2189.61, -2605.14, -2217.58, 0.000, 0.000, 0.000, 14:18:57.388
7, -1717.72, -1924.82, -2403.57, -2043.32, 0.000, 0.000, 0.000, 14:18:57.403
8, -2212.64, -2472.68, -2859.93, -2451.91, 0.000, 0.000, 0.000, 14:18:57.403
9, -2319.20, -2576.64, -2924.50, -2509.54, 0.000, 0.000, 0.000, 14:18:57.419
10, -2020.54, -2225.25, -2627.03, -2241.73, 0.000, 0.000, 0.000, 14:18:57.419
11, -1741.47, -1931.61, -2390.02, -2062.54, 0.000, 0.000, 0.000, 14:18:57.419
12, -2164.32, -2440.93, -2811.71, -2461.51, 0.000, 0.000, 0.000, 14:18:57.419
13, -2294.06, -2537.39, -2872.50, -2528.36, 0.000, 0.000, 0.000, 14:18:57.433
14, -1943.97, -2148.30, -2530.82, -2248.77, 0.000, 0.000, 0.000, 14:18:57.433
15, -1693.83, -1880.00, -2316.51, -2075.27, 0.000, 0.000, 0.000, 14:18:57.448
16, -2173.43, -2421.03, -2766.02, -2513.89, 0.000, 0.000, 0.000, 14:18:57.448
17, -2292.15, -2512.82, -2831.41, -2573.40, 0.000, 0.000, 0.000, 14:18:57.455
18, -1960.36, -2137.32, -2492.71, -2300.90, 0.000, 0.000, 0.000, 14:18:57.455
19, -1694.01, -1869.54, -2279.64, -2116.89, 0.000, 0.000, 0.000, 14:18:57.464
20, -2188.31, -2412.18, -2739.58, -2545.37, 0.000, 0.000, 0.000, 14:18:57.464
21, -2297.19, -2512.21, -2801.30, -2597.07, 0.000, 0.000, 0.000, 14:18:57.478
22, -1958.79, -2126.85, -2463.94, -2302.94, 0.000, 0.000, 0.000, 14:18:57.478
23, -1713.20, -1859.72, -2259.72, -2130.93, 0.000, 0.000, 0.000, 14:18:57.479
24, -2196.48, -2412.56, -2733.38, -2548.92, 0.000, 0.000, 0.000, 14:18:57.479
25, -2318.77, -2508.22, -2783.43, -2598.59, 0.000, 0.000, 0.000, 14:18:57.493
26, -1981.07, -2133.21, -2471.35, -2308.05, 0.000, 0.000, 0.000, 14:18:57.493
27, -1722.93, -1870.30, -2278.40, -2138.32, 0.000, 0.000, 0.000, 14:18:57.508
28, -2204.17, -2405.70, -2727.54, -2540.29, 0.000, 0.000, 0.000, 14:18:57.508
29, -2315.56, -2530.40, -2805.26, -2582.75, 0.000, 0.000, 0.000, 14:18:57.508
30, -1994.53, -2162.92, -2505.33, -2297.34, 0.000, 0.000, 0.000, 14:18:57.508
31, -1729.47, -1907.46, -2318.57, -2120.31, 0.000, 0.000, 0.000, 14:18:57.538
32, -2209.40, -2448.72, -2778.40, -2511.51, 0.000, 0.000, 0.000, 14:18:57.538
33, -2317.94, -2529.90, -2836.26, -2547.38, 0.000, 0.000, 0.000, 14:18:57.538
34, -2004.86, -2173.33, -2542.14, -2274.35, 0.000, 0.000, 0.000, 14:18:57.538
35, -1756.42, -1930.63, -2364.55, -2101.30, 0.000, 0.000, 0.000, 14:18:57.539
36, -2208.26, -2446.56, -2793.85, -2482.48, 0.000, 0.000, 0.000, 14:18:57.539
37, -2307.43, -2542.97, -2846.34, -2525.26, 0.000, 0.000, 0.000, 14:18:57.553
38, -1996.61, -2181.06, -2557.80, -2251.90, 0.000, 0.000, 0.000, 14:18:57.553
39, -1761.18, -1925.07, -2379.38, -2087.55, 0.000, 0.000, 0.000, 14:18:57.568
40, -2205.08, -2443.10, -2809.86, -2463.56, 0.000, 0.000, 0.000, 14:18:57.568
41, -2314.05, -2541.98, -2871.38, -2513.47, 0.000, 0.000, 0.000, 14:18:57.569
42, -1998.37, -2183.81, -2576.46, -2249.64, 0.000, 0.000, 0.000, 14:18:57.569
43, -1758.93, -1938.72, -2403.24, -2084.53, 0.000, 0.000, 0.000, 14:18:57.583
44, -2219.18, -2454.03, -2825.19, -2460.38, 0.000, 0.000, 0.000, 14:18:57.583
45, -2304.88, -2550.13, -2870.33, -2501.95, 0.000, 0.000, 0.000, 14:18:57.598
46, -1993.55, -2191.87, -2583.91, -2232.72, 0.000, 0.000, 0.000, 14:18:57.598
47, -1753.12, -1937.49, -2392.77, -2067.30, 0.000, 0.000, 0.000, 14:18:57.599
48, -2213.82, -2461.64, -2840.34, -2456.76, 0.000, 0.000, 0.000, 14:18:57.599
49, -2315.07, -2547.23, -2891.87, -2501.90, 0.000, 0.000, 0.000, 14:18:57.614
50, -1990.38, -2183.04, -2592.76, -2226.92, 0.000, 0.000, 0.000, 14:18:57.614
51, -1735.42, -1936.23, -2397.97, -2057.01, 0.000, 0.000, 0.000, 14:18:57.629
52, -2202.54, -2457.06, -2841.41, -2450.75, 0.000, 0.000, 0.000, 14:18:57.629
53, -2318.61, -2553.89, -2897.06, -2504.46, 0.000, 0.000, 0.000, 14:18:57.629
54, -1977.03, -2187.88, -2583.22, -2219.93, 0.000, 0.000, 0.000, 14:18:57.629
55, -1723.29, -1921.81, -2388.67, -2047.89, 0.000, 0.000, 0.000, 14:18:57.643
56, -2203.39, -2467.10, -2842.15, -2457.71, 0.000, 0.000, 0.000, 14:18:57.643
57, -2313.64, -2558.82, -2901.88, -2511.00, 0.000, 0.000, 0.000, 14:18:57.658
58, -1979.37, -2174.82, -2585.34, -2212.88, 0.000, 0.000, 0.000, 14:18:57.658
59, -1730.43, -1919.41, -2389.43, -2047.76, 0.000, 0.000, 0.000, 14:18:57.659
60, -2222.50, -2479.38, -2858.82, -2461.42, 0.000, 0.000, 0.000, 14:18:57.659
61, -2305.90, -2565.08, -2903.35, -2505.18, 0.000, 0.000, 0.000, 14:18:57.673
62, -1988.70, -2186.51, -2597.08, -2214.99, 0.000, 0.000, 0.000, 14:18:57.673
63, -1718.44, -1908.44, -2382.41, -2045.29, 0.000, 0.000, 0.000, 14:18:57.688
64, -2220.16, -2471.29, -2851.94, -2461.21, 0.000, 0.000, 0.000, 14:18:57.688
65, -2313.41, -2559.87, -2906.60, -2511.14, 0.000, 0.000, 0.000, 14:18:57.688
66, -1979.06, -2169.30, -2579.04, -2213.88, 0.000, 0.000, 0.000, 14:18:57.688
67, -1736.90, -1941.90, -2399.32, -2052.95, 0.000, 0.000, 0.000, 14:18:57.703
68, -2216.02, -2477.32, -2856.87, -2469.22, 0.000, 0.000, 0.000, 14:18:57.703
69, -2332.44, -2566.71, -2918.19, -2507.28, 0.000, 0.000, 0.000, 14:18:57.718
70, -1980.00, -2177.17, -2592.86, -2216.55, 0.000, 0.000, 0.000, 14:18:57.718
71, -1740.10, -1928.60, -2407.12, -2046.08, 0.000, 0.000, 0.000, 14:18:57.719
72, -2250.55, -2498.90, -2885.94, -2479.08, 0.000, 0.000, 0.000, 14:18:57.719
73, -2332.24, -2578.71, -2928.21, -2506.30, 0.000, 0.000, 0.000, 14:18:57.734
74, -1983.01, -2186.41, -2612.72, -2199.94, 0.000, 0.000, 0.000, 14:18:57.734
75, -1764.98, -1955.38, -2437.89, -2060.61, 0.000, 0.000, 0.000, 14:18:57.748
76, -2232.94, -2484.72, -2884.17, -2456.05, 0.000, 0.000, 0.000, 14:18:57.749
77, -2313.52, -2541.23, -2901.63, -2483.70, 0.000, 0.000, 0.000, 14:18:57.750
78, -2016.37, -2183.56, -2615.55, -2214.99, 0.000, 0.000, 0.000, 14:18:57.750
79, -1766.17, -1932.79, -2424.97, -2059.32, 0.000, 0.000, 0.000, 14:18:57.763
80, -2215.31, -2461.91, -2854.45, -2449.77, 0.000, 0.000, 0.000, 14:18:57.763
81, -2339.93, -2548.99, -2912.46, -2500.18, 0.000, 0.000, 0.000, 14:18:57.779
82, -2012.50, -2190.90, -2613.37, -2223.26, 0.000, 0.000, 0.000, 14:18:57.779
83, -1783.42, -1954.51, -2440.88, -2070.13, 0.000, 0.000, 0.000, 14:18:57.779
84, -2242.57, -2488.69, -2873.71, -2464.70, 0.000, 0.000, 0.000, 14:18:57.780
85, -2338.86, -2570.50, -2916.20, -2499.86, 0.000, 0.000, 0.000, 14:18:57.793
86, -1992.40, -2190.36, -2587.78, -2214.12, 0.000, 0.000, 0.000, 14:18:57.793
87, -1781.14, -1969.28, -2429.56, -2074.29, 0.000, 0.000, 0.000, 14:18:57.809
88, -2236.04, -2499.50, -2863.74, -2462.90, 0.000, 0.000, 0.000, 14:18:57.809
89, -2334.34, -2585.99, -2916.57, -2506.86, 0.000, 0.000, 0.000, 14:18:57.809
90, -2026.33, -2226.33, -2623.34, -2243.13, 0.000, 0.000, 0.000, 14:18:57.809
91, -1768.50, -1971.53, -2422.06, -2074.08, 0.000, 0.000, 0.000, 14:18:57.823
92, -2216.41, -2495.72, -2859.53, -2459.50, 0.000, 0.000, 0.000, 14:18:57.823
93, -2308.59, -2567.54, -2890.30, -2499.46, 0.000, 0.000, 0.000, 14:18:57.838
94, -1979.10, -2194.67, -2583.88, -2220.05, 0.000, 0.000, 0.000, 14:18:57.838
95, -1748.73, -1955.60, -2414.89, -2063.07, 0.000, 0.000, 0.000, 14:18:57.838
96, -2215.20, -2480.40, -2843.86, -2461.23, 0.000, 0.000, 0.000, 14:18:57.839
97, -2293.16, -2556.93, -2889.89, -2498.55, 0.000, 0.000, 0.000, 14:18:57.853
98, -1968.59, -2171.94, -2583.56, -2218.84, 0.000, 0.000, 0.000, 14:18:57.853
99, -1731.46, -1932.05, -2397.20, -2058.02, 0.000, 0.000, 0.000, 14:18:57.885
100, -2200.14, -2466.39, -2843.93, -2463.18, 0.000, 0.000, 0.000, 14:18:57.885
