%OpenBCI Raw EEG Data
%
%Sample Rate = 200.0 Hz
%First Column = SampleIndex
%Last Column = Timestamp 
%Other Columns = EEG data in microvolts followed by Accel Data (in G) interleaved with Aux Data
0, -4125.05, -4643.21, -4621.97, -3874.87, 0.000, 0.000, 0.000, 17:38:32.882
1, -4433.66, -4972.45, -4934.44, -4193.73, 0.000, 0.000, 0.000, 17:38:32.882
2, -4373.68, -4880.86, -4851.92, -4095.65, 0.000, 0.000, 0.000, 17:38:32.882
3, -4147.11, -4642.06, -4621.20, -3860.35, 0.000, 0.000, 0.000, 17:38:32.896
4, -4086.03, -4605.62, -4585.15, -3833.56, 0.000, 0.000, 0.000, 17:38:32.896
5, -4390.18, -4930.03, -4911.57, -4178.89, 0.000, 0.000, 0.000, 17:38:32.896
6, -4320.07, -4838.74, -4811.51, -4066.09, 0.000, 0.000, 0.000, 17:38:32.896
7, -4124.51, -4625.07, -4613.30, -3852.02, 0.000, 0.000, 0.000, 17:38:32.911
8, -4069.19, -4588.67, -4574.08, -3825.85, 0.000, 0.000, 0.000, 17:38:32.911
9, -4361.13, -4910.11, -4888.03, -4127.94, 0.000, 0.000, 0.000, 17:38:32.926
10, -4315.69, -4837.41, -4801.94, -4054.63, 0.000, 0.000, 0.000, 17:38:32.926
11, -4090.10, -4579.69, -4565.57, -3833.20, 0.000, 0.000, 0.000, 17:38:32.926
12, -4027.46, -4533.90, -4522.94, -3797.74, 0.000, 0.000, 0.000, 17:38:32.926
13, -4348.16, -4905.13, -4872.84, -4131.33, 0.000, 0.000, 0.000, 17:38:32.956
14, -4300.18, -4814.64, -4795.82, -4052.99, 0.000, 0.000, 0.000, 17:38:32.956
15, -4100.10, -4597.78, -4583.34, -3839.12, 0.000, 0.000, 0.000, 17:38:32.956
16, -4035.55, -4542.67, -4529.48, -3777.89, 0.000, 0.000, 0.000, 17:38:32.956
17, -4343.93, -4894.73, -4862.54, -4121.55, 0.000, 0.000, 0.000, 17:38:32.957
18, -4288.37, -4800.53, -4779.35, -4031.95, 0.000, 0.000, 0.000, 17:38:32.957
19, -4082.87, -4578.61, -4580.03, -3819.44, 0.000, 0.000, 0.000, 17:38:32.971
20, -4027.34, -4534.11, -4539.12, -3777.54, 0.000, 0.000, 0.000, 17:38:32.971
21, -4335.62, -4873.82, -4849.67, -4118.73, 0.000, 0.000, 0.000, 17:38:32.985
22, -4266.74, -4776.74, -4759.21, -4029.49, 0.000, 0.000, 0.000, 17:38:32.985
23, -4077.45, -4579.13, -4560.70, -3820.41, 0.000, 0.000, 0.000, 17:38:32.986
24, -4018.38, -4527.78, -4520.83, -3763.59, 0.000, 0.000, 0.000, 17:38:32.986
25, -4335.05, -4893.87, -4864.93, -4109.95, 0.000, 0.000, 0.000, 17:38:33.001
26, -4292.71, -4818.69, -4804.69, -4035.37, 0.000, 0.000, 0.000, 17:38:33.001
27, -4089.11, -4585.82, -4565.52, -3814.33, 0.000, 0.000, 0.000, 17:38:33.030
28, -3998.51, -4511.82, -4506.23, -3752.80, 0.000, 0.000, 0.000, 17:38:33.031
29, -4318.97, -4851.94, -4829.16, -4111.82, 0.000, 0.000, 0.000, 17:38:33.032
30, -4261.37, -4769.95, -4761.79, -4028.32, 0.000, 0.000, 0.000, 17:38:33.032
31, -4077.86, -4568.78, -4565.07, -3813.45, 0.000, 0.000, 0.000, 17:38:33.034
32, -3996.11, -4510.47, -4500.65, -3757.65, 0.000, 0.000, 0.000, 17:38:33.034
33, -4334.18, -4887.63, -4863.86, -4121.29, 0.000, 0.000, 0.000, 17:38:33.061
34, -4274.77, -4801.86, -4774.53, -4030.57, 0.000, 0.000, 0.000, 17:38:33.062
35, -4084.18, -4575.93, -4559.29, -3801.39, 0.000, 0.000, 0.000, 17:38:33.062
36, -4017.11, -4525.32, -4513.25, -3760.23, 0.000, 0.000, 0.000, 17:38:33.062
37, -4329.31, -4862.12, -4840.86, -4101.09, 0.000, 0.000, 0.000, 17:38:33.062
38, -4277.91, -4785.91, -4765.37, -4022.79, 0.000, 0.000, 0.000, 17:38:33.062
39, -4079.39, -4578.14, -4558.12, -3821.01, 0.000, 0.000, 0.000, 17:38:33.076
40, -4003.71, -4511.84, -4501.73, -3743.88, 0.000, 0.000, 0.000, 17:38:33.076
41, -4321.52, -4862.33, -4851.22, -4102.64, 0.000, 0.000, 0.000, 17:38:33.076
42, -4292.30, -4801.70, -4787.43, -4026.37, 0.000, 0.000, 0.000, 17:38:33.077
43, -4069.39, -4562.82, -4558.86, -3807.35, 0.000, 0.000, 0.000, 17:38:33.090
44, -3998.70, -4508.82, -4502.20, -3768.19, 0.000, 0.000, 0.000, 17:38:33.090
45, -4309.39, -4866.88, -4834.61, -4111.70, 0.000, 0.000, 0.000, 17:38:33.106
46, -4283.17, -4810.35, -4780.04, -4042.90, 0.000, 0.000, 0.000, 17:38:33.106
47, -4093.18, -4603.56, -4570.02, -3821.29, 0.000, 0.000, 0.000, 17:38:33.113
48, -3998.45, -4495.41, -4498.85, -3751.09, 0.000, 0.000, 0.000, 17:38:33.113
49, -4318.19, -4861.75, -4835.22, -4108.34, 0.000, 0.000, 0.000, 17:38:33.121
50, -4287.98, -4805.05, -4771.71, -4045.34, 0.000, 0.000, 0.000, 17:38:33.121
51, -4089.33, -4581.71, -4570.75, -3820.02, 0.000, 0.000, 0.000, 17:38:33.135
52, -3986.56, -4496.48, -4485.38, -3763.90, 0.000, 0.000, 0.000, 17:38:33.135
53, -4309.74, -4853.40, -4840.32, -4109.10, 0.000, 0.000, 0.000, 17:38:33.151
54, -4311.65, -4821.68, -4800.83, -4055.90, 0.000, 0.000, 0.000, 17:38:33.151
55, -4099.34, -4595.80, -4578.03, -3831.71, 0.000, 0.000, 0.000, 17:38:33.152
56, -3982.95, -4486.65, -4489.01, -3744.40, 0.000, 0.000, 0.000, 17:38:33.152
57, -4300.42, -4832.07, -4828.07, -4071.27, 0.000, 0.000, 0.000, 17:38:33.166
58, -4262.85, -4773.00, -4746.91, -4014.96, 0.000, 0.000, 0.000, 17:38:33.166
59, -4067.14, -4552.75, -4544.55, -3798.16, 0.000, 0.000, 0.000, 17:38:33.181
60, -3965.81, -4468.99, -4466.51, -3731.11, 0.000, 0.000, 0.000, 17:38:33.181
61, -4299.66, -4848.32, -4821.84, -4091.38, 0.000, 0.000, 0.000, 17:38:33.182
62, -4277.78, -4802.34, -4782.52, -4034.71, 0.000, 0.000, 0.000, 17:38:33.182
63, -4080.62, -4570.97, -4569.48, -3820.17, 0.000, 0.000, 0.000, 17:38:33.211
64, -3991.47, -4500.16, -4494.39, -3747.60, 0.000, 0.000, 0.000, 17:38:33.211
65, -4310.94, -4879.93, -4846.56, -4090.43, 0.000, 0.000, 0.000, 17:38:33.227
66, -4287.71, -4800.19, -4786.38, -4046.11, 0.000, 0.000, 0.000, 17:38:33.227
67, -4093.20, -4591.01, -4577.90, -3821.81, 0.000, 0.000, 0.000, 17:38:33.227
68, -3984.12, -4485.02, -4497.35, -3731.48, 0.000, 0.000, 0.000, 17:38:33.227
69, -4306.82, -4866.24, -4834.14, -4094.15, 0.000, 0.000, 0.000, 17:38:33.227
70, -4294.10, -4820.12, -4797.72, -4051.04, 0.000, 0.000, 0.000, 17:38:33.228
71, -4082.37, -4573.24, -4558.16, -3820.68, 0.000, 0.000, 0.000, 17:38:33.228
72, -3977.10, -4485.01, -4478.32, -3736.86, 0.000, 0.000, 0.000, 17:38:33.229
73, -4306.65, -4855.87, -4830.79, -4092.84, 0.000, 0.000, 0.000, 17:38:33.255
74, -4291.89, -4808.85, -4799.34, -4044.14, 0.000, 0.000, 0.000, 17:38:33.256
75, -4107.00, -4603.53, -4603.96, -3841.66, 0.000, 0.000, 0.000, 17:38:33.256
76, -4002.70, -4504.81, -4497.74, -3746.42, 0.000, 0.000, 0.000, 17:38:33.256
77, -4291.22, -4849.38, -4828.62, -4078.67, 0.000, 0.000, 0.000, 17:38:33.257
78, -4276.97, -4790.84, -4770.47, -4050.63, 0.000, 0.000, 0.000, 17:38:33.257
79, -4077.19, -4573.21, -4562.98, -3816.44, 0.000, 0.000, 0.000, 17:38:33.270
80, -3965.40, -4472.74, -4474.12, -3715.58, 0.000, 0.000, 0.000, 17:38:33.270
81, -4280.04, -4838.49, -4810.35, -4067.42, 0.000, 0.000, 0.000, 17:38:33.287
82, -4284.44, -4811.26, -4784.42, -4039.92, 0.000, 0.000, 0.000, 17:38:33.287
83, -4087.06, -4579.48, -4566.74, -3825.52, 0.000, 0.000, 0.000, 17:38:33.287
84, -3980.04, -4488.01, -4480.39, -3738.53, 0.000, 0.000, 0.000, 17:38:33.287
85, -4287.63, -4835.58, -4806.24, -4094.24, 0.000, 0.000, 0.000, 17:38:33.301
86, -4302.15, -4822.58, -4792.56, -4062.72, 0.000, 0.000, 0.000, 17:38:33.301
87, -4098.69, -4597.21, -4583.99, -3826.45, 0.000, 0.000, 0.000, 17:38:33.315
88, -3979.68, -4475.33, -4486.86, -3730.00, 0.000, 0.000, 0.000, 17:38:33.315
89, -4286.49, -4839.86, -4817.37, -4078.70, 0.000, 0.000, 0.000, 17:38:33.316
90, -4305.83, -4826.51, -4797.01, -4060.19, 0.000, 0.000, 0.000, 17:38:33.316
91, -4105.29, -4599.04, -4592.32, -3835.18, 0.000, 0.000, 0.000, 17:38:33.332
92, -3984.55, -4484.75, -4472.19, -3738.85, 0.000, 0.000, 0.000, 17:38:33.332
93, -4289.03, -4846.08, -4815.73, -4086.90, 0.000, 0.000, 0.000, 17:38:33.361
94, -4291.84, -4815.00, -4795.14, -4049.59, 0.000, 0.000, 0.000, 17:38:33.361
95, -4092.34, -4589.45, -4569.24, -3839.24, 0.000, 0.000, 0.000, 17:38:33.362
96, -3987.51, -4492.56, -4479.77, -3742.23, 0.000, 0.000, 0.000, 17:38:33.362
97, -4281.83, -4829.20, -4809.61, -4066.75, 0.000, 0.000, 0.000, 17:38:33.362
98, -4304.29, -4826.20, -4803.13, -4056.60, 0.000, 0.000, 0.000, 17:38:33.362
99, -4119.92, -4617.11, -4607.18, -3845.10, 0.000, 0.000, 0.000, 17:38:33.376
100, -3990.67, -4501.80, -4477.56, -3729.65, 0.000, 0.000, 0.000, 17:38:33.377
101, -4306.17, -4864.32, -4836.75, -4088.28, 0.000, 0.000, 0.000, 17:38:33.377
102, -4323.55, -4844.80, -4813.66, -4068.57, 0.000, 0.000, 0.000, 17:38:33.377
103, -4103.11, -4607.55, -4599.95, -3837.31, 0.000, 0.000, 0.000, 17:38:33.405
104, -3979.96, -4483.70, -4464.94, -3728.51, 0.000, 0.000, 0.000, 17:38:33.406
105, -4283.02, -4828.83, -4815.00, -4071.85, 0.000, 0.000, 0.000, 17:38:33.406
106, -4307.28, -4831.17, -4805.81, -4056.41, 0.000, 0.000, 0.000, 17:38:33.406
107, -4135.68, -4621.51, -4609.34, -3876.60, 0.000, 0.000, 0.000, 17:38:33.407
108, -3980.39, -4474.78, -4460.90, -3734.01, 0.000, 0.000, 0.000, 17:38:33.407
109, -4257.94, -4792.72, -4783.43, -4057.18, 0.000, 0.000, 0.000, 17:38:33.436
110, -4297.98, -4810.37, -4794.55, -4046.29, 0.000, 0.000, 0.000, 17:38:33.436
111, -4115.88, -4621.35, -4603.72, -3856.64, 0.000, 0.000, 0.000, 17:38:33.436
112, -3987.34, -4497.79, -4487.34, -3731.47, 0.000, 0.000, 0.000, 17:38:33.436
113, -4268.52, -4815.04, -4800.15, -4068.01, 0.000, 0.000, 0.000, 17:38:33.437
114, -4312.80, -4829.30, -4806.43, -4065.73, 0.000, 0.000, 0.000, 17:38:33.437
115, -4113.28, -4611.34, -4588.69, -3846.80, 0.000, 0.000, 0.000, 17:38:33.450
116, -3972.24, -4461.30, -4470.54, -3719.03, 0.000, 0.000, 0.000, 17:38:33.451
117, -4269.52, -4818.13, -4799.96, -4055.09, 0.000, 0.000, 0.000, 17:38:33.481
118, -4312.92, -4841.03, -4805.47, -4057.57, 0.000, 0.000, 0.000, 17:38:33.481
119, -4118.15, -4622.59, -4607.70, -3854.17, 0.000, 0.000, 0.000, 17:38:33.482
120, -3974.49, -4483.58, -4483.14, -3720.61, 0.000, 0.000, 0.000, 17:38:33.482
121, -4277.06, -4830.86, -4813.60, -4056.99, 0.000, 0.000, 0.000, 17:38:33.483
122, -4318.60, -4842.29, -4812.14, -4068.05, 0.000, 0.000, 0.000, 17:38:33.483
123, -4122.25, -4615.13, -4608.17, -3861.77, 0.000, 0.000, 0.000, 17:38:33.496
124, -3978.62, -4479.90, -4481.09, -3727.10, 0.000, 0.000, 0.000, 17:38:33.496
125, -4280.50, -4819.58, -4798.15, -4069.13, 0.000, 0.000, 0.000, 17:38:33.497
126, -4316.04, -4838.64, -4807.65, -4052.83, 0.000, 0.000, 0.000, 17:38:33.497
127, -4109.62, -4614.42, -4606.72, -3856.26, 0.000, 0.000, 0.000, 17:38:33.511
128, -3983.80, -4481.29, -4476.18, -3721.34, 0.000, 0.000, 0.000, 17:38:33.511
129, -4278.09, -4826.64, -4794.97, -4064.75, 0.000, 0.000, 0.000, 17:38:33.542
130, -4304.46, -4821.07, -4797.02, -4052.82, 0.000, 0.000, 0.000, 17:38:33.542
131, -4112.65, -4614.63, -4599.41, -3851.69, 0.000, 0.000, 0.000, 17:38:33.542
132, -3966.32, -4480.36, -4473.22, -3709.76, 0.000, 0.000, 0.000, 17:38:33.542
133, -4259.45, -4822.08, -4802.19, -4052.23, 0.000, 0.000, 0.000, 17:38:33.542
134, -4298.10, -4833.18, -4792.36, -4066.20, 0.000, 0.000, 0.000, 17:38:33.542
135, -4114.44, -4624.24, -4603.18, -3858.21, 0.000, 0.000, 0.000, 17:38:33.543
136, -3979.22, -4479.19, -4471.79, -3723.14, 0.000, 0.000, 0.000, 17:38:33.543
137, -4255.71, -4794.44, -4786.05, -4048.06, 0.000, 0.000, 0.000, 17:38:33.556
138, -4296.59, -4810.82, -4785.03, -4056.85, 0.000, 0.000, 0.000, 17:38:33.556
139, -4132.65, -4628.55, -4610.25, -3871.91, 0.000, 0.000, 0.000, 17:38:33.585
140, -3972.33, -4491.92, -4469.77, -3721.60, 0.000, 0.000, 0.000, 17:38:33.586
141, -4269.19, -4823.81, -4793.91, -4046.50, 0.000, 0.000, 0.000, 17:38:33.586
142, -4311.37, -4832.40, -4820.76, -4080.40, 0.000, 0.000, 0.000, 17:38:33.586
143, -4123.02, -4617.68, -4608.00, -3877.91, 0.000, 0.000, 0.000, 17:38:33.587
144, -3967.17, -4461.48, -4449.32, -3716.66, 0.000, 0.000, 0.000, 17:38:33.587
145, -4276.44, -4817.66, -4786.50, -4051.19, 0.000, 0.000, 0.000, 17:38:33.600
146, -4314.10, -4829.22, -4815.26, -4063.23, 0.000, 0.000, 0.000, 17:38:33.600
147, -4125.36, -4630.10, -4611.52, -3863.86, 0.000, 0.000, 0.000, 17:38:33.616
148, -3968.10, -4465.65, -4470.07, -3716.34, 0.000, 0.000, 0.000, 17:38:33.616
149, -4270.06, -4829.81, -4795.49, -4055.30, 0.000, 0.000, 0.000, 17:38:33.617
150, -4315.75, -4842.80, -4825.34, -4082.94, 0.000, 0.000, 0.000, 17:38:33.617
151, -4124.45, -4606.60, -4600.74, -3866.17, 0.000, 0.000, 0.000, 17:38:33.632
152, -3959.86, -4454.68, -4446.55, -3702.72, 0.000, 0.000, 0.000, 17:38:33.632
153, -4248.06, -4789.19, -4769.92, -4036.66, 0.000, 0.000, 0.000, 17:38:33.646
154, -4313.37, -4832.89, -4807.32, -4070.60, 0.000, 0.000, 0.000, 17:38:33.646
155, -4136.73, -4634.28, -4619.94, -3869.26, 0.000, 0.000, 0.000, 17:38:33.646
156, -3975.57, -4474.01, -4469.28, -3716.28, 0.000, 0.000, 0.000, 17:38:33.646
157, -4244.27, -4787.91, -4779.07, -4030.84, 0.000, 0.000, 0.000, 17:38:33.661
158, -4316.73, -4844.43, -4813.25, -4069.32, 0.000, 0.000, 0.000, 17:38:33.661
159, -4135.11, -4625.41, -4614.58, -3853.33, 0.000, 0.000, 0.000, 17:38:33.677
160, -3955.67, -4453.21, -4449.91, -3707.95, 0.000, 0.000, 0.000, 17:38:33.677
161, -4235.67, -4777.72, -4765.99, -4027.95, 0.000, 0.000, 0.000, 17:38:33.677
162, -4328.19, -4843.99, -4819.86, -4075.13, 0.000, 0.000, 0.000, 17:38:33.677
163, -4142.57, -4640.36, -4627.32, -3877.94, 0.000, 0.000, 0.000, 17:38:33.691
164, -3973.24, -4467.98, -4471.10, -3714.84, 0.000, 0.000, 0.000, 17:38:33.691
165, -4239.32, -4785.41, -4773.13, -4027.99, 0.000, 0.000, 0.000, 17:38:33.705
166, -4302.52, -4855.51, -4816.18, -4064.21, 0.000, 0.000, 0.000, 17:38:33.706
167, -4136.83, -4642.34, -4610.03, -3864.82, 0.000, 0.000, 0.000, 17:38:33.706
168, -3967.38, -4462.46, -4451.67, -3709.00, 0.000, 0.000, 0.000, 17:38:33.706
169, -4235.80, -4777.49, -4764.89, -4017.01, 0.000, 0.000, 0.000, 17:38:33.721
170, -4318.08, -4847.00, -4819.38, -4084.77, 0.000, 0.000, 0.000, 17:38:33.721
171, -4132.72, -4634.80, -4627.50, -3877.79, 0.000, 0.000, 0.000, 17:38:33.736
172, -3970.50, -4471.41, -4466.43, -3718.78, 0.000, 0.000, 0.000, 17:38:33.736
173, -4234.54, -4789.25, -4766.26, -4032.15, 0.000, 0.000, 0.000, 17:38:33.736
174, -4317.00, -4848.34, -4826.52, -4076.65, 0.000, 0.000, 0.000, 17:38:33.737
175, -4127.17, -4636.42, -4628.32, -3870.52, 0.000, 0.000, 0.000, 17:38:33.765
176, -3960.81, -4462.38, -4455.87, -3715.40, 0.000, 0.000, 0.000, 17:38:33.765
177, -4233.45, -4784.64, -4764.94, -4027.12, 0.000, 0.000, 0.000, 17:38:33.766
178, -4321.66, -4842.72, -4823.66, -4072.31, 0.000, 0.000, 0.000, 17:38:33.766
179, -4145.80, -4639.47, -4630.42, -3872.96, 0.000, 0.000, 0.000, 17:38:33.766
180, -3977.37, -4480.79, -4467.30, -3729.82, 0.000, 0.000, 0.000, 17:38:33.767
181, -4232.38, -4786.08, -4752.25, -4022.51, 0.000, 0.000, 0.000, 17:38:33.782
182, -4330.66, -4850.92, -4830.68, -4084.79, 0.000, 0.000, 0.000, 17:38:33.782
183, -4150.79, -4637.07, -4634.85, -3888.06, 0.000, 0.000, 0.000, 17:38:33.796
184, -3979.67, -4464.11, -4471.44, -3726.59, 0.000, 0.000, 0.000, 17:38:33.796
185, -4248.85, -4790.61, -4764.42, -4031.84, 0.000, 0.000, 0.000, 17:38:33.797
186, -4336.60, -4854.76, -4826.96, -4082.17, 0.000, 0.000, 0.000, 17:38:33.797
187, -4150.09, -4661.09, -4631.78, -3875.45, 0.000, 0.000, 0.000, 17:38:33.811
188, -3961.00, -4457.69, -4456.33, -3703.00, 0.000, 0.000, 0.000, 17:38:33.811
189, -4225.30, -4764.70, -4767.47, -4017.31, 0.000, 0.000, 0.000, 17:38:33.841
190, -4338.87, -4861.53, -4843.34, -4088.33, 0.000, 0.000, 0.000, 17:38:33.841
191, -4151.78, -4655.85, -4639.85, -3890.67, 0.000, 0.000, 0.000, 17:38:33.841
192, -3980.15, -4461.62, -4462.04, -3715.73, 0.000, 0.000, 0.000, 17:38:33.841
193, -4223.36, -4759.08, -4741.21, -4006.64, 0.000, 0.000, 0.000, 17:38:33.842
194, -4328.66, -4852.39, -4829.55, -4087.94, 0.000, 0.000, 0.000, 17:38:33.843
195, -4144.64, -4641.96, -4624.62, -3878.41, 0.000, 0.000, 0.000, 17:38:33.856
196, -3971.30, -4460.60, -4459.14, -3709.63, 0.000, 0.000, 0.000, 17:38:33.856
197, -4233.86, -4768.74, -4753.76, -4011.71, 0.000, 0.000, 0.000, 17:38:33.856
198, -4330.11, -4862.79, -4833.60, -4089.15, 0.000, 0.000, 0.000, 17:38:33.856
199, -4159.42, -4664.81, -4650.42, -3890.45, 0.000, 0.000, 0.000, 17:38:33.870
200, -3958.46, -4462.85, -4443.36, -3710.40, 0.000, 0.000, 0.000, 17:38:33.870
0, -4222.17, -4760.48, -4751.13, -4007.35, 0.000, 0.000, 0.000, 17:38:33.871
1, -4331.08, -4858.24, -4833.61, -4087.64, 0.000, 0.000, 0.000, 17:38:33.885
2, -4147.94, -4648.01, -4630.83, -3879.46, 0.000, 0.000, 0.000, 17:38:33.885
3, -3969.40, -4467.96, -4461.60, -3711.64, 0.000, 0.000, 0.000, 17:38:33.915
4, -4208.64, -4762.41, -4739.91, -3997.44, 0.000, 0.000, 0.000, 17:38:33.915
5, -4324.20, -4862.36, -4829.30, -4084.62, 0.000, 0.000, 0.000, 17:38:33.917
6, -4151.46, -4652.53, -4636.45, -3898.71, 0.000, 0.000, 0.000, 17:38:33.917
7, -3957.78, -4444.82, -4440.65, -3709.12, 0.000, 0.000, 0.000, 17:38:33.917
8, -4212.24, -4744.15, -4740.65, -4004.57, 0.000, 0.000, 0.000, 17:38:33.917
9, -4324.22, -4853.47, -4831.66, -4085.78, 0.000, 0.000, 0.000, 17:38:33.962
10, -4157.26, -4680.99, -4649.09, -3903.01, 0.000, 0.000, 0.000, 17:38:33.962
11, -3959.83, -4465.32, -4460.33, -3717.79, 0.000, 0.000, 0.000, 17:38:33.962
12, -4208.40, -4757.22, -4736.57, -4009.23, 0.000, 0.000, 0.000, 17:38:33.963
13, -4332.47, -4852.70, -4831.66, -4091.34, 0.000, 0.000, 0.000, 17:38:33.963
14, -4149.95, -4650.79, -4621.15, -3894.61, 0.000, 0.000, 0.000, 17:38:33.963
15, -3985.86, -4480.62, -4470.32, -3724.03, 0.000, 0.000, 0.000, 17:38:33.963
16, -4209.19, -4762.44, -4738.35, -3999.45, 0.000, 0.000, 0.000, 17:38:33.963
17, -4343.08, -4868.74, -4834.27, -4095.16, 0.000, 0.000, 0.000, 17:38:33.963
18, -4151.41, -4654.31, -4643.42, -3899.95, 0.000, 0.000, 0.000, 17:38:33.963
19, -3964.75, -4460.17, -4458.46, -3705.72, 0.000, 0.000, 0.000, 17:38:33.991
20, -4204.20, -4751.84, -4734.61, -3981.07, 0.000, 0.000, 0.000, 17:38:33.991
21, -4327.16, -4858.01, -4824.33, -4089.48, 0.000, 0.000, 0.000, 17:38:33.992
22, -4154.61, -4658.41, -4643.61, -3893.22, 0.000, 0.000, 0.000, 17:38:33.992
23, -3984.42, -4485.43, -4460.56, -3724.22, 0.000, 0.000, 0.000, 17:38:33.992
24, -4194.97, -4748.95, -4719.38, -3994.26, 0.000, 0.000, 0.000, 17:38:33.992
25, -4322.55, -4857.19, -4840.53, -4106.25, 0.000, 0.000, 0.000, 17:38:34.006
26, -4150.78, -4647.40, -4639.47, -3906.05, 0.000, 0.000, 0.000, 17:38:34.006
27, -3973.60, -4469.02, -4464.86, -3720.16, 0.000, 0.000, 0.000, 17:38:34.020
28, -4200.81, -4751.03, -4722.90, -3984.81, 0.000, 0.000, 0.000, 17:38:34.020
29, -4341.66, -4879.87, -4849.07, -4104.18, 0.000, 0.000, 0.000, 17:38:34.021
30, -4151.81, -4658.20, -4632.43, -3898.02, 0.000, 0.000, 0.000, 17:38:34.021
31, -3967.03, -4461.12, -4453.06, -3725.24, 0.000, 0.000, 0.000, 17:38:34.035
32, -4186.33, -4734.02, -4715.75, -3981.69, 0.000, 0.000, 0.000, 17:38:34.035
33, -4336.79, -4852.31, -4832.12, -4099.80, 0.000, 0.000, 0.000, 17:38:34.066
34, -4153.63, -4650.89, -4642.65, -3891.06, 0.000, 0.000, 0.000, 17:38:34.066
35, -3987.24, -4483.88, -4470.40, -3721.08, 0.000, 0.000, 0.000, 17:38:34.066
36, -4208.15, -4751.55, -4731.63, -3984.77, 0.000, 0.000, 0.000, 17:38:34.067
37, -4350.13, -4899.90, -4863.88, -4109.45, 0.000, 0.000, 0.000, 17:38:34.067
38, -4186.31, -4692.40, -4674.09, -3926.96, 0.000, 0.000, 0.000, 17:38:34.067
39, -3991.18, -4491.35, -4469.80, -3731.05, 0.000, 0.000, 0.000, 17:38:34.080
40, -4192.77, -4734.11, -4724.12, -3982.55, 0.000, 0.000, 0.000, 17:38:34.080
41, -4330.34, -4858.00, -4824.90, -4086.58, 0.000, 0.000, 0.000, 17:38:34.096
42, -4155.46, -4654.14, -4636.04, -3908.22, 0.000, 0.000, 0.000, 17:38:34.096
43, -3964.54, -4460.56, -4456.30, -3714.61, 0.000, 0.000, 0.000, 17:38:34.096
44, -4176.80, -4721.65, -4707.92, -3965.45, 0.000, 0.000, 0.000, 17:38:34.097
45, -4344.11, -4886.40, -4858.15, -4108.64, 0.000, 0.000, 0.000, 17:38:34.111
46, -4160.87, -4675.92, -4650.53, -3897.89, 0.000, 0.000, 0.000, 17:38:34.112
47, -3967.90, -4474.62, -4459.78, -3718.17, 0.000, 0.000, 0.000, 17:38:34.112
48, -4170.16, -4719.25, -4697.00, -3957.32, 0.000, 0.000, 0.000, 17:38:34.112
49, -4335.01, -4860.17, -4840.08, -4107.55, 0.000, 0.000, 0.000, 17:38:34.141
50, -4183.13, -4673.36, -4670.84, -3925.67, 0.000, 0.000, 0.000, 17:38:34.141
51, -3991.25, -4474.87, -4477.87, -3724.66, 0.000, 0.000, 0.000, 17:38:34.141
52, -4170.90, -4713.92, -4689.93, -3968.44, 0.000, 0.000, 0.000, 17:38:34.141
53, -4326.92, -4854.79, -4830.36, -4096.41, 0.000, 0.000, 0.000, 17:38:34.142
54, -4170.53, -4676.15, -4669.46, -3918.47, 0.000, 0.000, 0.000, 17:38:34.142
55, -3986.61, -4485.62, -4478.70, -3728.15, 0.000, 0.000, 0.000, 17:38:34.171
56, -4189.85, -4734.75, -4721.98, -3957.01, 0.000, 0.000, 0.000, 17:38:34.171
57, -4337.24, -4871.56, -4843.74, -4099.41, 0.000, 0.000, 0.000, 17:38:34.172
58, -4174.52, -4686.66, -4667.03, -3910.40, 0.000, 0.000, 0.000, 17:38:34.172
59, -3981.39, -4482.76, -4471.70, -3725.89, 0.000, 0.000, 0.000, 17:38:34.172
60, -4182.29, -4732.14, -4716.88, -3963.19, 0.000, 0.000, 0.000, 17:38:34.172
61, -4336.04, -4873.24, -4846.62, -4106.08, 0.000, 0.000, 0.000, 17:38:34.186
62, -4168.67, -4678.69, -4663.06, -3909.04, 0.000, 0.000, 0.000, 17:38:34.186
63, -3984.64, -4477.23, -4459.32, -3720.04, 0.000, 0.000, 0.000, 17:38:34.200
64, -4180.81, -4717.27, -4691.28, -3961.18, 0.000, 0.000, 0.000, 17:38:34.201
65, -4336.40, -4870.53, -4842.50, -4098.52, 0.000, 0.000, 0.000, 17:38:34.201
66, -4174.79, -4681.96, -4669.17, -3917.58, 0.000, 0.000, 0.000, 17:38:34.201
67, -3990.61, -4493.09, -4476.23, -3725.39, 0.000, 0.000, 0.000, 17:38:34.215
68, -4161.83, -4712.68, -4699.00, -3951.45, 0.000, 0.000, 0.000, 17:38:34.216
69, -4340.92, -4882.27, -4856.61, -4103.60, 0.000, 0.000, 0.000, 17:38:34.232
70, -4171.13, -4678.79, -4668.62, -3911.65, 0.000, 0.000, 0.000, 17:38:34.232
71, -3984.23, -4480.25, -4479.90, -3725.52, 0.000, 0.000, 0.000, 17:38:34.232
72, -4169.90, -4712.13, -4693.83, -3960.68, 0.000, 0.000, 0.000, 17:38:34.232
73, -4333.46, -4858.97, -4844.43, -4101.34, 0.000, 0.000, 0.000, 17:38:34.246
74, -4163.16, -4674.07, -4658.75, -3915.53, 0.000, 0.000, 0.000, 17:38:34.246
75, -3966.40, -4478.60, -4457.42, -3723.46, 0.000, 0.000, 0.000, 17:38:34.261
76, -4153.33, -4684.54, -4676.28, -3943.22, 0.000, 0.000, 0.000, 17:38:34.261
77, -4341.90, -4880.20, -4849.85, -4105.36, 0.000, 0.000, 0.000, 17:38:34.262
78, -4168.71, -4675.49, -4657.01, -3915.82, 0.000, 0.000, 0.000, 17:38:34.262
79, -3983.40, -4490.48, -4469.93, -3728.46, 0.000, 0.000, 0.000, 17:38:34.277
80, -4163.10, -4696.36, -4680.45, -3938.53, 0.000, 0.000, 0.000, 17:38:34.277
81, -4340.42, -4874.13, -4852.97, -4115.60, 0.000, 0.000, 0.000, 17:38:34.291
82, -4179.53, -4696.41, -4681.22, -3928.88, 0.000, 0.000, 0.000, 17:38:34.291
83, -3998.59, -4494.66, -4481.86, -3739.26, 0.000, 0.000, 0.000, 17:38:34.292
84, -4163.31, -4700.60, -4674.41, -3944.97, 0.000, 0.000, 0.000, 17:38:34.292
85, -4342.50, -4876.96, -4839.37, -4118.71, 0.000, 0.000, 0.000, 17:38:34.320
86, -4189.26, -4690.03, -4671.04, -3929.06, 0.000, 0.000, 0.000, 17:38:34.320
87, -3987.53, -4489.37, -4472.85, -3724.82, 0.000, 0.000, 0.000, 17:38:34.321
88, -4164.00, -4684.31, -4677.70, -3945.67, 0.000, 0.000, 0.000, 17:38:34.321
89, -4339.48, -4864.32, -4841.26, -4103.56, 0.000, 0.000, 0.000, 17:38:34.321
90, -4193.25, -4685.62, -4666.53, -3930.02, 0.000, 0.000, 0.000, 17:38:34.321
91, -3999.23, -4486.74, -4483.80, -3745.42, 0.000, 0.000, 0.000, 17:38:34.336
92, -4153.30, -4675.99, -4667.20, -3928.58, 0.000, 0.000, 0.000, 17:38:34.336
93, -4347.26, -4881.03, -4848.72, -4108.28, 0.000, 0.000, 0.000, 17:38:34.350
94, -4195.20, -4678.29, -4676.43, -3928.77, 0.000, 0.000, 0.000, 17:38:34.350
95, -3985.07, -4464.39, -4465.32, -3720.68, 0.000, 0.000, 0.000, 17:38:34.351
96, -4138.34, -4676.24, -4663.94, -3925.29, 0.000, 0.000, 0.000, 17:38:34.351
97, -4348.52, -4886.79, -4853.98, -4114.26, 0.000, 0.000, 0.000, 17:38:34.365
98, -4178.49, -4677.68, -4659.76, -3916.60, 0.000, 0.000, 0.000, 17:38:34.365
99, -4003.53, -4489.66, -4481.17, -3729.97, 0.000, 0.000, 0.000, 17:38:34.396
100, -4159.04, -4695.85, -4683.61, -3938.61, 0.000, 0.000, 0.000, 17:38:34.396
101, -4346.23, -4867.06, -4852.73, -4114.45, 0.000, 0.000, 0.000, 17:38:34.396
102, -4194.00, -4704.21, -4676.05, -3929.48, 0.000, 0.000, 0.000, 17:38:34.396
103, -3996.35, -4494.13, -4489.76, -3738.77, 0.000, 0.000, 0.000, 17:38:34.397
104, -4152.50, -4682.80, -4670.35, -3933.48, 0.000, 0.000, 0.000, 17:38:34.397
105, -4333.24, -4864.56, -4837.01, -4115.36, 0.000, 0.000, 0.000, 17:38:34.412
106, -4188.31, -4682.84, -4669.57, -3927.69, 0.000, 0.000, 0.000, 17:38:34.412
107, -4019.78, -4514.26, -4491.08, -3748.53, 0.000, 0.000, 0.000, 17:38:34.412
108, -4144.73, -4680.74, -4657.86, -3916.16, 0.000, 0.000, 0.000, 17:38:34.412
109, -4349.33, -4887.31, -4859.52, -4115.03, 0.000, 0.000, 0.000, 17:38:34.426
110, -4199.99, -4708.39, -4690.07, -3936.71, 0.000, 0.000, 0.000, 17:38:34.427
111, -3983.75, -4483.97, -4473.04, -3723.92, 0.000, 0.000, 0.000, 17:38:34.441
112, -4123.36, -4664.24, -4640.55, -3905.79, 0.000, 0.000, 0.000, 17:38:34.441
113, -4336.85, -4873.65, -4829.47, -4104.73, 0.000, 0.000, 0.000, 17:38:34.441
114, -4203.25, -4715.17, -4694.96, -3944.74, 0.000, 0.000, 0.000, 17:38:34.441
115, -4005.31, -4498.98, -4497.63, -3742.97, 0.000, 0.000, 0.000, 17:38:34.470
116, -4144.48, -4678.19, -4667.41, -3927.47, 0.000, 0.000, 0.000, 17:38:34.470
117, -4337.09, -4870.37, -4851.58, -4107.72, 0.000, 0.000, 0.000, 17:38:34.471
118, -4194.50, -4703.34, -4677.75, -3938.80, 0.000, 0.000, 0.000, 17:38:34.471
119, -4004.20, -4491.23, -4477.37, -3736.40, 0.000, 0.000, 0.000, 17:38:34.472
120, -4123.67, -4664.98, -4649.46, -3902.25, 0.000, 0.000, 0.000, 17:38:34.472
121, -4341.92, -4874.25, -4859.11, -4107.31, 0.000, 0.000, 0.000, 17:38:34.486
122, -4204.41, -4706.88, -4687.04, -3942.19, 0.000, 0.000, 0.000, 17:38:34.486
123, -4005.32, -4491.13, -4483.37, -3735.02, 0.000, 0.000, 0.000, 17:38:34.515
124, -4139.53, -4667.99, -4652.78, -3911.67, 0.000, 0.000, 0.000, 17:38:34.515
125, -4354.74, -4875.30, -4856.30, -4115.17, 0.000, 0.000, 0.000, 17:38:34.516
126, -4211.71, -4716.83, -4697.68, -3948.85, 0.000, 0.000, 0.000, 17:38:34.516
127, -4001.89, -4505.59, -4486.08, -3733.82, 0.000, 0.000, 0.000, 17:38:34.517
128, -4107.64, -4649.00, -4639.74, -3891.95, 0.000, 0.000, 0.000, 17:38:34.517
129, -4358.57, -4896.39, -4883.40, -4109.14, 0.000, 0.000, 0.000, 17:38:34.546
130, -4195.57, -4700.92, -4686.13, -3939.50, 0.000, 0.000, 0.000, 17:38:34.546
131, -3996.31, -4495.40, -4471.95, -3738.47, 0.000, 0.000, 0.000, 17:38:34.547
132, -4115.72, -4648.30, -4630.65, -3901.56, 0.000, 0.000, 0.000, 17:38:34.547
133, -4342.29, -4878.08, -4858.70, -4117.03, 0.000, 0.000, 0.000, 17:38:34.547
134, -4201.22, -4707.88, -4688.15, -3947.44, 0.000, 0.000, 0.000, 17:38:34.547
135, -4003.86, -4491.26, -4484.44, -3743.15, 0.000, 0.000, 0.000, 17:38:34.578
136, -4106.64, -4640.52, -4637.40, -3891.22, 0.000, 0.000, 0.000, 17:38:34.578
137, -4346.63, -4876.05, -4851.47, -4119.61, 0.000, 0.000, 0.000, 17:38:34.578
138, -4191.09, -4705.55, -4684.44, -3948.06, 0.000, 0.000, 0.000, 17:38:34.578
139, -3989.73, -4485.05, -4481.23, -3728.26, 0.000, 0.000, 0.000, 17:38:34.579
140, -4109.46, -4643.39, -4631.84, -3897.25, 0.000, 0.000, 0.000, 17:38:34.579
141, -4337.66, -4880.38, -4848.67, -4108.92, 0.000, 0.000, 0.000, 17:38:34.591
142, -4196.65, -4711.67, -4686.79, -3937.81, 0.000, 0.000, 0.000, 17:38:34.591
143, -3994.68, -4490.17, -4479.97, -3732.54, 0.000, 0.000, 0.000, 17:38:34.591
144, -4111.06, -4645.20, -4638.66, -3891.86, 0.000, 0.000, 0.000, 17:38:34.592
145, -4353.27, -4902.18, -4864.79, -4126.34, 0.000, 0.000, 0.000, 17:38:34.606
146, -4205.42, -4725.87, -4694.30, -3959.74, 0.000, 0.000, 0.000, 17:38:34.606
147, -4010.34, -4510.74, -4491.00, -3732.71, 0.000, 0.000, 0.000, 17:38:34.620
148, -4108.66, -4630.47, -4626.97, -3874.58, 0.000, 0.000, 0.000, 17:38:34.620
149, -4342.47, -4890.03, -4855.26, -4123.84, 0.000, 0.000, 0.000, 17:38:34.621
150, -4200.19, -4711.41, -4701.00, -3942.88, 0.000, 0.000, 0.000, 17:38:34.621
151, -4001.35, -4499.72, -4486.30, -3743.97, 0.000, 0.000, 0.000, 17:38:34.651
152, -4103.41, -4632.48, -4626.71, -3887.30, 0.000, 0.000, 0.000, 17:38:34.651
153, -4342.96, -4877.69, -4857.91, -4112.65, 0.000, 0.000, 0.000, 17:38:34.651
154, -4208.89, -4727.70, -4695.59, -3962.12, 0.000, 0.000, 0.000, 17:38:34.651
155, -3998.24, -4500.53, -4475.90, -3742.71, 0.000, 0.000, 0.000, 17:38:34.652
156, -4099.35, -4639.43, -4625.14, -3878.00, 0.000, 0.000, 0.000, 17:38:34.652
157, -4326.94, -4879.22, -4850.11, -4121.19, 0.000, 0.000, 0.000, 17:38:34.665
158, -4205.37, -4713.69, -4701.19, -3960.11, 0.000, 0.000, 0.000, 17:38:34.666
159, -4011.91, -4505.61, -4502.96, -3741.29, 0.000, 0.000, 0.000, 17:38:34.696
160, -4100.98, -4624.15, -4616.82, -3867.05, 0.000, 0.000, 0.000, 17:38:34.696
161, -4343.80, -4890.01, -4860.60, -4123.42, 0.000, 0.000, 0.000, 17:38:34.697
162, -4217.26, -4720.77, -4716.34, -3965.77, 0.000, 0.000, 0.000, 17:38:34.697
163, -4003.10, -4507.75, -4487.23, -3747.64, 0.000, 0.000, 0.000, 17:38:34.697
164, -4093.25, -4624.30, -4606.38, -3868.14, 0.000, 0.000, 0.000, 17:38:34.697
165, -4337.81, -4890.77, -4858.06, -4115.64, 0.000, 0.000, 0.000, 17:38:34.726
166, -4215.62, -4726.39, -4704.39, -3959.11, 0.000, 0.000, 0.000, 17:38:34.727
167, -4027.81, -4527.35, -4516.12, -3761.24, 0.000, 0.000, 0.000, 17:38:34.728
168, -4100.06, -4640.57, -4616.29, -3885.04, 0.000, 0.000, 0.000, 17:38:34.728
169, -4349.46, -4892.13, -4879.98, -4131.48, 0.000, 0.000, 0.000, 17:38:34.728
170, -4210.90, -4716.32, -4697.75, -3958.01, 0.000, 0.000, 0.000, 17:38:34.728
171, -4002.59, -4497.41, -4493.54, -3747.36, 0.000, 0.000, 0.000, 17:38:34.740
172, -4092.80, -4614.54, -4610.75, -3874.88, 0.000, 0.000, 0.000, 17:38:34.741
173, -4342.37, -4880.95, -4839.63, -4118.15, 0.000, 0.000, 0.000, 17:38:34.741
174, -4213.56, -4724.19, -4690.86, -3956.98, 0.000, 0.000, 0.000, 17:38:34.741
175, -4004.30, -4503.22, -4485.84, -3748.48, 0.000, 0.000, 0.000, 17:38:34.756
176, -4099.25, -4629.24, -4613.67, -3875.66, 0.000, 0.000, 0.000, 17:38:34.756
177, -4348.45, -4902.17, -4873.07, -4127.56, 0.000, 0.000, 0.000, 17:38:34.771
178, -4221.00, -4732.88, -4707.08, -3966.69, 0.000, 0.000, 0.000, 17:38:34.771
179, -4013.95, -4494.39, -4487.41, -3742.01, 0.000, 0.000, 0.000, 17:38:34.771
180, -4093.45, -4615.51, -4619.95, -3875.61, 0.000, 0.000, 0.000, 17:38:34.771
181, -4354.39, -4888.46, -4868.03, -4126.97, 0.000, 0.000, 0.000, 17:38:34.785
182, -4229.01, -4736.91, -4718.12, -3965.91, 0.000, 0.000, 0.000, 17:38:34.785
183, -4019.68, -4511.40, -4505.59, -3749.72, 0.000, 0.000, 0.000, 17:38:34.801
184, -4087.91, -4617.42, -4617.22, -3853.70, 0.000, 0.000, 0.000, 17:38:34.801
185, -4361.99, -4911.71, -4882.73, -4133.36, 0.000, 0.000, 0.000, 17:38:34.802
186, -4241.15, -4757.39, -4727.16, -3981.19, 0.000, 0.000, 0.000, 17:38:34.802
187, -4032.47, -4532.92, -4520.45, -3770.87, 0.000, 0.000, 0.000, 17:38:34.816
188, -4077.47, -4604.45, -4591.17, -3861.99, 0.000, 0.000, 0.000, 17:38:34.816
189, -4333.04, -4874.49, -4850.65, -4124.74, 0.000, 0.000, 0.000, 17:38:34.831
190, -4203.23, -4715.54, -4684.98, -3948.35, 0.000, 0.000, 0.000, 17:38:34.831
191, -4013.34, -4516.82, -4497.47, -3760.64, 0.000, 0.000, 0.000, 17:38:34.831
192, -4069.48, -4601.53, -4586.27, -3855.28, 0.000, 0.000, 0.000, 17:38:34.831
193, -4331.49, -4881.81, -4854.01, -4112.06, 0.000, 0.000, 0.000, 17:38:34.847
194, -4223.41, -4735.29, -4706.99, -3968.33, 0.000, 0.000, 0.000, 17:38:34.847
195, -4024.87, -4511.59, -4513.01, -3764.26, 0.000, 0.000, 0.000, 17:38:34.861
196, -4074.35, -4593.59, -4594.56, -3853.11, 0.000, 0.000, 0.000, 17:38:34.861
197, -4329.55, -4885.80, -4861.36, -4132.32, 0.000, 0.000, 0.000, 17:38:34.876
198, -4238.19, -4756.04, -4730.18, -3970.26, 0.000, 0.000, 0.000, 17:38:34.876
199, -4022.14, -4528.47, -4515.61, -3763.31, 0.000, 0.000, 0.000, 17:38:34.876
200, -4068.37, -4592.94, -4578.71, -3840.05, 0.000, 0.000, 0.000, 17:38:34.876
0, -4347.69, -4882.20, -4855.88, -4120.04, 0.000, 0.000, 0.000, 17:38:34.877
1, -4231.42, -4735.60, -4714.18, -3966.13, 0.000, 0.000, 0.000, 17:38:34.891
2, -4020.85, -4515.73, -4497.10, -3766.88, 0.000, 0.000, 0.000, 17:38:34.891
3, -4077.34, -4594.24, -4592.11, -3860.71, 0.000, 0.000, 0.000, 17:38:34.905
4, -4353.50, -4886.03, -4864.71, -4124.75, 0.000, 0.000, 0.000, 17:38:34.905
5, -4230.01, -4737.80, -4712.56, -3972.53, 0.000, 0.000, 0.000, 17:38:34.906
6, -4026.30, -4522.52, -4500.29, -3761.41, 0.000, 0.000, 0.000, 17:38:34.906
7, -4062.70, -4582.12, -4570.15, -3829.13, 0.000, 0.000, 0.000, 17:38:34.921
8, -4341.86, -4882.67, -4866.95, -4116.36, 0.000, 0.000, 0.000, 17:38:34.921
9, -4230.38, -4754.13, -4727.77, -3976.19, 0.000, 0.000, 0.000, 17:38:34.936
10, -4041.01, -4541.39, -4528.64, -3770.02, 0.000, 0.000, 0.000, 17:38:34.937
11, -4074.01, -4591.84, -4587.09, -3841.02, 0.000, 0.000, 0.000, 17:38:34.950
12, -4342.86, -4877.31, -4869.10, -4127.77, 0.000, 0.000, 0.000, 17:38:34.950
13, -4228.04, -4728.03, -4721.73, -3980.56, 0.000, 0.000, 0.000, 17:38:34.951
14, -4041.90, -4532.41, -4525.92, -3776.29, 0.000, 0.000, 0.000, 17:38:34.951
15, -4065.43, -4576.23, -4577.10, -3835.72, 0.000, 0.000, 0.000, 17:38:34.966
16, -4344.58, -4890.45, -4861.54, -4123.99, 0.000, 0.000, 0.000, 17:38:34.966
17, -4217.80, -4747.24, -4721.27, -3979.52, 0.000, 0.000, 0.000, 17:38:34.967
18, -4025.05, -4514.59, -4509.02, -3770.00, 0.000, 0.000, 0.000, 17:38:34.967
19, -4064.21, -4567.08, -4567.90, -3830.50, 0.000, 0.000, 0.000, 17:38:34.981
20, -4351.18, -4894.41, -4860.11, -4128.52, 0.000, 0.000, 0.000, 17:38:34.982
21, -4235.78, -4749.35, -4732.68, -3984.73, 0.000, 0.000, 0.000, 17:38:34.996
22, -4028.30, -4530.04, -4516.69, -3773.05, 0.000, 0.000, 0.000, 17:38:34.996
23, -4049.86, -4586.07, -4568.56, -3829.73, 0.000, 0.000, 0.000, 17:38:34.996
24, -4338.19, -4869.97, -4856.44, -4116.10, 0.000, 0.000, 0.000, 17:38:34.996
25, -4241.00, -4755.31, -4727.89, -3980.92, 0.000, 0.000, 0.000, 17:38:35.026
26, -4031.66, -4519.99, -4515.44, -3756.95, 0.000, 0.000, 0.000, 17:38:35.027
27, -4054.81, -4573.79, -4567.08, -3831.31, 0.000, 0.000, 0.000, 17:38:35.027
28, -4350.01, -4886.41, -4858.92, -4125.43, 0.000, 0.000, 0.000, 17:38:35.027
29, -4227.66, -4751.92, -4731.36, -3984.89, 0.000, 0.000, 0.000, 17:38:35.028
30, -4018.47, -4525.16, -4502.78, -3766.19, 0.000, 0.000, 0.000, 17:38:35.028
31, -4049.33, -4575.43, -4558.79, -3820.65, 0.000, 0.000, 0.000, 17:38:35.041
32, -4354.39, -4902.00, -4881.42, -4120.88, 0.000, 0.000, 0.000, 17:38:35.041
33, -4255.11, -4762.85, -4735.81, -4000.06, 0.000, 0.000, 0.000, 17:38:35.056
34, -4026.21, -4534.11, -4506.25, -3758.72, 0.000, 0.000, 0.000, 17:38:35.056
35, -4053.33, -4574.83, -4567.03, -3814.14, 0.000, 0.000, 0.000, 17:38:35.056
36, -4333.05, -4875.33, -4851.18, -4107.87, 0.000, 0.000, 0.000, 17:38:35.056
37, -4238.14, -4751.05, -4724.14, -3996.35, 0.000, 0.000, 0.000, 17:38:35.070
38, -4023.08, -4527.84, -4509.35, -3766.60, 0.000, 0.000, 0.000, 17:38:35.070
39, -4043.66, -4572.60, -4554.60, -3813.72, 0.000, 0.000, 0.000, 17:38:35.086
40, -4331.51, -4883.05, -4857.31, -4110.42, 0.000, 0.000, 0.000, 17:38:35.086
41, -4241.02, -4754.39, -4743.92, -3986.78, 0.000, 0.000, 0.000, 17:38:35.087
42, -4014.31, -4510.37, -4506.81, -3754.58, 0.000, 0.000, 0.000, 17:38:35.087
43, -4050.59, -4552.87, -4548.86, -3815.14, 0.000, 0.000, 0.000, 17:38:35.101
44, -4335.89, -4881.91, -4856.14, -4119.19, 0.000, 0.000, 0.000, 17:38:35.101
45, -4242.89, -4762.96, -4740.90, -3976.79, 0.000, 0.000, 0.000, 17:38:35.115
46, -4053.72, -4554.75, -4521.30, -3783.66, 0.000, 0.000, 0.000, 17:38:35.116
47, -4055.84, -4569.58, -4568.05, -3819.64, 0.000, 0.000, 0.000, 17:38:35.131
48, -4346.98, -4877.80, -4877.05, -4121.63, 0.000, 0.000, 0.000, 17:38:35.131
49, -4258.05, -4745.57, -4728.71, -4009.70, 0.000, 0.000, 0.000, 17:38:35.138
50, -4051.04, -4532.47, -4527.19, -3777.61, 0.000, 0.000, 0.000, 17:38:35.138
51, -4035.56, -4550.61, -4545.21, -3801.71, 0.000, 0.000, 0.000, 17:38:35.147
52, -4336.17, -4898.94, -4856.83, -4114.97, 0.000, 0.000, 0.000, 17:38:35.147
53, -4248.37, -4772.82, -4745.39, -4000.11, 0.000, 0.000, 0.000, 17:38:35.147
54, -4047.89, -4537.98, -4526.50, -3793.50, 0.000, 0.000, 0.000, 17:38:35.147
55, -4036.18, -4549.94, -4544.27, -3807.39, 0.000, 0.000, 0.000, 17:38:35.161
56, -4347.58, -4884.19, -4858.21, -4133.81, 0.000, 0.000, 0.000, 17:38:35.161
57, -4252.52, -4759.44, -4740.19, -3996.62, 0.000, 0.000, 0.000, 17:38:35.191
58, -4034.77, -4540.74, -4522.09, -3776.57, 0.000, 0.000, 0.000, 17:38:35.191
59, -4022.78, -4546.29, -4537.65, -3797.85, 0.000, 0.000, 0.000, 17:38:35.191
60, -4339.59, -4894.48, -4873.24, -4120.54, 0.000, 0.000, 0.000, 17:38:35.192
61, -4239.17, -4755.16, -4736.58, -3984.80, 0.000, 0.000, 0.000, 17:38:35.206
62, -4055.00, -4537.46, -4526.75, -3788.50, 0.000, 0.000, 0.000, 17:38:35.206
63, -4031.12, -4550.10, -4547.49, -3795.08, 0.000, 0.000, 0.000, 17:38:35.206
64, -4333.32, -4894.05, -4863.00, -4130.00, 0.000, 0.000, 0.000, 17:38:35.206
65, -4245.75, -4769.69, -4745.90, -4004.43, 0.000, 0.000, 0.000, 17:38:35.207
66, -4041.17, -4531.60, -4524.82, -3780.14, 0.000, 0.000, 0.000, 17:38:35.207
67, -4022.60, -4525.83, -4524.97, -3786.08, 0.000, 0.000, 0.000, 17:38:35.220
68, -4316.79, -4865.22, -4836.85, -4104.35, 0.000, 0.000, 0.000, 17:38:35.220
69, -4260.11, -4773.30, -4745.79, -4009.49, 0.000, 0.000, 0.000, 17:38:35.236
70, -4051.09, -4547.90, -4543.49, -3790.92, 0.000, 0.000, 0.000, 17:38:35.236
71, -4026.10, -4547.74, -4536.05, -3792.70, 0.000, 0.000, 0.000, 17:38:35.237
72, -4334.65, -4878.81, -4848.57, -4104.26, 0.000, 0.000, 0.000, 17:38:35.237
73, -4246.49, -4760.84, -4749.96, -3995.37, 0.000, 0.000, 0.000, 17:38:35.251
74, -4051.65, -4539.56, -4525.79, -3781.55, 0.000, 0.000, 0.000, 17:38:35.251
75, -4016.97, -4542.55, -4535.15, -3779.93, 0.000, 0.000, 0.000, 17:38:35.282
76, -4331.17, -4886.61, -4849.46, -4114.00, 0.000, 0.000, 0.000, 17:38:35.282
77, -4250.53, -4768.48, -4753.56, -4002.72, 0.000, 0.000, 0.000, 17:38:35.282
78, -4046.83, -4539.86, -4531.76, -3791.64, 0.000, 0.000, 0.000, 17:38:35.282
79, -4016.55, -4531.83, -4531.65, -3786.87, 0.000, 0.000, 0.000, 17:38:35.282
80, -4326.77, -4874.27, -4845.02, -4102.95, 0.000, 0.000, 0.000, 17:38:35.282
81, -4257.20, -4779.62, -4755.59, -4011.28, 0.000, 0.000, 0.000, 17:38:35.296
82, -4080.49, -4577.03, -4560.06, -3812.62, 0.000, 0.000, 0.000, 17:38:35.296
83, -4018.13, -4540.95, -4526.50, -3788.12, 0.000, 0.000, 0.000, 17:38:35.296
84, -4325.22, -4885.11, -4851.41, -4099.89, 0.000, 0.000, 0.000, 17:38:35.296
85, -4263.93, -4772.65, -4759.93, -4006.08, 0.000, 0.000, 0.000, 17:38:35.311
86, -4044.27, -4529.89, -4534.70, -3790.27, 0.000, 0.000, 0.000, 17:38:35.311
87, -4015.80, -4523.29, -4530.84, -3779.28, 0.000, 0.000, 0.000, 17:38:35.326
88, -4319.47, -4875.08, -4838.59, -4104.54, 0.000, 0.000, 0.000, 17:38:35.326
89, -4254.29, -4769.02, -4744.72, -4010.36, 0.000, 0.000, 0.000, 17:38:35.326
90, -4057.05, -4555.39, -4538.99, -3797.62, 0.000, 0.000, 0.000, 17:38:35.326
91, -4028.78, -4532.90, -4526.85, -3783.01, 0.000, 0.000, 0.000, 17:38:35.341
92, -4330.82, -4869.03, -4860.15, -4113.87, 0.000, 0.000, 0.000, 17:38:35.341
93, -4251.43, -4768.31, -4740.67, -4006.53, 0.000, 0.000, 0.000, 17:38:35.356
94, -4077.36, -4571.71, -4557.29, -3810.81, 0.000, 0.000, 0.000, 17:38:35.356
95, -4015.13, -4524.32, -4522.33, -3781.95, 0.000, 0.000, 0.000, 17:38:35.356
96, -4322.52, -4879.89, -4848.22, -4101.09, 0.000, 0.000, 0.000, 17:38:35.356
97, -4270.44, -4796.20, -4769.98, -4018.73, 0.000, 0.000, 0.000, 17:38:35.370
98, -4072.97, -4576.60, -4555.23, -3812.98, 0.000, 0.000, 0.000, 17:38:35.370
99, -4000.86, -4530.47, -4522.83, -3778.28, 0.000, 0.000, 0.000, 17:38:35.386
100, -4313.20, -4851.68, -4828.87, -4102.28, 0.000, 0.000, 0.000, 17:38:35.386
101, -4268.67, -4781.30, -4758.88, -4023.88, 0.000, 0.000, 0.000, 17:38:35.401
102, -4077.29, -4565.70, -4552.31, -3802.31, 0.000, 0.000, 0.000, 17:38:35.401
103, -4000.69, -4517.17, -4511.94, -3765.09, 0.000, 0.000, 0.000, 17:38:35.401
104, -4318.87, -4863.75, -4838.00, -4105.30, 0.000, 0.000, 0.000, 17:38:35.401
105, -4273.61, -4811.49, -4768.65, -4030.59, 0.000, 0.000, 0.000, 17:38:35.431
106, -4063.26, -4567.87, -4544.98, -3811.82, 0.000, 0.000, 0.000, 17:38:35.432
107, -3999.73, -4513.15, -4499.83, -3766.29, 0.000, 0.000, 0.000, 17:38:35.432
108, -4323.10, -4870.18, -4848.74, -4114.82, 0.000, 0.000, 0.000, 17:38:35.432
109, -4268.48, -4792.35, -4774.20, -4021.56, 0.000, 0.000, 0.000, 17:38:35.432
110, -4073.67, -4572.85, -4544.63, -3799.36, 0.000, 0.000, 0.000, 17:38:35.432
111, -3998.79, -4520.85, -4512.24, -3765.59, 0.000, 0.000, 0.000, 17:38:35.446
112, -4325.01, -4877.73, -4856.36, -4114.94, 0.000, 0.000, 0.000, 17:38:35.446
113, -4269.22, -4788.16, -4763.39, -4031.74, 0.000, 0.000, 0.000, 17:38:35.446
114, -4061.05, -4548.81, -4550.84, -3798.09, 0.000, 0.000, 0.000, 17:38:35.446
115, -4009.24, -4514.75, -4527.10, -3767.42, 0.000, 0.000, 0.000, 17:38:35.461
116, -4321.29, -4875.89, -4841.69, -4102.22, 0.000, 0.000, 0.000, 17:38:35.461
117, -4282.26, -4801.17, -4774.74, -4036.55, 0.000, 0.000, 0.000, 17:38:35.476
118, -4076.05, -4571.93, -4559.21, -3812.31, 0.000, 0.000, 0.000, 17:38:35.476
119, -4012.14, -4508.99, -4509.57, -3777.10, 0.000, 0.000, 0.000, 17:38:35.476
120, -4311.49, -4855.87, -4849.86, -4094.44, 0.000, 0.000, 0.000, 17:38:35.476
121, -4270.37, -4783.32, -4756.79, -4018.94, 0.000, 0.000, 0.000, 17:38:35.491
122, -4076.35, -4581.04, -4559.23, -3815.06, 0.000, 0.000, 0.000, 17:38:35.491
123, -4004.34, -4512.25, -4499.01, -3762.47, 0.000, 0.000, 0.000, 17:38:35.506
124, -4315.76, -4859.27, -4836.54, -4092.63, 0.000, 0.000, 0.000, 17:38:35.506
125, -4286.28, -4796.63, -4790.40, -4045.91, 0.000, 0.000, 0.000, 17:38:35.506
126, -4074.99, -4570.09, -4556.38, -3808.36, 0.000, 0.000, 0.000, 17:38:35.506
127, -4011.78, -4515.52, -4514.36, -3769.41, 0.000, 0.000, 0.000, 17:38:35.520
128, -4324.04, -4860.14, -4847.40, -4108.40, 0.000, 0.000, 0.000, 17:38:35.520
129, -4273.76, -4783.59, -4764.54, -4031.37, 0.000, 0.000, 0.000, 17:38:35.536
130, -4088.36, -4580.28, -4570.04, -3817.78, 0.000, 0.000, 0.000, 17:38:35.536
131, -4005.89, -4522.59, -4497.40, -3773.09, 0.000, 0.000, 0.000, 17:38:35.543
132, -4325.91, -4857.49, -4839.76, -4103.79, 0.000, 0.000, 0.000, 17:38:35.544
133, -4280.87, -4807.91, -4779.58, -4037.69, 0.000, 0.000, 0.000, 17:38:35.551
134, -4098.04, -4599.27, -4586.04, -3836.07, 0.000, 0.000, 0.000, 17:38:35.551
135, -4004.46, -4519.30, -4504.40, -3770.73, 0.000, 0.000, 0.000, 17:38:35.566
136, -4311.96, -4852.96, -4832.00, -4098.09, 0.000, 0.000, 0.000, 17:38:35.566
137, -4285.52, -4809.80, -4777.03, -4036.78, 0.000, 0.000, 0.000, 17:38:35.566
138, -4090.82, -4587.49, -4574.19, -3827.67, 0.000, 0.000, 0.000, 17:38:35.566
139, -4002.35, -4510.83, -4505.21, -3763.46, 0.000, 0.000, 0.000, 17:38:35.581
140, -4325.27, -4884.43, -4846.35, -4114.86, 0.000, 0.000, 0.000, 17:38:35.581
141, -4292.07, -4808.56, -4795.98, -4051.27, 0.000, 0.000, 0.000, 17:38:35.595
142, -4088.34, -4601.05, -4591.71, -3831.89, 0.000, 0.000, 0.000, 17:38:35.595
143, -4003.42, -4515.11, -4511.18, -3762.04, 0.000, 0.000, 0.000, 17:38:35.596
144, -4324.92, -4883.80, -4852.61, -4103.85, 0.000, 0.000, 0.000, 17:38:35.596
145, -4296.37, -4821.87, -4791.90, -4047.80, 0.000, 0.000, 0.000, 17:38:35.611
146, -4081.30, -4580.77, -4562.47, -3828.40, 0.000, 0.000, 0.000, 17:38:35.614
147, -3974.27, -4479.57, -4472.26, -3739.14, 0.000, 0.000, 0.000, 17:38:35.626
148, -4300.14, -4843.50, -4822.96, -4090.69, 0.000, 0.000, 0.000, 17:38:35.626
149, -4268.60, -4797.61, -4763.26, -4033.56, 0.000, 0.000, 0.000, 17:38:35.626
150, -4078.47, -4574.25, -4564.53, -3818.68, 0.000, 0.000, 0.000, 17:38:35.626
151, -3992.80, -4496.15, -4488.87, -3743.36, 0.000, 0.000, 0.000, 17:38:35.640
152, -4298.23, -4849.37, -4830.75, -4080.28, 0.000, 0.000, 0.000, 17:38:35.640
153, -4287.98, -4804.96, -4796.16, -4041.70, 0.000, 0.000, 0.000, 17:38:35.656
154, -4088.52, -4567.73, -4561.82, -3827.63, 0.000, 0.000, 0.000, 17:38:35.656
155, -3977.03, -4492.92, -4475.55, -3743.00, 0.000, 0.000, 0.000, 17:38:35.657
156, -4301.25, -4842.49, -4825.71, -4095.14, 0.000, 0.000, 0.000, 17:38:35.657
157, -4283.47, -4804.14, -4783.79, -4044.49, 0.000, 0.000, 0.000, 17:38:35.671
158, -4100.13, -4587.71, -4578.03, -3833.85, 0.000, 0.000, 0.000, 17:38:35.671
159, -3984.36, -4482.40, -4483.74, -3741.60, 0.000, 0.000, 0.000, 17:38:35.685
160, -4304.33, -4861.76, -4830.70, -4091.02, 0.000, 0.000, 0.000, 17:38:35.685
161, -4296.26, -4814.12, -4800.27, -4050.16, 0.000, 0.000, 0.000, 17:38:35.686
162, -4099.63, -4602.53, -4575.08, -3839.34, 0.000, 0.000, 0.000, 17:38:35.686
163, -3978.68, -4497.98, -4478.48, -3747.59, 0.000, 0.000, 0.000, 17:38:35.701
164, -4297.37, -4842.83, -4818.74, -4077.05, 0.000, 0.000, 0.000, 17:38:35.701
165, -4285.69, -4809.33, -4788.43, -4039.97, 0.000, 0.000, 0.000, 17:38:35.716
166, -4094.50, -4598.26, -4586.07, -3828.39, 0.000, 0.000, 0.000, 17:38:35.716
167, -3982.66, -4478.11, -4489.52, -3745.12, 0.000, 0.000, 0.000, 17:38:35.716
168, -4303.68, -4856.33, -4832.54, -4098.91, 0.000, 0.000, 0.000, 17:38:35.716
169, -4289.24, -4813.69, -4783.69, -4052.06, 0.000, 0.000, 0.000, 17:38:35.731
170, -4102.93, -4606.25, -4584.60, -3848.52, 0.000, 0.000, 0.000, 17:38:35.731
171, -3988.09, -4482.48, -4489.80, -3744.05, 0.000, 0.000, 0.000, 17:38:35.746
172, -4289.50, -4830.51, -4820.55, -4077.45, 0.000, 0.000, 0.000, 17:38:35.746
173, -4292.80, -4811.23, -4787.59, -4047.30, 0.000, 0.000, 0.000, 17:38:35.747
174, -4091.47, -4599.34, -4582.45, -3832.53, 0.000, 0.000, 0.000, 17:38:35.747
175, -3984.04, -4494.82, -4479.44, -3738.00, 0.000, 0.000, 0.000, 17:38:35.761
176, -4291.33, -4841.38, -4813.31, -4091.71, 0.000, 0.000, 0.000, 17:38:35.761
177, -4286.22, -4810.54, -4800.34, -4039.62, 0.000, 0.000, 0.000, 17:38:35.776
178, -4106.36, -4611.69, -4593.45, -3852.15, 0.000, 0.000, 0.000, 17:38:35.776
179, -3981.26, -4486.35, -4482.47, -3733.35, 0.000, 0.000, 0.000, 17:38:35.776
180, -4296.54, -4846.22, -4834.14, -4080.06, 0.000, 0.000, 0.000, 17:38:35.776
181, -4305.70, -4829.19, -4800.62, -4060.73, 0.000, 0.000, 0.000, 17:38:35.790
182, -4093.91, -4598.16, -4582.10, -3846.39, 0.000, 0.000, 0.000, 17:38:35.790
183, -3983.69, -4485.72, -4480.57, -3747.16, 0.000, 0.000, 0.000, 17:38:35.806
184, -4281.05, -4831.34, -4807.83, -4071.53, 0.000, 0.000, 0.000, 17:38:35.806
185, -4299.79, -4819.58, -4787.86, -4051.55, 0.000, 0.000, 0.000, 17:38:35.807
186, -4105.45, -4609.06, -4588.15, -3848.51, 0.000, 0.000, 0.000, 17:38:35.807
187, -3999.85, -4511.88, -4495.78, -3744.25, 0.000, 0.000, 0.000, 17:38:35.821
188, -4295.55, -4833.31, -4814.24, -4066.62, 0.000, 0.000, 0.000, 17:38:35.821
189, -4302.87, -4824.87, -4795.90, -4058.17, 0.000, 0.000, 0.000, 17:38:35.835
190, -4111.13, -4613.22, -4603.85, -3857.38, 0.000, 0.000, 0.000, 17:38:35.835
191, -3978.21, -4492.93, -4483.97, -3734.11, 0.000, 0.000, 0.000, 17:38:35.836
192, -4280.14, -4838.16, -4806.27, -4062.04, 0.000, 0.000, 0.000, 17:38:35.836
193, -4287.61, -4806.37, -4788.28, -4044.35, 0.000, 0.000, 0.000, 17:38:35.851
194, -4104.06, -4599.77, -4579.85, -3854.66, 0.000, 0.000, 0.000, 17:38:35.851
195, -3977.37, -4491.56, -4478.18, -3742.70, 0.000, 0.000, 0.000, 17:38:35.866
196, -4286.79, -4839.23, -4810.04, -4071.55, 0.000, 0.000, 0.000, 17:38:35.866
197, -4322.52, -4840.82, -4814.40, -4070.16, 0.000, 0.000, 0.000, 17:38:35.866
198, -4114.22, -4632.61, -4617.96, -3864.99, 0.000, 0.000, 0.000, 17:38:35.866
199, -3975.72, -4482.51, -4470.83, -3728.58, 0.000, 0.000, 0.000, 17:38:35.881
200, -4257.66, -4804.40, -4786.67, -4065.64, 0.000, 0.000, 0.000, 17:38:35.881
0, -4288.24, -4812.63, -4792.91, -4048.33, 0.000, 0.000, 0.000, 17:38:35.881
1, -4107.92, -4601.55, -4584.54, -3848.69, 0.000, 0.000, 0.000, 17:38:35.926
2, -3974.81, -4477.80, -4472.33, -3721.02, 0.000, 0.000, 0.000, 17:38:35.926
3, -4270.95, -4826.02, -4810.97, -4063.80, 0.000, 0.000, 0.000, 17:38:35.928
4, -4303.18, -4832.87, -4819.19, -4056.70, 0.000, 0.000, 0.000, 17:38:35.928
5, -4120.40, -4615.63, -4602.69, -3865.33, 0.000, 0.000, 0.000, 17:38:35.928
6, -3966.25, -4473.85, -4479.65, -3723.51, 0.000, 0.000, 0.000, 17:38:35.929
7, -4280.58, -4819.84, -4818.62, -4071.87, 0.000, 0.000, 0.000, 17:38:35.929
8, -4311.93, -4835.95, -4819.72, -4062.76, 0.000, 0.000, 0.000, 17:38:35.929
9, -4122.03, -4617.50, -4621.38, -3861.90, 0.000, 0.000, 0.000, 17:38:35.929
10, -3969.11, -4466.56, -4470.84, -3721.68, 0.000, 0.000, 0.000, 17:38:35.929
11, -4256.35, -4811.19, -4791.29, -4048.13, 0.000, 0.000, 0.000, 17:38:35.940
12, -4304.25, -4827.17, -4819.27, -4067.93, 0.000, 0.000, 0.000, 17:38:35.940
13, -4125.42, -4630.17, -4612.60, -3877.26, 0.000, 0.000, 0.000, 17:38:35.956
14, -3975.62, -4479.62, -4483.16, -3725.32, 0.000, 0.000, 0.000, 17:38:35.956
15, -4260.97, -4814.37, -4799.77, -4054.94, 0.000, 0.000, 0.000, 17:38:35.971
16, -4310.69, -4847.40, -4812.75, -4061.20, 0.000, 0.000, 0.000, 17:38:35.971
17, -4115.64, -4624.11, -4612.93, -3859.48, 0.000, 0.000, 0.000, 17:38:35.979
18, -3982.01, -4470.82, -4477.50, -3727.81, 0.000, 0.000, 0.000, 17:38:35.979
19, -4257.87, -4799.90, -4779.46, -4044.99, 0.000, 0.000, 0.000, 17:38:35.985
20, -4290.75, -4817.66, -4798.73, -4058.33, 0.000, 0.000, 0.000, 17:38:35.986
21, -4115.54, -4615.53, -4607.49, -3855.72, 0.000, 0.000, 0.000, 17:38:36.001
22, -3961.49, -4470.04, -4459.51, -3716.90, 0.000, 0.000, 0.000, 17:38:36.001
23, -4266.53, -4818.87, -4794.15, -4053.16, 0.000, 0.000, 0.000, 17:38:36.002
24, -4319.81, -4846.42, -4830.12, -4066.77, 0.000, 0.000, 0.000, 17:38:36.002
25, -4127.19, -4631.05, -4614.23, -3864.42, 0.000, 0.000, 0.000, 17:38:36.016
26, -3979.22, -4474.03, -4471.52, -3721.61, 0.000, 0.000, 0.000, 17:38:36.016
27, -4258.55, -4801.16, -4772.99, -4052.12, 0.000, 0.000, 0.000, 17:38:36.031
28, -4298.45, -4827.14, -4792.56, -4062.90, 0.000, 0.000, 0.000, 17:38:36.031
29, -4129.86, -4628.19, -4608.49, -3868.68, 0.000, 0.000, 0.000, 17:38:36.031
30, -3981.82, -4484.04, -4466.03, -3725.16, 0.000, 0.000, 0.000, 17:38:36.031
31, -4261.24, -4810.93, -4797.59, -4047.30, 0.000, 0.000, 0.000, 17:38:36.061
32, -4311.01, -4846.04, -4812.06, -4070.43, 0.000, 0.000, 0.000, 17:38:36.062
33, -4109.91, -4613.79, -4597.03, -3857.43, 0.000, 0.000, 0.000, 17:38:36.062
34, -3975.12, -4491.04, -4466.50, -3727.87, 0.000, 0.000, 0.000, 17:38:36.062
35, -4251.29, -4796.12, -4780.36, -4039.86, 0.000, 0.000, 0.000, 17:38:36.062
36, -4298.33, -4836.11, -4805.93, -4057.02, 0.000, 0.000, 0.000, 17:38:36.062
37, -4136.88, -4635.96, -4614.32, -3875.62, 0.000, 0.000, 0.000, 17:38:36.076
38, -3963.34, -4467.23, -4471.21, -3722.50, 0.000, 0.000, 0.000, 17:38:36.076
39, -4237.99, -4795.90, -4776.70, -4036.53, 0.000, 0.000, 0.000, 17:38:36.090
40, -4295.52, -4824.24, -4803.85, -4056.54, 0.000, 0.000, 0.000, 17:38:36.090
41, -4128.31, -4630.29, -4623.09, -3879.24, 0.000, 0.000, 0.000, 17:38:36.091
42, -3990.22, -4489.63, -4479.49, -3731.82, 0.000, 0.000, 0.000, 17:38:36.091
43, -4257.86, -4805.40, -4771.42, -4044.40, 0.000, 0.000, 0.000, 17:38:36.106
44, -4326.49, -4852.26, -4820.77, -4080.34, 0.000, 0.000, 0.000, 17:38:36.106
45, -4124.56, -4619.43, -4613.77, -3878.13, 0.000, 0.000, 0.000, 17:38:36.121
46, -3956.49, -4458.83, -4453.00, -3701.99, 0.000, 0.000, 0.000, 17:38:36.121
47, -4248.54, -4793.53, -4778.55, -4030.58, 0.000, 0.000, 0.000, 17:38:36.121
48, -4312.39, -4849.95, -4814.76, -4068.81, 0.000, 0.000, 0.000, 17:38:36.121
49, -4141.19, -4656.81, -4640.24, -3888.53, 0.000, 0.000, 0.000, 17:38:36.136
50, -3978.91, -4469.51, -4468.70, -3723.99, 0.000, 0.000, 0.000, 17:38:36.136
51, -4237.68, -4790.89, -4763.61, -4020.75, 0.000, 0.000, 0.000, 17:38:36.151
52, -4313.10, -4848.12, -4821.44, -4075.72, 0.000, 0.000, 0.000, 17:38:36.151
53, -4135.74, -4631.93, -4626.45, -3867.84, 0.000, 0.000, 0.000, 17:38:36.151
54, -3977.31, -4465.70, -4463.30, -3707.53, 0.000, 0.000, 0.000, 17:38:36.151
55, -4234.33, -4786.35, -4769.02, -4022.22, 0.000, 0.000, 0.000, 17:38:36.165
56, -4318.87, -4853.60, -4819.63, -4082.10, 0.000, 0.000, 0.000, 17:38:36.165
57, -4152.22, -4660.94, -4640.48, -3897.60, 0.000, 0.000, 0.000, 17:38:36.181
58, -3976.28, -4473.37, -4466.25, -3721.84, 0.000, 0.000, 0.000, 17:38:36.181
59, -4233.03, -4776.67, -4766.93, -4018.01, 0.000, 0.000, 0.000, 17:38:36.182
60, -4316.48, -4841.50, -4821.77, -4076.60, 0.000, 0.000, 0.000, 17:38:36.182
61, -4149.41, -4667.88, -4632.07, -3882.60, 0.000, 0.000, 0.000, 17:38:36.211
62, -3970.48, -4480.01, -4465.88, -3713.94, 0.000, 0.000, 0.000, 17:38:36.211
63, -4231.83, -4779.44, -4754.63, -4020.29, 0.000, 0.000, 0.000, 17:38:36.211
64, -4318.09, -4853.67, -4812.76, -4072.29, 0.000, 0.000, 0.000, 17:38:36.212
65, -4145.13, -4649.78, -4636.57, -3887.88, 0.000, 0.000, 0.000, 17:38:36.226
66, -3977.45, -4482.37, -4476.37, -3732.77, 0.000, 0.000, 0.000, 17:38:36.227
67, -4227.25, -4777.34, -4752.99, -4014.79, 0.000, 0.000, 0.000, 17:38:36.256
68, -4337.49, -4875.23, -4840.42, -4088.86, 0.000, 0.000, 0.000, 17:38:36.256
69, -4157.58, -4659.05, -4635.93, -3893.20, 0.000, 0.000, 0.000, 17:38:36.256
70, -3966.27, -4461.62, -4458.21, -3712.58, 0.000, 0.000, 0.000, 17:38:36.256
71, -4229.67, -4772.88, -4751.22, -4013.80, 0.000, 0.000, 0.000, 17:38:36.257
72, -4319.82, -4845.52, -4822.64, -4087.85, 0.000, 0.000, 0.000, 17:38:36.257
73, -4142.57, -4640.92, -4646.24, -3886.03, 0.000, 0.000, 0.000, 17:38:36.258
74, -3963.26, -4465.46, -4459.63, -3715.26, 0.000, 0.000, 0.000, 17:38:36.258
75, -4224.84, -4770.79, -4757.60, -4014.48, 0.000, 0.000, 0.000, 17:38:36.258
76, -4320.01, -4842.11, -4824.52, -4097.22, 0.000, 0.000, 0.000, 17:38:36.258
77, -4141.91, -4641.45, -4636.23, -3886.44, 0.000, 0.000, 0.000, 17:38:36.270
78, -3969.50, -4471.92, -4463.10, -3715.50, 0.000, 0.000, 0.000, 17:38:36.270
79, -4231.71, -4778.89, -4754.90, -4012.77, 0.000, 0.000, 0.000, 17:38:36.287
80, -4328.16, -4843.02, -4826.58, -4084.80, 0.000, 0.000, 0.000, 17:38:36.287
81, -4137.92, -4647.95, -4633.31, -3878.52, 0.000, 0.000, 0.000, 17:38:36.302
82, -3964.38, -4487.49, -4464.29, -3720.24, 0.000, 0.000, 0.000, 17:38:36.302
83, -4214.02, -4764.09, -4745.49, -4010.17, 0.000, 0.000, 0.000, 17:38:36.303
84, -4339.79, -4860.19, -4847.06, -4108.76, 0.000, 0.000, 0.000, 17:38:36.303
85, -4179.81, -4678.03, -4665.73, -3908.64, 0.000, 0.000, 0.000, 17:38:36.319
86, -3984.71, -4481.21, -4480.51, -3713.44, 0.000, 0.000, 0.000, 17:38:36.319
87, -4216.12, -4758.38, -4744.60, -4004.44, 0.000, 0.000, 0.000, 17:38:36.331
88, -4340.14, -4875.09, -4845.40, -4107.72, 0.000, 0.000, 0.000, 17:38:36.331
89, -4147.04, -4659.60, -4642.70, -3898.36, 0.000, 0.000, 0.000, 17:38:36.332
90, -3982.54, -4477.86, -4469.28, -3716.35, 0.000, 0.000, 0.000, 17:38:36.332
91, -4212.47, -4752.36, -4745.44, -3998.67, 0.000, 0.000, 0.000, 17:38:36.346
92, -4334.35, -4856.02, -4835.81, -4084.74, 0.000, 0.000, 0.000, 17:38:36.346
93, -4175.26, -4677.94, -4666.74, -3902.89, 0.000, 0.000, 0.000, 17:38:36.360
94, -3970.52, -4466.94, -4466.46, -3721.02, 0.000, 0.000, 0.000, 17:38:36.360
95, -4211.03, -4748.84, -4733.41, -4009.41, 0.000, 0.000, 0.000, 17:38:36.361
96, -4338.25, -4871.91, -4844.08, -4096.48, 0.000, 0.000, 0.000, 17:38:36.361
97, -4182.62, -4683.38, -4668.08, -3917.25, 0.000, 0.000, 0.000, 17:38:36.376
98, -3994.23, -4486.50, -4472.64, -3723.51, 0.000, 0.000, 0.000, 17:38:36.376
99, -4221.84, -4767.57, -4743.96, -4004.81, 0.000, 0.000, 0.000, 17:38:36.390
100, -4343.69, -4882.71, -4864.48, -4096.27, 0.000, 0.000, 0.000, 17:38:36.390
101, -4173.61, -4682.08, -4662.67, -3911.03, 0.000, 0.000, 0.000, 17:38:36.391
102, -3985.09, -4473.53, -4475.75, -3734.35, 0.000, 0.000, 0.000, 17:38:36.391
103, -4199.80, -4735.89, -4722.75, -3996.44, 0.000, 0.000, 0.000, 17:38:36.406
104, -4324.78, -4851.79, -4833.99, -4095.30, 0.000, 0.000, 0.000, 17:38:36.406
105, -4157.18, -4658.85, -4636.76, -3903.95, 0.000, 0.000, 0.000, 17:38:36.420
106, -3968.85, -4474.99, -4457.56, -3717.55, 0.000, 0.000, 0.000, 17:38:36.421
107, -4203.82, -4736.64, -4720.18, -3985.89, 0.000, 0.000, 0.000, 17:38:36.421
108, -4334.62, -4870.34, -4836.94, -4096.09, 0.000, 0.000, 0.000, 17:38:36.421
109, -4164.13, -4660.89, -4645.91, -3893.48, 0.000, 0.000, 0.000, 17:38:36.435
110, -3976.37, -4458.79, -4464.47, -3718.27, 0.000, 0.000, 0.000, 17:38:36.435
111, -4213.71, -4738.59, -4737.59, -3996.38, 0.000, 0.000, 0.000, 17:38:36.466
112, -4349.10, -4882.11, -4856.46, -4112.69, 0.000, 0.000, 0.000, 17:38:36.466
113, -4174.10, -4679.25, -4666.20, -3918.00, 0.000, 0.000, 0.000, 17:38:36.466
114, -3973.01, -4461.73, -4463.41, -3725.14, 0.000, 0.000, 0.000, 17:38:36.466
115, -4195.96, -4727.74, -4714.92, -3977.68, 0.000, 0.000, 0.000, 17:38:36.467
116, -4350.26, -4884.45, -4853.79, -4108.72, 0.000, 0.000, 0.000, 17:38:36.467
117, -4165.92, -4672.00, -4651.11, -3905.31, 0.000, 0.000, 0.000, 17:38:36.482
118, -3968.90, -4471.60, -4456.23, -3709.66, 0.000, 0.000, 0.000, 17:38:36.482
119, -4197.04, -4735.55, -4719.20, -3988.89, 0.000, 0.000, 0.000, 17:38:36.482
120, -4332.88, -4856.64, -4844.95, -4099.46, 0.000, 0.000, 0.000, 17:38:36.482
121, -4171.32, -4662.17, -4656.82, -3915.44, 0.000, 0.000, 0.000, 17:38:36.495
122, -3987.23, -4479.35, -4460.76, -3724.75, 0.000, 0.000, 0.000, 17:38:36.495
123, -4206.02, -4756.45, -4725.69, -3982.51, 0.000, 0.000, 0.000, 17:38:36.511
124, -4318.93, -4857.15, -4831.31, -4102.07, 0.000, 0.000, 0.000, 17:38:36.512
125, -4182.59, -4693.03, -4677.39, -3911.02, 0.000, 0.000, 0.000, 17:38:36.512
126, -3993.84, -4487.38, -4480.60, -3725.10, 0.000, 0.000, 0.000, 17:38:36.512
127, -4181.46, -4699.59, -4709.50, -3960.24, 0.000, 0.000, 0.000, 17:38:36.541
128, -4335.34, -4857.62, -4833.81, -4096.82, 0.000, 0.000, 0.000, 17:38:36.541
129, -4161.89, -4670.58, -4639.36, -3906.52, 0.000, 0.000, 0.000, 17:38:36.541
130, -3987.66, -4488.98, -4480.41, -3725.79, 0.000, 0.000, 0.000, 17:38:36.541
131, -4179.38, -4721.43, -4701.31, -3967.99, 0.000, 0.000, 0.000, 17:38:36.542
132, -4336.59, -4876.11, -4851.19, -4107.19, 0.000, 0.000, 0.000, 17:38:36.542
133, -4181.84, -4680.92, -4668.68, -3920.01, 0.000, 0.000, 0.000, 17:38:36.555
134, -3977.18, -4471.85, -4462.76, -3723.88, 0.000, 0.000, 0.000, 17:38:36.555
135, -4169.47, -4717.75, -4698.01, -3959.42, 0.000, 0.000, 0.000, 17:38:36.571
136, -4334.31, -4871.54, -4850.24, -4099.34, 0.000, 0.000, 0.000, 17:38:36.571
137, -4179.87, -4687.10, -4675.65, -3915.36, 0.000, 0.000, 0.000, 17:38:36.572
138, -3997.92, -4486.92, -4475.60, -3724.46, 0.000, 0.000, 0.000, 17:38:36.572
139, -4172.45, -4709.50, -4700.98, -3960.73, 0.000, 0.000, 0.000, 17:38:36.586
140, -4343.96, -4870.86, -4860.26, -4118.47, 0.000, 0.000, 0.000, 17:38:36.586
141, -4180.23, -4690.40, -4663.56, -3920.11, 0.000, 0.000, 0.000, 17:38:36.601
142, -3978.02, -4486.38, -4464.24, -3713.80, 0.000, 0.000, 0.000, 17:38:36.601
143, -4165.31, -4700.24, -4690.02, -3955.11, 0.000, 0.000, 0.000, 17:38:36.617
144, -4327.83, -4858.77, -4837.32, -4099.22, 0.000, 0.000, 0.000, 17:38:36.617
145, -4174.83, -4689.69, -4674.35, -3928.44, 0.000, 0.000, 0.000, 17:38:36.618
146, -3982.70, -4487.89, -4475.36, -3738.98, 0.000, 0.000, 0.000, 17:38:36.618
147, -4162.70, -4713.61, -4682.57, -3959.30, 0.000, 0.000, 0.000, 17:38:36.631
148, -4336.73, -4877.01, -4850.52, -4111.65, 0.000, 0.000, 0.000, 17:38:36.631
149, -4178.79, -4696.60, -4675.36, -3918.96, 0.000, 0.000, 0.000, 17:38:36.632
150, -3990.00, -4493.19, -4478.26, -3731.76, 0.000, 0.000, 0.000, 17:38:36.632
151, -4165.37, -4699.98, -4687.67, -3946.77, 0.000, 0.000, 0.000, 17:38:36.647
152, -4338.20, -4865.71, -4851.92, -4102.55, 0.000, 0.000, 0.000, 17:38:36.647
153, -4183.51, -4692.22, -4683.75, -3934.81, 0.000, 0.000, 0.000, 17:38:36.661
154, -3993.54, -4493.05, -4486.99, -3740.20, 0.000, 0.000, 0.000, 17:38:36.661
155, -4155.76, -4686.56, -4686.96, -3930.17, 0.000, 0.000, 0.000, 17:38:36.661
156, -4338.36, -4870.66, -4838.35, -4108.09, 0.000, 0.000, 0.000, 17:38:36.663
157, -4174.57, -4672.26, -4671.74, -3920.51, 0.000, 0.000, 0.000, 17:38:36.676
158, -3981.79, -4477.90, -4471.64, -3723.02, 0.000, 0.000, 0.000, 17:38:36.677
159, -4154.02, -4683.85, -4673.44, -3935.60, 0.000, 0.000, 0.000, 17:38:36.691
160, -4353.95, -4890.84, -4860.11, -4122.77, 0.000, 0.000, 0.000, 17:38:36.691
161, -4179.03, -4695.64, -4675.00, -3934.79, 0.000, 0.000, 0.000, 17:38:36.692
162, -3982.36, -4466.37, -4468.74, -3730.53, 0.000, 0.000, 0.000, 17:38:36.692
163, -4141.74, -4674.74, -4663.04, -3932.72, 0.000, 0.000, 0.000, 17:38:36.705
164, -4335.83, -4858.51, -4848.29, -4105.58, 0.000, 0.000, 0.000, 17:38:36.705
165, -4177.82, -4672.13, -4669.05, -3920.48, 0.000, 0.000, 0.000, 17:38:36.736
166, -3990.35, -4480.75, -4478.45, -3734.24, 0.000, 0.000, 0.000, 17:38:36.736
167, -4145.99, -4695.27, -4672.72, -3933.21, 0.000, 0.000, 0.000, 17:38:36.736
168, -4339.46, -4881.67, -4854.29, -4119.57, 0.000, 0.000, 0.000, 17:38:36.736
169, -4183.88, -4701.75, -4679.20, -3920.47, 0.000, 0.000, 0.000, 17:38:36.745
170, -3995.89, -4488.70, -4487.93, -3732.93, 0.000, 0.000, 0.000, 17:38:36.745
171, -4146.73, -4667.07, -4658.39, -3918.39, 0.000, 0.000, 0.000, 17:38:36.766
172, -4346.37, -4882.57, -4853.23, -4112.98, 0.000, 0.000, 0.000, 17:38:36.766
173, -4202.96, -4704.08, -4687.90, -3948.79, 0.000, 0.000, 0.000, 17:38:36.766
174, -3993.58, -4489.23, -4491.20, -3732.90, 0.000, 0.000, 0.000, 17:38:36.766
175, -4153.61, -4685.71, -4668.35, -3924.84, 0.000, 0.000, 0.000, 17:38:36.766
176, -4359.08, -4901.88, -4874.42, -4122.44, 0.000, 0.000, 0.000, 17:38:36.766
177, -4184.71, -4692.80, -4676.95, -3917.93, 0.000, 0.000, 0.000, 17:38:36.781
178, -3984.97, -4473.66, -4478.27, -3716.41, 0.000, 0.000, 0.000, 17:38:36.782
179, -4138.45, -4666.57, -4650.34, -3924.07, 0.000, 0.000, 0.000, 17:38:36.782
180, -4346.10, -4875.06, -4852.65, -4121.69, 0.000, 0.000, 0.000, 17:38:36.782
181, -4198.96, -4712.52, -4695.85, -3943.17, 0.000, 0.000, 0.000, 17:38:36.811
182, -4004.34, -4505.19, -4499.24, -3734.18, 0.000, 0.000, 0.000, 17:38:36.811
183, -4138.06, -4668.53, -4670.59, -3923.09, 0.000, 0.000, 0.000, 17:38:36.812
184, -4344.02, -4877.78, -4861.55, -4112.96, 0.000, 0.000, 0.000, 17:38:36.812
185, -4198.90, -4693.63, -4678.28, -3939.02, 0.000, 0.000, 0.000, 17:38:36.812
186, -4002.59, -4493.74, -4483.25, -3742.86, 0.000, 0.000, 0.000, 17:38:36.812
187, -4144.62, -4669.01, -4658.99, -3917.40, 0.000, 0.000, 0.000, 17:38:36.826
188, -4347.62, -4881.33, -4849.12, -4118.37, 0.000, 0.000, 0.000, 17:38:36.826
189, -4186.43, -4691.96, -4675.28, -3941.47, 0.000, 0.000, 0.000, 17:38:36.841
190, -3997.35, -4500.18, -4487.77, -3737.06, 0.000, 0.000, 0.000, 17:38:36.841
191, -4135.45, -4669.11, -4663.63, -3917.41, 0.000, 0.000, 0.000, 17:38:36.841
192, -4349.82, -4900.61, -4868.32, -4119.76, 0.000, 0.000, 0.000, 17:38:36.841
193, -4196.78, -4711.34, -4682.86, -3942.93, 0.000, 0.000, 0.000, 17:38:36.871
194, -3992.39, -4490.76, -4482.64, -3738.45, 0.000, 0.000, 0.000, 17:38:36.871
195, -4121.59, -4644.32, -4643.62, -3907.51, 0.000, 0.000, 0.000, 17:38:36.871
196, -4337.87, -4868.04, -4848.06, -4110.74, 0.000, 0.000, 0.000, 17:38:36.871
197, -4204.26, -4709.55, -4702.47, -3955.03, 0.000, 0.000, 0.000, 17:38:36.872
198, -4004.23, -4506.45, -4496.11, -3750.76, 0.000, 0.000, 0.000, 17:38:36.872
199, -4127.04, -4667.86, -4658.22, -3912.31, 0.000, 0.000, 0.000, 17:38:36.885
200, -4351.40, -4888.19, -4862.62, -4122.20, 0.000, 0.000, 0.000, 17:38:36.886
0, -4203.85, -4706.86, -4692.20, -3945.46, 0.000, 0.000, 0.000, 17:38:36.886
1, -4015.20, -4493.04, -4489.98, -3749.52, 0.000, 0.000, 0.000, 17:38:36.900
2, -4132.71, -4652.62, -4638.94, -3915.02, 0.000, 0.000, 0.000, 17:38:36.900
3, -4355.82, -4884.92, -4863.30, -4124.80, 0.000, 0.000, 0.000, 17:38:36.916
4, -4215.58, -4714.56, -4699.57, -3967.09, 0.000, 0.000, 0.000, 17:38:36.917
5, -4003.55, -4490.70, -4490.11, -3746.12, 0.000, 0.000, 0.000, 17:38:36.917
6, -4117.35, -4638.46, -4635.75, -3895.46, 0.000, 0.000, 0.000, 17:38:36.917
7, -4360.07, -4891.35, -4863.60, -4125.66, 0.000, 0.000, 0.000, 17:38:36.946
8, -4208.88, -4709.71, -4694.80, -3952.34, 0.000, 0.000, 0.000, 17:38:36.947
9, -4003.11, -4479.91, -4479.40, -3740.47, 0.000, 0.000, 0.000, 17:38:36.947
10, -4093.99, -4617.89, -4616.77, -3877.66, 0.000, 0.000, 0.000, 17:38:36.947
11, -4370.44, -4902.82, -4879.59, -4130.37, 0.000, 0.000, 0.000, 17:38:36.947
12, -4213.18, -4712.92, -4700.50, -3949.59, 0.000, 0.000, 0.000, 17:38:36.947
13, -4010.31, -4500.80, -4493.71, -3758.00, 0.000, 0.000, 0.000, 17:38:36.961
14, -4089.05, -4608.15, -4602.44, -3867.75, 0.000, 0.000, 0.000, 17:38:36.961
15, -4350.63, -4880.49, -4861.54, -4115.99, 0.000, 0.000, 0.000, 17:38:36.976
16, -4202.64, -4716.06, -4705.45, -3945.30, 0.000, 0.000, 0.000, 17:38:36.976
17, -4010.50, -4500.31, -4492.99, -3745.96, 0.000, 0.000, 0.000, 17:38:36.976
18, -4111.80, -4634.62, -4620.69, -3887.83, 0.000, 0.000, 0.000, 17:38:36.976
19, -4349.56, -4895.51, -4858.21, -4121.40, 0.000, 0.000, 0.000, 17:38:37.020
20, -4207.92, -4721.60, -4702.50, -3957.58, 0.000, 0.000, 0.000, 17:38:37.020
21, -4005.28, -4503.48, -4498.42, -3750.13, 0.000, 0.000, 0.000, 17:38:37.021
22, -4114.63, -4637.02, -4623.04, -3876.32, 0.000, 0.000, 0.000, 17:38:37.021
23, -4347.81, -4893.49, -4870.78, -4126.37, 0.000, 0.000, 0.000, 17:38:37.021
24, -4204.56, -4712.93, -4701.66, -3943.80, 0.000, 0.000, 0.000, 17:38:37.022
25, -4019.61, -4495.22, -4489.14, -3739.91, 0.000, 0.000, 0.000, 17:38:37.022
26, -4103.58, -4636.00, -4628.25, -3877.63, 0.000, 0.000, 0.000, 17:38:37.022
27, -4350.10, -4890.47, -4864.46, -4117.83, 0.000, 0.000, 0.000, 17:38:37.024
28, -4218.79, -4713.83, -4701.96, -3958.32, 0.000, 0.000, 0.000, 17:38:37.024
29, -4016.76, -4504.63, -4504.70, -3758.69, 0.000, 0.000, 0.000, 17:38:37.036
30, -4086.15, -4623.12, -4600.60, -3867.69, 0.000, 0.000, 0.000, 17:38:37.036
31, -4335.39, -4886.10, -4847.91, -4121.09, 0.000, 0.000, 0.000, 17:38:37.051
32, -4212.70, -4723.18, -4709.39, -3960.86, 0.000, 0.000, 0.000, 17:38:37.051
33, -4007.10, -4497.09, -4492.97, -3749.07, 0.000, 0.000, 0.000, 17:38:37.065
34, -4101.11, -4633.56, -4618.67, -3866.30, 0.000, 0.000, 0.000, 17:38:37.065
35, -4350.24, -4897.09, -4868.69, -4132.79, 0.000, 0.000, 0.000, 17:38:37.066
36, -4213.78, -4720.65, -4702.89, -3964.87, 0.000, 0.000, 0.000, 17:38:37.066
37, -4000.53, -4484.03, -4490.13, -3746.09, 0.000, 0.000, 0.000, 17:38:37.082
38, -4083.76, -4604.14, -4599.70, -3852.82, 0.000, 0.000, 0.000, 17:38:37.082
39, -4344.52, -4881.75, -4860.62, -4106.46, 0.000, 0.000, 0.000, 17:38:37.096
40, -4228.58, -4738.07, -4710.83, -3977.49, 0.000, 0.000, 0.000, 17:38:37.096
41, -4019.53, -4505.68, -4498.29, -3758.09, 0.000, 0.000, 0.000, 17:38:37.097
42, -4091.28, -4603.07, -4608.32, -3867.72, 0.000, 0.000, 0.000, 17:38:37.097
43, -4350.32, -4892.92, -4872.17, -4126.64, 0.000, 0.000, 0.000, 17:38:37.111
44, -4227.68, -4747.83, -4726.68, -3968.65, 0.000, 0.000, 0.000, 17:38:37.111
45, -4023.84, -4515.99, -4498.34, -3754.18, 0.000, 0.000, 0.000, 17:38:37.126
46, -4088.91, -4614.19, -4609.04, -3869.13, 0.000, 0.000, 0.000, 17:38:37.126
47, -4347.48, -4887.18, -4851.32, -4115.59, 0.000, 0.000, 0.000, 17:38:37.126
48, -4220.90, -4736.28, -4710.99, -3962.48, 0.000, 0.000, 0.000, 17:38:37.126
49, -4017.46, -4499.77, -4506.02, -3755.00, 0.000, 0.000, 0.000, 17:38:37.141
50, -4095.04, -4616.85, -4623.20, -3860.35, 0.000, 0.000, 0.000, 17:38:37.141
51, -4379.37, -4920.54, -4901.58, -4138.41, 0.000, 0.000, 0.000, 17:38:37.170
52, -4246.62, -4764.69, -4742.43, -3980.62, 0.000, 0.000, 0.000, 17:38:37.171
53, -4039.99, -4545.66, -4536.10, -3773.99, 0.000, 0.000, 0.000, 17:38:37.171
54, -4083.26, -4622.51, -4608.01, -3855.25, 0.000, 0.000, 0.000, 17:38:37.171
55, -4327.57, -4875.82, -4851.63, -4105.63, 0.000, 0.000, 0.000, 17:38:37.172
56, -4203.75, -4720.83, -4706.29, -3977.14, 0.000, 0.000, 0.000, 17:38:37.172
57, -3998.79, -4497.77, -4487.36, -3745.55, 0.000, 0.000, 0.000, 17:38:37.186
58, -4081.94, -4602.04, -4594.67, -3845.23, 0.000, 0.000, 0.000, 17:38:37.186
59, -4342.78, -4876.68, -4856.82, -4118.50, 0.000, 0.000, 0.000, 17:38:37.187
60, -4227.20, -4734.87, -4712.22, -3968.28, 0.000, 0.000, 0.000, 17:38:37.187
61, -4023.58, -4512.64, -4504.17, -3768.03, 0.000, 0.000, 0.000, 17:38:37.201
62, -4071.23, -4608.58, -4592.46, -3850.76, 0.000, 0.000, 0.000, 17:38:37.201
63, -4336.11, -4898.29, -4860.91, -4112.55, 0.000, 0.000, 0.000, 17:38:37.216
64, -4214.26, -4717.69, -4709.87, -3959.62, 0.000, 0.000, 0.000, 17:38:37.216
65, -4017.44, -4507.02, -4502.21, -3764.43, 0.000, 0.000, 0.000, 17:38:37.216
66, -4071.78, -4598.99, -4586.32, -3853.51, 0.000, 0.000, 0.000, 17:38:37.216
67, -4343.47, -4888.01, -4866.33, -4122.47, 0.000, 0.000, 0.000, 17:38:37.247
68, -4226.50, -4742.35, -4718.90, -3974.67, 0.000, 0.000, 0.000, 17:38:37.247
69, -4014.40, -4521.40, -4509.08, -3760.58, 0.000, 0.000, 0.000, 17:38:37.247
70, -4066.44, -4593.96, -4588.47, -3850.86, 0.000, 0.000, 0.000, 17:38:37.247
71, -4335.70, -4888.59, -4862.35, -4128.16, 0.000, 0.000, 0.000, 17:38:37.247
72, -4231.86, -4759.29, -4735.38, -3981.98, 0.000, 0.000, 0.000, 17:38:37.247
73, -4033.12, -4533.84, -4514.91, -3761.74, 0.000, 0.000, 0.000, 17:38:37.261
74, -4066.89, -4590.64, -4582.02, -3837.09, 0.000, 0.000, 0.000, 17:38:37.261
75, -4348.22, -4892.79, -4878.71, -4135.26, 0.000, 0.000, 0.000, 17:38:37.276
76, -4235.60, -4748.13, -4735.16, -3976.53, 0.000, 0.000, 0.000, 17:38:37.276
77, -4020.06, -4515.77, -4504.89, -3754.89, 0.000, 0.000, 0.000, 17:38:37.290
78, -4064.49, -4601.69, -4586.78, -3836.62, 0.000, 0.000, 0.000, 17:38:37.290
79, -4346.79, -4879.21, -4858.03, -4123.23, 0.000, 0.000, 0.000, 17:38:37.291
80, -4249.28, -4755.50, -4744.41, -3986.83, 0.000, 0.000, 0.000, 17:38:37.291
81, -4032.00, -4519.40, -4518.19, -3768.53, 0.000, 0.000, 0.000, 17:38:37.306
82, -4058.26, -4586.58, -4573.11, -3833.26, 0.000, 0.000, 0.000, 17:38:37.306
83, -4357.01, -4908.01, -4876.82, -4137.77, 0.000, 0.000, 0.000, 17:38:37.306
84, -4252.46, -4759.74, -4739.28, -3996.46, 0.000, 0.000, 0.000, 17:38:37.307
85, -4031.22, -4525.54, -4513.92, -3767.99, 0.000, 0.000, 0.000, 17:38:37.321
86, -4072.44, -4581.84, -4578.59, -3841.16, 0.000, 0.000, 0.000, 17:38:37.321
87, -4351.26, -4898.98, -4871.30, -4127.96, 0.000, 0.000, 0.000, 17:38:37.367
88, -4246.70, -4766.96, -4755.26, -3996.88, 0.000, 0.000, 0.000, 17:38:37.367
89, -4038.95, -4539.24, -4521.61, -3777.27, 0.000, 0.000, 0.000, 17:38:37.367
90, -4055.23, -4586.54, -4561.18, -3833.18, 0.000, 0.000, 0.000, 17:38:37.367
91, -4348.23, -4893.04, -4874.79, -4127.70, 0.000, 0.000, 0.000, 17:38:37.367
92, -4244.97, -4748.40, -4737.36, -3994.18, 0.000, 0.000, 0.000, 17:38:37.367
93, -4029.69, -4522.67, -4505.28, -3776.93, 0.000, 0.000, 0.000, 17:38:37.368
94, -4054.08, -4582.65, -4569.04, -3838.90, 0.000, 0.000, 0.000, 17:38:37.368
95, -4364.81, -4900.64, -4875.81, -4131.81, 0.000, 0.000, 0.000, 17:38:37.369
96, -4252.70, -4776.23, -4741.44, -3994.64, 0.000, 0.000, 0.000, 17:38:37.369
97, -4041.26, -4542.69, -4532.30, -3775.11, 0.000, 0.000, 0.000, 17:38:37.381
98, -4052.32, -4570.81, -4555.50, -3817.65, 0.000, 0.000, 0.000, 17:38:37.381
99, -4345.05, -4890.35, -4864.67, -4121.04, 0.000, 0.000, 0.000, 17:38:37.397
100, -4254.93, -4767.04, -4740.40, -3999.44, 0.000, 0.000, 0.000, 17:38:37.397
101, -4027.91, -4524.67, -4520.14, -3773.76, 0.000, 0.000, 0.000, 17:38:37.397
102, -4064.58, -4579.24, -4565.99, -3829.55, 0.000, 0.000, 0.000, 17:38:37.397
103, -4353.11, -4891.17, -4862.58, -4124.45, 0.000, 0.000, 0.000, 17:38:37.411
104, -4245.45, -4761.18, -4735.41, -3995.40, 0.000, 0.000, 0.000, 17:38:37.411
105, -4042.08, -4529.83, -4521.82, -3774.47, 0.000, 0.000, 0.000, 17:38:37.426
106, -4042.78, -4557.92, -4549.30, -3810.39, 0.000, 0.000, 0.000, 17:38:37.426
107, -4346.38, -4878.58, -4860.64, -4113.07, 0.000, 0.000, 0.000, 17:38:37.426
108, -4240.86, -4756.49, -4738.01, -4006.10, 0.000, 0.000, 0.000, 17:38:37.426
109, -4042.30, -4529.30, -4529.64, -3775.83, 0.000, 0.000, 0.000, 17:38:37.441
110, -4044.99, -4571.94, -4558.34, -3814.12, 0.000, 0.000, 0.000, 17:38:37.441
111, -4341.54, -4881.23, -4852.55, -4123.01, 0.000, 0.000, 0.000, 17:38:37.456
112, -4242.36, -4759.51, -4732.44, -3996.02, 0.000, 0.000, 0.000, 17:38:37.456
113, -4040.12, -4537.48, -4538.68, -3787.22, 0.000, 0.000, 0.000, 17:38:37.456
114, -4031.24, -4541.32, -4541.96, -3797.60, 0.000, 0.000, 0.000, 17:38:37.456
115, -4324.94, -4862.90, -4847.14, -4110.91, 0.000, 0.000, 0.000, 17:38:37.485
116, -4247.34, -4756.24, -4745.06, -4003.74, 0.000, 0.000, 0.000, 17:38:37.485
117, -4051.97, -4545.06, -4527.03, -3790.11, 0.000, 0.000, 0.000, 17:38:37.486
118, -4038.51, -4552.20, -4544.95, -3803.66, 0.000, 0.000, 0.000, 17:38:37.486
119, -4333.49, -4869.66, -4851.63, -4114.47, 0.000, 0.000, 0.000, 17:38:37.487
120, -4240.25, -4756.40, -4739.92, -3991.17, 0.000, 0.000, 0.000, 17:38:37.487
121, -4040.87, -4539.09, -4526.93, -3777.79, 0.000, 0.000, 0.000, 17:38:37.501
122, -4032.47, -4545.74, -4537.25, -3797.72, 0.000, 0.000, 0.000, 17:38:37.501
123, -4322.68, -4870.38, -4842.53, -4108.38, 0.000, 0.000, 0.000, 17:38:37.516
124, -4261.37, -4768.87, -4750.69, -4014.09, 0.000, 0.000, 0.000, 17:38:37.516
125, -4047.80, -4548.17, -4545.04, -3776.83, 0.000, 0.000, 0.000, 17:38:37.517
126, -4017.73, -4538.59, -4538.53, -3788.24, 0.000, 0.000, 0.000, 17:38:37.517
127, -4328.72, -4875.52, -4849.21, -4119.17, 0.000, 0.000, 0.000, 17:38:37.531
128, -4257.00, -4774.46, -4758.30, -4001.91, 0.000, 0.000, 0.000, 17:38:37.532
129, -4052.43, -4557.85, -4537.35, -3794.15, 0.000, 0.000, 0.000, 17:38:37.547
130, -4033.49, -4566.25, -4542.42, -3798.33, 0.000, 0.000, 0.000, 17:38:37.547
131, -4323.94, -4870.74, -4842.50, -4106.80, 0.000, 0.000, 0.000, 17:38:37.547
132, -4265.00, -4775.20, -4759.46, -4011.44, 0.000, 0.000, 0.000, 17:38:37.547
133, -4058.32, -4550.61, -4530.90, -3789.37, 0.000, 0.000, 0.000, 17:38:37.576
134, -4016.54, -4529.93, -4522.35, -3774.79, 0.000, 0.000, 0.000, 17:38:37.576
135, -4338.36, -4896.56, -4864.57, -4113.50, 0.000, 0.000, 0.000, 17:38:37.577
136, -4257.40, -4769.85, -4756.21, -4004.46, 0.000, 0.000, 0.000, 17:38:37.577
137, -4055.14, -4547.97, -4539.47, -3803.78, 0.000, 0.000, 0.000, 17:38:37.577
138, -4023.82, -4537.47, -4530.60, -3794.95, 0.000, 0.000, 0.000, 17:38:37.577
139, -4335.59, -4887.51, -4856.33, -4111.24, 0.000, 0.000, 0.000, 17:38:37.590
140, -4271.27, -4782.50, -4762.14, -4010.10, 0.000, 0.000, 0.000, 17:38:37.590
141, -4054.11, -4547.85, -4544.75, -3794.08, 0.000, 0.000, 0.000, 17:38:37.605
142, -4000.23, -4524.71, -4513.20, -3787.19, 0.000, 0.000, 0.000, 17:38:37.605
143, -4329.07, -4876.55, -4853.22, -4110.79, 0.000, 0.000, 0.000, 17:38:37.606
144, -4274.28, -4792.02, -4777.72, -4027.51, 0.000, 0.000, 0.000, 17:38:37.606
145, -4066.05, -4558.33, -4559.27, -3802.81, 0.000, 0.000, 0.000, 17:38:37.621
146, -4036.08, -4550.55, -4537.88, -3794.96, 0.000, 0.000, 0.000, 17:38:37.621
147, -4324.39, -4869.97, -4845.77, -4116.34, 0.000, 0.000, 0.000, 17:38:37.636
148, -4257.33, -4775.65, -4757.87, -4008.23, 0.000, 0.000, 0.000, 17:38:37.636
149, -4050.82, -4552.75, -4542.40, -3799.39, 0.000, 0.000, 0.000, 17:38:37.636
150, -4021.57, -4543.19, -4540.54, -3782.85, 0.000, 0.000, 0.000, 17:38:37.636
151, -4332.96, -4869.42, -4854.73, -4109.25, 0.000, 0.000, 0.000, 17:38:37.657
152, -4258.51, -4774.35, -4753.19, -4007.75, 0.000, 0.000, 0.000, 17:38:37.657
153, -4062.77, -4564.86, -4544.33, -3788.51, 0.000, 0.000, 0.000, 17:38:37.666
154, -4021.98, -4532.71, -4524.70, -3775.54, 0.000, 0.000, 0.000, 17:38:37.667
155, -4329.50, -4874.54, -4851.54, -4110.59, 0.000, 0.000, 0.000, 17:38:37.667
156, -4276.45, -4783.15, -4777.12, -4022.59, 0.000, 0.000, 0.000, 17:38:37.667
157, -4078.42, -4565.28, -4560.31, -3806.89, 0.000, 0.000, 0.000, 17:38:37.681
158, -4016.86, -4527.12, -4529.87, -3783.78, 0.000, 0.000, 0.000, 17:38:37.681
159, -4334.67, -4866.35, -4855.21, -4113.59, 0.000, 0.000, 0.000, 17:38:37.696
160, -4269.18, -4778.78, -4768.57, -4013.52, 0.000, 0.000, 0.000, 17:38:37.699
161, -4062.70, -4559.69, -4541.18, -3796.75, 0.000, 0.000, 0.000, 17:38:37.711
162, -4006.75, -4521.80, -4527.85, -3769.09, 0.000, 0.000, 0.000, 17:38:37.712
163, -4334.86, -4882.45, -4855.71, -4110.14, 0.000, 0.000, 0.000, 17:38:37.712
164, -4275.61, -4796.66, -4768.85, -4026.53, 0.000, 0.000, 0.000, 17:38:37.712
165, -4076.66, -4569.29, -4553.93, -3809.15, 0.000, 0.000, 0.000, 17:38:37.727
166, -4012.52, -4508.24, -4510.53, -3772.91, 0.000, 0.000, 0.000, 17:38:37.727
167, -4334.18, -4874.70, -4854.66, -4114.31, 0.000, 0.000, 0.000, 17:38:37.727
168, -4273.63, -4800.81, -4766.62, -4024.31, 0.000, 0.000, 0.000, 17:38:37.727
169, -4066.24, -4571.07, -4559.80, -3798.36, 0.000, 0.000, 0.000, 17:38:37.741
170, -4001.29, -4515.18, -4515.51, -3766.14, 0.000, 0.000, 0.000, 17:38:37.741
171, -4315.22, -4868.30, -4849.21, -4094.04, 0.000, 0.000, 0.000, 17:38:37.756
172, -4273.12, -4795.69, -4770.66, -4022.23, 0.000, 0.000, 0.000, 17:38:37.756
173, -4066.32, -4569.57, -4542.82, -3808.96, 0.000, 0.000, 0.000, 17:38:37.757
174, -3999.01, -4508.01, -4500.17, -3752.13, 0.000, 0.000, 0.000, 17:38:37.757
175, -4320.71, -4866.60, -4849.83, -4097.97, 0.000, 0.000, 0.000, 17:38:37.771
176, -4265.46, -4766.28, -4755.30, -4015.71, 0.000, 0.000, 0.000, 17:38:37.771
177, -4073.46, -4562.64, -4560.32, -3811.09, 0.000, 0.000, 0.000, 17:38:37.801
178, -4003.65, -4507.52, -4499.98, -3769.54, 0.000, 0.000, 0.000, 17:38:37.801
179, -4308.76, -4863.45, -4836.04, -4101.28, 0.000, 0.000, 0.000, 17:38:37.801
180, -4280.70, -4795.22, -4764.90, -4027.55, 0.000, 0.000, 0.000, 17:38:37.801
181, -4081.28, -4587.22, -4570.77, -3826.22, 0.000, 0.000, 0.000, 17:38:37.802
182, -4012.27, -4523.95, -4515.63, -3769.64, 0.000, 0.000, 0.000, 17:38:37.802
183, -4316.23, -4859.82, -4852.70, -4103.53, 0.000, 0.000, 0.000, 17:38:37.816
184, -4280.78, -4793.25, -4775.56, -4033.31, 0.000, 0.000, 0.000, 17:38:37.816
185, -4078.88, -4578.23, -4571.53, -3819.27, 0.000, 0.000, 0.000, 17:38:37.846
186, -4003.07, -4503.66, -4509.66, -3758.22, 0.000, 0.000, 0.000, 17:38:37.846
187, -4301.11, -4859.18, -4828.12, -4093.56, 0.000, 0.000, 0.000, 17:38:37.847
188, -4283.46, -4807.80, -4785.14, -4032.28, 0.000, 0.000, 0.000, 17:38:37.847
189, -4085.09, -4577.62, -4564.60, -3821.70, 0.000, 0.000, 0.000, 17:38:37.847
190, -3999.09, -4507.76, -4497.38, -3758.71, 0.000, 0.000, 0.000, 17:38:37.848
191, -4313.29, -4854.35, -4842.76, -4102.65, 0.000, 0.000, 0.000, 17:38:37.848
192, -4279.61, -4802.63, -4774.11, -4026.34, 0.000, 0.000, 0.000, 17:38:37.849
193, -4091.68, -4592.78, -4571.70, -3816.72, 0.000, 0.000, 0.000, 17:38:37.875
194, -3996.43, -4508.89, -4493.37, -3756.32, 0.000, 0.000, 0.000, 17:38:37.875
195, -4296.77, -4840.10, -4826.73, -4093.75, 0.000, 0.000, 0.000, 17:38:37.876
196, -4282.23, -4802.90, -4783.72, -4040.54, 0.000, 0.000, 0.000, 17:38:37.876
197, -4086.51, -4580.21, -4574.83, -3827.55, 0.000, 0.000, 0.000, 17:38:37.876
198, -3994.82, -4514.94, -4499.50, -3751.36, 0.000, 0.000, 0.000, 17:38:37.877
199, -4308.67, -4850.26, -4833.25, -4084.91, 0.000, 0.000, 0.000, 17:38:37.921
200, -4287.94, -4804.82, -4790.21, -4032.94, 0.000, 0.000, 0.000, 17:38:37.921
0, -4096.85, -4602.05, -4582.61, -3834.77, 0.000, 0.000, 0.000, 17:38:37.921
1, -4008.19, -4515.50, -4500.35, -3771.88, 0.000, 0.000, 0.000, 17:38:37.922
2, -4310.04, -4854.92, -4827.40, -4102.03, 0.000, 0.000, 0.000, 17:38:37.922
3, -4273.56, -4790.49, -4770.69, -4033.22, 0.000, 0.000, 0.000, 17:38:37.923
4, -4085.28, -4575.48, -4566.23, -3826.02, 0.000, 0.000, 0.000, 17:38:37.923
5, -4000.71, -4511.21, -4503.29, -3763.15, 0.000, 0.000, 0.000, 17:38:37.923
6, -4304.28, -4852.67, -4831.19, -4091.33, 0.000, 0.000, 0.000, 17:38:37.924
7, -4270.67, -4796.24, -4780.72, -4041.25, 0.000, 0.000, 0.000, 17:38:37.936
8, -4079.50, -4577.67, -4568.86, -3835.43, 0.000, 0.000, 0.000, 17:38:37.936
9, -3988.35, -4491.76, -4484.20, -3757.01, 0.000, 0.000, 0.000, 17:38:37.950
10, -4301.34, -4860.08, -4834.93, -4087.22, 0.000, 0.000, 0.000, 17:38:37.950
11, -4294.42, -4821.11, -4795.02, -4050.58, 0.000, 0.000, 0.000, 17:38:37.951
12, -4096.96, -4604.02, -4590.72, -3837.32, 0.000, 0.000, 0.000, 17:38:37.951
13, -4005.49, -4519.59, -4515.81, -3766.65, 0.000, 0.000, 0.000, 17:38:37.967
14, -4319.95, -4879.25, -4859.14, -4108.89, 0.000, 0.000, 0.000, 17:38:37.967
15, -4300.95, -4832.18, -4809.14, -4054.85, 0.000, 0.000, 0.000, 17:38:37.981
16, -4105.69, -4616.04, -4595.76, -3841.12, 0.000, 0.000, 0.000, 17:38:37.981
17, -3987.54, -4496.56, -4482.48, -3735.67, 0.000, 0.000, 0.000, 17:38:37.982
18, -4281.25, -4827.29, -4812.67, -4070.89, 0.000, 0.000, 0.000, 17:38:37.982
19, -4277.09, -4793.47, -4776.47, -4041.43, 0.000, 0.000, 0.000, 17:38:37.996
20, -4081.10, -4589.21, -4574.18, -3835.88, 0.000, 0.000, 0.000, 17:38:37.996
21, -3992.43, -4500.23, -4502.15, -3741.45, 0.000, 0.000, 0.000, 17:38:38.011
22, -4301.30, -4853.23, -4827.74, -4075.82, 0.000, 0.000, 0.000, 17:38:38.012
23, -4281.18, -4804.05, -4785.60, -4037.52, 0.000, 0.000, 0.000, 17:38:38.012
24, -4103.71, -4602.19, -4587.29, -3842.44, 0.000, 0.000, 0.000, 17:38:38.013
25, -3980.70, -4486.49, -4476.64, -3736.19, 0.000, 0.000, 0.000, 17:38:38.026
26, -4292.09, -4837.64, -4816.32, -4076.70, 0.000, 0.000, 0.000, 17:38:38.026
27, -4284.51, -4803.50, -4786.63, -4054.96, 0.000, 0.000, 0.000, 17:38:38.055
28, -4097.31, -4593.06, -4584.95, -3848.94, 0.000, 0.000, 0.000, 17:38:38.055
29, -3977.56, -4480.45, -4477.33, -3727.72, 0.000, 0.000, 0.000, 17:38:38.056
30, -4293.55, -4838.64, -4819.87, -4083.17, 0.000, 0.000, 0.000, 17:38:38.056
31, -4301.95, -4818.23, -4799.02, -4048.06, 0.000, 0.000, 0.000, 17:38:38.056
32, -4109.94, -4606.47, -4595.63, -3850.61, 0.000, 0.000, 0.000, 17:38:38.057
33, -3990.25, -4492.26, -4480.57, -3735.95, 0.000, 0.000, 0.000, 17:38:38.071
34, -4286.68, -4841.01, -4816.91, -4077.99, 0.000, 0.000, 0.000, 17:38:38.071
35, -4296.01, -4827.59, -4807.39, -4055.53, 0.000, 0.000, 0.000, 17:38:38.071
36, -4101.59, -4608.17, -4593.06, -3841.73, 0.000, 0.000, 0.000, 17:38:38.071
37, -3972.87, -4477.48, -4469.08, -3732.79, 0.000, 0.000, 0.000, 17:38:38.093
38, -4287.17, -4828.07, -4806.97, -4081.54, 0.000, 0.000, 0.000, 17:38:38.093
39, -4294.56, -4810.10, -4785.95, -4062.11, 0.000, 0.000, 0.000, 17:38:38.101
40, -4103.58, -4604.21, -4597.47, -3843.67, 0.000, 0.000, 0.000, 17:38:38.101
41, -3982.97, -4490.40, -4498.79, -3736.96, 0.000, 0.000, 0.000, 17:38:38.101
42, -4285.96, -4833.80, -4819.41, -4082.41, 0.000, 0.000, 0.000, 17:38:38.101
43, -4309.11, -4824.21, -4811.40, -4063.21, 0.000, 0.000, 0.000, 17:38:38.131
44, -4117.20, -4611.93, -4601.52, -3856.93, 0.000, 0.000, 0.000, 17:38:38.131
45, -3979.07, -4491.74, -4472.33, -3734.45, 0.000, 0.000, 0.000, 17:38:38.132
46, -4273.38, -4825.24, -4799.36, -4060.35, 0.000, 0.000, 0.000, 17:38:38.132
47, -4310.17, -4822.20, -4794.52, -4055.14, 0.000, 0.000, 0.000, 17:38:38.132
48, -4116.99, -4619.78, -4610.20, -3857.72, 0.000, 0.000, 0.000, 17:38:38.132
49, -3984.12, -4490.38, -4495.84, -3739.59, 0.000, 0.000, 0.000, 17:38:38.146
50, -4286.29, -4833.10, -4806.25, -4075.08, 0.000, 0.000, 0.000, 17:38:38.146
51, -4319.95, -4847.25, -4829.64, -4064.94, 0.000, 0.000, 0.000, 17:38:38.162
52, -4124.72, -4640.04, -4610.26, -3868.39, 0.000, 0.000, 0.000, 17:38:38.162
53, -3988.32, -4491.50, -4483.66, -3738.69, 0.000, 0.000, 0.000, 17:38:38.162
54, -4270.13, -4818.26, -4801.47, -4071.67, 0.000, 0.000, 0.000, 17:38:38.163
55, -4299.86, -4815.04, -4806.42, -4064.39, 0.000, 0.000, 0.000, 17:38:38.176
56, -4124.81, -4623.27, -4618.69, -3859.45, 0.000, 0.000, 0.000, 17:38:38.176
57, -3977.85, -4487.41, -4473.55, -3721.83, 0.000, 0.000, 0.000, 17:38:38.205
58, -4277.30, -4818.57, -4808.36, -4059.67, 0.000, 0.000, 0.000, 17:38:38.205
59, -4299.99, -4829.24, -4798.38, -4050.09, 0.000, 0.000, 0.000, 17:38:38.206
60, -4112.48, -4603.35, -4593.47, -3858.26, 0.000, 0.000, 0.000, 17:38:38.206
61, -3993.38, -4488.67, -4488.53, -3736.33, 0.000, 0.000, 0.000, 17:38:38.206
62, -4284.29, -4831.37, -4805.29, -4055.67, 0.000, 0.000, 0.000, 17:38:38.207
63, -4309.39, -4826.75, -4814.23, -4067.11, 0.000, 0.000, 0.000, 17:38:38.221
64, -4123.18, -4624.48, -4599.13, -3873.43, 0.000, 0.000, 0.000, 17:38:38.221
65, -3978.42, -4475.26, -4467.71, -3729.52, 0.000, 0.000, 0.000, 17:38:38.221
66, -4265.14, -4798.40, -4780.48, -4050.86, 0.000, 0.000, 0.000, 17:38:38.222
67, -4305.86, -4830.48, -4810.51, -4071.81, 0.000, 0.000, 0.000, 17:38:38.236
68, -4128.65, -4628.17, -4605.69, -3861.35, 0.000, 0.000, 0.000, 17:38:38.236
69, -3966.64, -4471.88, -4466.45, -3721.95, 0.000, 0.000, 0.000, 17:38:38.251
70, -4266.86, -4809.28, -4784.73, -4047.52, 0.000, 0.000, 0.000, 17:38:38.251
71, -4306.80, -4840.26, -4813.06, -4079.54, 0.000, 0.000, 0.000, 17:38:38.251
72, -4135.08, -4638.33, -4621.44, -3882.71, 0.000, 0.000, 0.000, 17:38:38.251
73, -3983.64, -4480.71, -4483.89, -3722.71, 0.000, 0.000, 0.000, 17:38:38.267
74, -4252.92, -4808.03, -4780.15, -4039.09, 0.000, 0.000, 0.000, 17:38:38.267
75, -4305.52, -4830.96, -4803.84, -4065.09, 0.000, 0.000, 0.000, 17:38:38.281
76, -4108.37, -4603.65, -4602.42, -3853.53, 0.000, 0.000, 0.000, 17:38:38.281
77, -3967.81, -4460.77, -4461.48, -3731.91, 0.000, 0.000, 0.000, 17:38:38.282
78, -4245.44, -4790.30, -4774.74, -4034.04, 0.000, 0.000, 0.000, 17:38:38.283
79, -4300.54, -4827.01, -4799.48, -4068.98, 0.000, 0.000, 0.000, 17:38:38.296
80, -4113.45, -4613.88, -4595.97, -3860.49, 0.000, 0.000, 0.000, 17:38:38.296
81, -3974.17, -4480.82, -4484.87, -3728.42, 0.000, 0.000, 0.000, 17:38:38.311
82, -4249.29, -4805.69, -4774.41, -4029.32, 0.000, 0.000, 0.000, 17:38:38.311
83, -4304.65, -4832.11, -4813.43, -4072.29, 0.000, 0.000, 0.000, 17:38:38.311
84, -4124.48, -4624.46, -4613.96, -3872.13, 0.000, 0.000, 0.000, 17:38:38.312
85, -3964.92, -4465.15, -4463.58, -3717.57, 0.000, 0.000, 0.000, 17:38:38.326
86, -4243.68, -4791.22, -4769.77, -4037.73, 0.000, 0.000, 0.000, 17:38:38.326
87, -4299.00, -4824.28, -4805.66, -4069.14, 0.000, 0.000, 0.000, 17:38:38.340
88, -4132.02, -4628.00, -4612.70, -3883.70, 0.000, 0.000, 0.000, 17:38:38.340
89, -3981.59, -4488.01, -4483.99, -3730.53, 0.000, 0.000, 0.000, 17:38:38.341
90, -4251.39, -4801.72, -4769.82, -4046.61, 0.000, 0.000, 0.000, 17:38:38.341
91, -4303.91, -4840.84, -4819.09, -4080.22, 0.000, 0.000, 0.000, 17:38:38.363
92, -4137.27, -4649.38, -4637.71, -3884.73, 0.000, 0.000, 0.000, 17:38:38.363
93, -3977.83, -4484.69, -4467.58, -3725.67, 0.000, 0.000, 0.000, 17:38:38.386
94, -4249.29, -4789.13, -4772.32, -4030.83, 0.000, 0.000, 0.000, 17:38:38.386
95, -4318.51, -4838.85, -4826.73, -4077.51, 0.000, 0.000, 0.000, 17:38:38.387
96, -4132.90, -4639.20, -4626.10, -3873.13, 0.000, 0.000, 0.000, 17:38:38.387
97, -3982.86, -4495.99, -4471.08, -3732.12, 0.000, 0.000, 0.000, 17:38:38.401
98, -4239.80, -4790.20, -4783.61, -4039.85, 0.000, 0.000, 0.000, 17:38:38.401
99, -4309.01, -4836.86, -4817.49, -4076.58, 0.000, 0.000, 0.000, 17:38:38.416
100, -4132.99, -4638.70, -4625.38, -3879.29, 0.000, 0.000, 0.000, 17:38:38.416
101, -3989.66, -4476.58, -4472.39, -3735.16, 0.000, 0.000, 0.000, 17:38:38.416
102, -4253.49, -4802.03, -4781.13, -4038.06, 0.000, 0.000, 0.000, 17:38:38.416
103, -4331.18, -4869.99, -4836.46, -4094.32, 0.000, 0.000, 0.000, 17:38:38.417
104, -4149.61, -4659.42, -4653.47, -3895.64, 0.000, 0.000, 0.000, 17:38:38.417
105, -3977.07, -4482.59, -4472.28, -3718.98, 0.000, 0.000, 0.000, 17:38:38.432
106, -4213.99, -4763.93, -4742.70, -4010.36, 0.000, 0.000, 0.000, 17:38:38.432
107, -4313.19, -4834.79, -4812.68, -4067.97, 0.000, 0.000, 0.000, 17:38:38.432
108, -4131.98, -4646.14, -4633.91, -3889.04, 0.000, 0.000, 0.000, 17:38:38.432
109, -3963.25, -4467.30, -4466.07, -3719.79, 0.000, 0.000, 0.000, 17:38:38.446
110, -4232.42, -4782.31, -4758.62, -4026.88, 0.000, 0.000, 0.000, 17:38:38.446
111, -4330.21, -4868.98, -4837.00, -4083.95, 0.000, 0.000, 0.000, 17:38:38.462
112, -4154.46, -4665.88, -4647.64, -3888.82, 0.000, 0.000, 0.000, 17:38:38.462
113, -3976.30, -4481.14, -4476.57, -3732.74, 0.000, 0.000, 0.000, 17:38:38.462
114, -4224.54, -4760.07, -4739.37, -4000.37, 0.000, 0.000, 0.000, 17:38:38.462
115, -4315.48, -4840.41, -4821.70, -4069.38, 0.000, 0.000, 0.000, 17:38:38.475
116, -4165.38, -4665.09, -4650.01, -3899.52, 0.000, 0.000, 0.000, 17:38:38.475
117, -3985.55, -4488.71, -4483.71, -3735.43, 0.000, 0.000, 0.000, 17:38:38.491
118, -4227.48, -4780.63, -4757.93, -4018.67, 0.000, 0.000, 0.000, 17:38:38.491
119, -4310.75, -4832.12, -4819.22, -4076.99, 0.000, 0.000, 0.000, 17:38:38.492
120, -4147.76, -4642.10, -4630.54, -3888.65, 0.000, 0.000, 0.000, 17:38:38.492
121, -3970.82, -4470.08, -4464.06, -3727.55, 0.000, 0.000, 0.000, 17:38:38.506
122, -4233.73, -4776.23, -4757.61, -4004.86, 0.000, 0.000, 0.000, 17:38:38.506
123, -4317.17, -4846.28, -4826.70, -4075.08, 0.000, 0.000, 0.000, 17:38:38.521
124, -4145.89, -4657.63, -4643.89, -3889.24, 0.000, 0.000, 0.000, 17:38:38.521
125, -3972.19, -4469.65, -4464.38, -3727.73, 0.000, 0.000, 0.000, 17:38:38.521
126, -4203.54, -4751.76, -4730.12, -3991.97, 0.000, 0.000, 0.000, 17:38:38.521
127, -4316.29, -4855.35, -4825.61, -4090.69, 0.000, 0.000, 0.000, 17:38:38.535
128, -4158.37, -4657.43, -4641.13, -3905.88, 0.000, 0.000, 0.000, 17:38:38.535
129, -3989.75, -4476.91, -4466.38, -3729.96, 0.000, 0.000, 0.000, 17:38:38.551
130, -4218.55, -4763.39, -4751.90, -4010.83, 0.000, 0.000, 0.000, 17:38:38.551
131, -4331.28, -4857.24, -4833.87, -4097.65, 0.000, 0.000, 0.000, 17:38:38.551
132, -4157.65, -4664.57, -4647.52, -3897.51, 0.000, 0.000, 0.000, 17:38:38.551
133, -3987.90, -4482.49, -4481.92, -3735.84, 0.000, 0.000, 0.000, 17:38:38.566
134, -4212.49, -4747.79, -4724.69, -4002.07, 0.000, 0.000, 0.000, 17:38:38.566
135, -4315.27, -4852.41, -4818.78, -4093.45, 0.000, 0.000, 0.000, 17:38:38.582
136, -4146.98, -4654.49, -4634.79, -3894.91, 0.000, 0.000, 0.000, 17:38:38.582
137, -3976.93, -4472.56, -4458.92, -3720.86, 0.000, 0.000, 0.000, 17:38:38.582
138, -4207.75, -4741.52, -4726.84, -3989.20, 0.000, 0.000, 0.000, 17:38:38.582
139, -4323.15, -4846.50, -4826.39, -4082.63, 0.000, 0.000, 0.000, 17:38:38.596
140, -4166.21, -4659.40, -4650.11, -3901.91, 0.000, 0.000, 0.000, 17:38:38.596
141, -3988.07, -4482.34, -4468.54, -3744.55, 0.000, 0.000, 0.000, 17:38:38.611
142, -4220.75, -4763.78, -4737.02, -4004.09, 0.000, 0.000, 0.000, 17:38:38.611
143, -4351.94, -4884.67, -4859.66, -4110.82, 0.000, 0.000, 0.000, 17:38:38.611
144, -4168.90, -4670.95, -4659.72, -3902.33, 0.000, 0.000, 0.000, 17:38:38.611
145, -3985.41, -4488.31, -4471.36, -3730.47, 0.000, 0.000, 0.000, 17:38:38.626
146, -4201.14, -4741.49, -4729.70, -3986.18, 0.000, 0.000, 0.000, 17:38:38.626
147, -4333.10, -4865.74, -4846.95, -4104.04, 0.000, 0.000, 0.000, 17:38:38.641
148, -4182.72, -4680.27, -4661.39, -3922.80, 0.000, 0.000, 0.000, 17:38:38.641
149, -3982.60, -4484.10, -4472.31, -3731.51, 0.000, 0.000, 0.000, 17:38:38.642
150, -4224.05, -4775.55, -4755.24, -4009.01, 0.000, 0.000, 0.000, 17:38:38.642
151, -4353.46, -4890.65, -4866.92, -4126.66, 0.000, 0.000, 0.000, 17:38:38.656
152, -4179.44, -4693.91, -4681.50, -3939.30, 0.000, 0.000, 0.000, 17:38:38.656
153, -4000.60, -4490.52, -4495.44, -3752.41, 0.000, 0.000, 0.000, 17:38:38.670
154, -4206.94, -4750.75, -4738.21, -4001.63, 0.000, 0.000, 0.000, 17:38:38.670
155, -4345.78, -4883.24, -4851.95, -4110.40, 0.000, 0.000, 0.000, 17:38:38.671
156, -4178.82, -4684.97, -4676.84, -3931.69, 0.000, 0.000, 0.000, 17:38:38.671
157, -4008.50, -4507.37, -4493.24, -3747.33, 0.000, 0.000, 0.000, 17:38:38.686
158, -4221.99, -4756.50, -4733.02, -4008.78, 0.000, 0.000, 0.000, 17:38:38.686
159, -4348.38, -4880.99, -4843.76, -4123.02, 0.000, 0.000, 0.000, 17:38:38.700
160, -4189.93, -4700.29, -4669.25, -3926.64, 0.000, 0.000, 0.000, 17:38:38.700
161, -4002.43, -4490.40, -4482.38, -3725.12, 0.000, 0.000, 0.000, 17:38:38.701
162, -4199.49, -4745.60, -4716.81, -3968.01, 0.000, 0.000, 0.000, 17:38:38.701
163, -4360.64, -4893.01, -4866.59, -4119.48, 0.000, 0.000, 0.000, 17:38:38.716
164, -4169.39, -4682.32, -4665.04, -3913.90, 0.000, 0.000, 0.000, 17:38:38.716
165, -3991.01, -4485.45, -4478.84, -3732.95, 0.000, 0.000, 0.000, 17:38:38.731
166, -4194.82, -4734.75, -4725.57, -3979.03, 0.000, 0.000, 0.000, 17:38:38.731
167, -4358.78, -4893.31, -4866.10, -4121.82, 0.000, 0.000, 0.000, 17:38:38.746
168, -4192.02, -4707.03, -4685.66, -3931.60, 0.000, 0.000, 0.000, 17:38:38.746
169, -3991.18, -4487.88, -4481.93, -3729.48, 0.000, 0.000, 0.000, 17:38:38.747
170, -4197.31, -4758.67, -4728.79, -3984.47, 0.000, 0.000, 0.000, 17:38:38.747
171, -4351.59, -4892.30, -4858.56, -4114.96, 0.000, 0.000, 0.000, 17:38:38.761
172, -4166.27, -4666.28, -4653.56, -3912.79, 0.000, 0.000, 0.000, 17:38:38.762
173, -3983.91, -4478.37, -4460.54, -3727.99, 0.000, 0.000, 0.000, 17:38:38.762
174, -4182.82, -4723.83, -4714.00, -3963.31, 0.000, 0.000, 0.000, 17:38:38.762
175, -4331.23, -4870.85, -4856.59, -4103.23, 0.000, 0.000, 0.000, 17:38:38.776
176, -4159.09, -4661.82, -4647.54, -3903.83, 0.000, 0.000, 0.000, 17:38:38.776
177, -3979.54, -4475.46, -4473.07, -3721.70, 0.000, 0.000, 0.000, 17:38:38.790
178, -4165.86, -4711.47, -4697.97, -3955.53, 0.000, 0.000, 0.000, 17:38:38.790
179, -4332.29, -4867.42, -4838.72, -4112.06, 0.000, 0.000, 0.000, 17:38:38.791
180, -4186.43, -4686.58, -4673.03, -3924.87, 0.000, 0.000, 0.000, 17:38:38.791
181, -3995.59, -4480.07, -4481.13, -3727.23, 0.000, 0.000, 0.000, 17:38:38.806
182, -4167.28, -4701.95, -4699.86, -3954.92, 0.000, 0.000, 0.000, 17:38:38.806
183, -4346.84, -4879.60, -4865.93, -4107.90, 0.000, 0.000, 0.000, 17:38:38.821
184, -4185.50, -4687.23, -4679.50, -3932.73, 0.000, 0.000, 0.000, 17:38:38.821
185, -3996.12, -4487.74, -4485.03, -3733.00, 0.000, 0.000, 0.000, 17:38:38.822
186, -4177.14, -4730.45, -4701.03, -3951.91, 0.000, 0.000, 0.000, 17:38:38.822
187, -4350.02, -4883.18, -4853.64, -4122.17, 0.000, 0.000, 0.000, 17:38:38.836
188, -4184.37, -4694.11, -4672.30, -3930.11, 0.000, 0.000, 0.000, 17:38:38.836
189, -3996.57, -4482.52, -4485.77, -3742.76, 0.000, 0.000, 0.000, 17:38:38.851
190, -4163.33, -4707.61, -4698.32, -3944.49, 0.000, 0.000, 0.000, 17:38:38.851
191, -4344.68, -4887.93, -4858.62, -4119.21, 0.000, 0.000, 0.000, 17:38:38.852
192, -4180.24, -4690.14, -4662.71, -3921.09, 0.000, 0.000, 0.000, 17:38:38.852
193, -3982.25, -4486.35, -4478.10, -3726.92, 0.000, 0.000, 0.000, 17:38:38.866
194, -4162.23, -4697.95, -4684.75, -3942.51, 0.000, 0.000, 0.000, 17:38:38.866
195, -4350.69, -4888.80, -4864.16, -4123.11, 0.000, 0.000, 0.000, 17:38:38.881
196, -4186.82, -4691.67, -4678.49, -3930.62, 0.000, 0.000, 0.000, 17:38:38.881
197, -4004.82, -4486.59, -4487.44, -3739.71, 0.000, 0.000, 0.000, 17:38:38.882
198, -4165.18, -4704.83, -4682.28, -3940.55, 0.000, 0.000, 0.000, 17:38:38.882
199, -4356.08, -4878.01, -4843.58, -4116.02, 0.000, 0.000, 0.000, 17:38:38.911
200, -4186.80, -4695.11, -4668.78, -3935.22, 0.000, 0.000, 0.000, 17:38:38.911
0, -3991.99, -4488.70, -4471.03, -3745.11, 0.000, 0.000, 0.000, 17:38:38.912
1, -4148.45, -4689.43, -4668.90, -3929.57, 0.000, 0.000, 0.000, 17:38:38.912
2, -4338.85, -4868.65, -4852.65, -4121.25, 0.000, 0.000, 0.000, 17:38:38.912
3, -4179.93, -4689.95, -4676.33, -3933.54, 0.000, 0.000, 0.000, 17:38:38.956
4, -3994.28, -4504.75, -4485.12, -3737.76, 0.000, 0.000, 0.000, 17:38:38.956
5, -4153.35, -4700.40, -4673.42, -3941.06, 0.000, 0.000, 0.000, 17:38:38.957
6, -4350.90, -4891.81, -4866.98, -4122.93, 0.000, 0.000, 0.000, 17:38:38.957
7, -4196.32, -4698.23, -4677.93, -3935.54, 0.000, 0.000, 0.000, 17:38:38.957
8, -3987.49, -4489.42, -4479.43, -3727.83, 0.000, 0.000, 0.000, 17:38:38.957
9, -4131.42, -4676.10, -4654.60, -3916.89, 0.000, 0.000, 0.000, 17:38:38.958
10, -4348.07, -4881.75, -4852.16, -4110.75, 0.000, 0.000, 0.000, 17:38:38.958
11, -4181.08, -4699.19, -4673.54, -3942.13, 0.000, 0.000, 0.000, 17:38:38.959
12, -3994.89, -4482.14, -4483.50, -3739.00, 0.000, 0.000, 0.000, 17:38:38.959
13, -4141.99, -4678.18, -4663.46, -3917.48, 0.000, 0.000, 0.000, 17:38:38.985
14, -4341.03, -4898.07, -4865.56, -4122.44, 0.000, 0.000, 0.000, 17:38:38.987
15, -4184.85, -4701.82, -4681.03, -3932.97, 0.000, 0.000, 0.000, 17:38:38.987
16, -4002.64, -4507.73, -4494.27, -3742.81, 0.000, 0.000, 0.000, 17:38:38.987
17, -4136.98, -4666.79, -4655.74, -3918.88, 0.000, 0.000, 0.000, 17:38:39.001
18, -4343.98, -4884.17, -4864.43, -4129.58, 0.000, 0.000, 0.000, 17:38:39.001
19, -4203.30, -4712.45, -4682.15, -3949.06, 0.000, 0.000, 0.000, 17:38:39.002
20, -4010.22, -4504.80, -4497.44, -3743.13, 0.000, 0.000, 0.000, 17:38:39.002
21, -4137.32, -4676.43, -4664.37, -3920.31, 0.000, 0.000, 0.000, 17:38:39.016
22, -4348.41, -4892.21, -4867.26, -4121.50, 0.000, 0.000, 0.000, 17:38:39.016
23, -4196.12, -4713.34, -4693.50, -3956.36, 0.000, 0.000, 0.000, 17:38:39.016
24, -4003.25, -4489.08, -4482.93, -3746.79, 0.000, 0.000, 0.000, 17:38:39.016
25, -4126.63, -4653.09, -4643.69, -3913.82, 0.000, 0.000, 0.000, 17:38:39.032
26, -4353.15, -4893.29, -4860.26, -4130.04, 0.000, 0.000, 0.000, 17:38:39.032
27, -4185.11, -4693.58, -4682.92, -3933.02, 0.000, 0.000, 0.000, 17:38:39.046
28, -3994.10, -4493.76, -4482.09, -3730.59, 0.000, 0.000, 0.000, 17:38:39.046
29, -4121.44, -4664.28, -4644.30, -3904.03, 0.000, 0.000, 0.000, 17:38:39.047
30, -4338.54, -4877.19, -4852.98, -4122.05, 0.000, 0.000, 0.000, 17:38:39.047
31, -4205.44, -4710.38, -4706.41, -3950.16, 0.000, 0.000, 0.000, 17:38:39.061
32, -4006.61, -4494.24, -4495.96, -3738.95, 0.000, 0.000, 0.000, 17:38:39.061
33, -4129.42, -4661.60, -4649.89, -3912.08, 0.000, 0.000, 0.000, 17:38:39.090
34, -4357.87, -4899.71, -4870.58, -4133.79, 0.000, 0.000, 0.000, 17:38:39.090
35, -4191.82, -4714.33, -4683.33, -3947.60, 0.000, 0.000, 0.000, 17:38:39.091
36, -3996.66, -4488.46, -4477.40, -3738.05, 0.000, 0.000, 0.000, 17:38:39.091
37, -4118.03, -4643.19, -4631.30, -3898.37, 0.000, 0.000, 0.000, 17:38:39.092
38, -4353.32, -4890.80, -4867.94, -4129.47, 0.000, 0.000, 0.000, 17:38:39.092
39, -4201.06, -4716.21, -4692.01, -3956.32, 0.000, 0.000, 0.000, 17:38:39.106
40, -3993.59, -4497.75, -4489.52, -3728.02, 0.000, 0.000, 0.000, 17:38:39.106
41, -4113.16, -4648.10, -4638.51, -3893.58, 0.000, 0.000, 0.000, 17:38:39.107
42, -4358.30, -4899.05, -4870.38, -4118.96, 0.000, 0.000, 0.000, 17:38:39.107
43, -4208.99, -4715.57, -4701.38, -3951.61, 0.000, 0.000, 0.000, 17:38:39.120
44, -4019.99, -4517.58, -4502.42, -3752.00, 0.000, 0.000, 0.000, 17:38:39.120
45, -4114.83, -4652.72, -4635.20, -3895.02, 0.000, 0.000, 0.000, 17:38:39.136
46, -4360.98, -4892.09, -4878.84, -4129.81, 0.000, 0.000, 0.000, 17:38:39.136
47, -4209.45, -4717.65, -4705.57, -3953.52, 0.000, 0.000, 0.000, 17:38:39.137
48, -4016.94, -4519.46, -4501.76, -3750.35, 0.000, 0.000, 0.000, 17:38:39.137
49, -4115.75, -4650.16, -4632.96, -3894.30, 0.000, 0.000, 0.000, 17:38:39.165
50, -4339.26, -4867.37, -4849.68, -4120.88, 0.000, 0.000, 0.000, 17:38:39.166
51, -4193.76, -4708.95, -4703.58, -3954.58, 0.000, 0.000, 0.000, 17:38:39.166
52, -4000.00, -4496.10, -4488.70, -3747.97, 0.000, 0.000, 0.000, 17:38:39.166
53, -4106.77, -4638.35, -4627.62, -3889.94, 0.000, 0.000, 0.000, 17:38:39.173
54, -4354.08, -4895.82, -4873.44, -4123.84, 0.000, 0.000, 0.000, 17:38:39.173
55, -4210.18, -4722.48, -4696.17, -3954.21, 0.000, 0.000, 0.000, 17:38:39.181
56, -4020.21, -4517.03, -4515.48, -3756.36, 0.000, 0.000, 0.000, 17:38:39.181
57, -4109.01, -4641.37, -4633.18, -3884.39, 0.000, 0.000, 0.000, 17:38:39.196
58, -4341.00, -4895.51, -4867.28, -4124.59, 0.000, 0.000, 0.000, 17:38:39.196
59, -4212.33, -4735.22, -4717.66, -3970.09, 0.000, 0.000, 0.000, 17:38:39.197
60, -4002.90, -4496.64, -4486.44, -3743.19, 0.000, 0.000, 0.000, 17:38:39.197
61, -4093.22, -4621.13, -4620.92, -3888.85, 0.000, 0.000, 0.000, 17:38:39.212
62, -4342.55, -4895.26, -4873.31, -4126.16, 0.000, 0.000, 0.000, 17:38:39.212
63, -4203.74, -4722.87, -4703.09, -3954.77, 0.000, 0.000, 0.000, 17:38:39.226
64, -4013.41, -4516.08, -4505.61, -3755.27, 0.000, 0.000, 0.000, 17:38:39.226
65, -4084.97, -4621.06, -4610.32, -3873.10, 0.000, 0.000, 0.000, 17:38:39.227
66, -4337.49, -4880.78, -4850.40, -4121.34, 0.000, 0.000, 0.000, 17:38:39.227
67, -4212.16, -4725.50, -4698.44, -3957.77, 0.000, 0.000, 0.000, 17:38:39.240
68, -4031.17, -4515.84, -4513.81, -3768.93, 0.000, 0.000, 0.000, 17:38:39.242
69, -4102.14, -4624.67, -4617.72, -3872.97, 0.000, 0.000, 0.000, 17:38:39.256
70, -4351.25, -4904.44, -4879.46, -4134.13, 0.000, 0.000, 0.000, 17:38:39.256
71, -4214.71, -4719.39, -4717.48, -3952.78, 0.000, 0.000, 0.000, 17:38:39.256
72, -4018.92, -4521.18, -4512.60, -3763.53, 0.000, 0.000, 0.000, 17:38:39.256
73, -4094.33, -4602.98, -4601.60, -3873.32, 0.000, 0.000, 0.000, 17:38:39.270
74, -4340.69, -4880.83, -4861.86, -4124.02, 0.000, 0.000, 0.000, 17:38:39.271
75, -4218.95, -4729.88, -4716.00, -3971.84, 0.000, 0.000, 0.000, 17:38:39.286
76, -4016.63, -4519.84, -4501.85, -3756.61, 0.000, 0.000, 0.000, 17:38:39.286
77, -4069.85, -4608.11, -4595.07, -3855.13, 0.000, 0.000, 0.000, 17:38:39.287
78, -4352.81, -4889.88, -4865.65, -4133.69, 0.000, 0.000, 0.000, 17:38:39.287
79, -4234.29, -4747.75, -4717.97, -3979.14, 0.000, 0.000, 0.000, 17:38:39.301
80, -4014.12, -4497.43, -4500.41, -3762.67, 0.000, 0.000, 0.000, 17:38:39.301
81, -4072.27, -4594.18, -4592.94, -3846.21, 0.000, 0.000, 0.000, 17:38:39.316
82, -4344.90, -4882.38, -4865.77, -4126.01, 0.000, 0.000, 0.000, 17:38:39.316
83, -4232.88, -4747.84, -4731.58, -3976.56, 0.000, 0.000, 0.000, 17:38:39.332
84, -4022.62, -4511.96, -4513.32, -3770.90, 0.000, 0.000, 0.000, 17:38:39.332
85, -4083.06, -4611.32, -4596.64, -3845.90, 0.000, 0.000, 0.000, 17:38:39.332
86, -4341.14, -4876.86, -4862.61, -4118.24, 0.000, 0.000, 0.000, 17:38:39.332
87, -4222.63, -4737.70, -4724.05, -3980.67, 0.000, 0.000, 0.000, 17:38:39.346
88, -4036.00, -4513.83, -4518.16, -3765.61, 0.000, 0.000, 0.000, 17:38:39.346
89, -4077.34, -4605.80, -4605.86, -3855.70, 0.000, 0.000, 0.000, 17:38:39.346
90, -4349.71, -4900.22, -4876.14, -4129.23, 0.000, 0.000, 0.000, 17:38:39.346
91, -4231.84, -4746.51, -4727.06, -3971.66, 0.000, 0.000, 0.000, 17:38:39.362
92, -4018.86, -4515.21, -4519.14, -3763.74, 0.000, 0.000, 0.000, 17:38:39.362
93, -4066.69, -4578.19, -4586.70, -3843.87, 0.000, 0.000, 0.000, 17:38:39.376
94, -4340.64, -4880.42, -4865.38, -4130.72, 0.000, 0.000, 0.000, 17:38:39.376
95, -4232.10, -4737.78, -4716.45, -3983.92, 0.000, 0.000, 0.000, 17:38:39.377
96, -4037.79, -4522.66, -4512.80, -3765.17, 0.000, 0.000, 0.000, 17:38:39.377
97, -4065.23, -4585.41, -4576.66, -3828.61, 0.000, 0.000, 0.000, 17:38:39.391
98, -4357.50, -4901.32, -4872.16, -4127.20, 0.000, 0.000, 0.000, 17:38:39.391
99, -4237.81, -4754.69, -4725.04, -3981.58, 0.000, 0.000, 0.000, 17:38:39.405
100, -4020.62, -4522.54, -4505.60, -3770.89, 0.000, 0.000, 0.000, 17:38:39.405
101, -4066.77, -4583.24, -4573.42, -3835.77, 0.000, 0.000, 0.000, 17:38:39.406
102, -4351.89, -4895.87, -4874.93, -4129.74, 0.000, 0.000, 0.000, 17:38:39.406
103, -4241.40, -4747.20, -4732.20, -3983.29, 0.000, 0.000, 0.000, 17:38:39.421
104, -4030.93, -4515.63, -4510.70, -3760.26, 0.000, 0.000, 0.000, 17:38:39.421
105, -4065.05, -4592.83, -4587.59, -3838.46, 0.000, 0.000, 0.000, 17:38:39.436
106, -4347.04, -4891.13, -4880.21, -4123.32, 0.000, 0.000, 0.000, 17:38:39.436
107, -4232.58, -4749.51, -4740.54, -3977.97, 0.000, 0.000, 0.000, 17:38:39.436
108, -4033.39, -4529.49, -4522.43, -3771.93, 0.000, 0.000, 0.000, 17:38:39.436
109, -4058.43, -4590.20, -4570.59, -3824.58, 0.000, 0.000, 0.000, 17:38:39.450
110, -4336.95, -4882.96, -4861.52, -4113.02, 0.000, 0.000, 0.000, 17:38:39.450
111, -4213.96, -4726.79, -4721.46, -3964.09, 0.000, 0.000, 0.000, 17:38:39.466
112, -4031.04, -4539.89, -4529.36, -3767.67, 0.000, 0.000, 0.000, 17:38:39.466
113, -4056.10, -4590.35, -4581.09, -3836.67, 0.000, 0.000, 0.000, 17:38:39.466
114, -4355.18, -4892.43, -4877.56, -4125.70, 0.000, 0.000, 0.000, 17:38:39.466
115, -4239.26, -4760.00, -4732.14, -3988.80, 0.000, 0.000, 0.000, 17:38:39.488
116, -4039.06, -4529.19, -4513.47, -3765.53, 0.000, 0.000, 0.000, 17:38:39.488
117, -4040.65, -4571.78, -4560.30, -3828.78, 0.000, 0.000, 0.000, 17:38:39.496
118, -4355.82, -4916.38, -4900.52, -4151.79, 0.000, 0.000, 0.000, 17:38:39.497
119, -4257.95, -4774.13, -4755.26, -3993.29, 0.000, 0.000, 0.000, 17:38:39.497
120, -4030.71, -4542.26, -4518.68, -3770.32, 0.000, 0.000, 0.000, 17:38:39.497
121, -4044.72, -4575.97, -4566.14, -3815.76, 0.000, 0.000, 0.000, 17:38:39.511
122, -4335.77, -4882.02, -4854.70, -4119.54, 0.000, 0.000, 0.000, 17:38:39.511
123, -4237.57, -4745.56, -4725.08, -3992.35, 0.000, 0.000, 0.000, 17:38:39.526
124, -4027.08, -4519.13, -4508.98, -3778.40, 0.000, 0.000, 0.000, 17:38:39.526
125, -4044.40, -4570.61, -4547.96, -3826.05, 0.000, 0.000, 0.000, 17:38:39.526
126, -4337.98, -4882.56, -4860.65, -4128.25, 0.000, 0.000, 0.000, 17:38:39.526
127, -4240.80, -4755.40, -4735.94, -3990.78, 0.000, 0.000, 0.000, 17:38:39.540
128, -4050.85, -4552.48, -4534.50, -3793.24, 0.000, 0.000, 0.000, 17:38:39.540
129, -4051.83, -4561.80, -4567.57, -3810.72, 0.000, 0.000, 0.000, 17:38:39.571
130, -4350.11, -4884.51, -4867.46, -4130.57, 0.000, 0.000, 0.000, 17:38:39.571
131, -4248.14, -4758.98, -4742.84, -4000.75, 0.000, 0.000, 0.000, 17:38:39.572
132, -4043.00, -4546.23, -4530.14, -3781.52, 0.000, 0.000, 0.000, 17:38:39.572
133, -4042.77, -4554.77, -4550.95, -3808.00, 0.000, 0.000, 0.000, 17:38:39.572
134, -4333.91, -4883.71, -4866.23, -4115.62, 0.000, 0.000, 0.000, 17:38:39.572
135, -4252.80, -4762.63, -4756.96, -3995.38, 0.000, 0.000, 0.000, 17:38:39.586
136, -4055.49, -4552.77, -4550.87, -3788.04, 0.000, 0.000, 0.000, 17:38:39.586
137, -4054.59, -4576.48, -4556.27, -3816.99, 0.000, 0.000, 0.000, 17:38:39.587
138, -4351.68, -4881.65, -4866.71, -4129.47, 0.000, 0.000, 0.000, 17:38:39.587
139, -4265.76, -4781.71, -4760.31, -4023.14, 0.000, 0.000, 0.000, 17:38:39.601
140, -4053.74, -4542.22, -4538.71, -3800.77, 0.000, 0.000, 0.000, 17:38:39.601
141, -4037.90, -4551.80, -4548.93, -3800.26, 0.000, 0.000, 0.000, 17:38:39.616
142, -4346.91, -4884.10, -4865.84, -4117.11, 0.000, 0.000, 0.000, 17:38:39.616
143, -4256.36, -4773.55, -4749.13, -4007.84, 0.000, 0.000, 0.000, 17:38:39.617
144, -4054.78, -4560.44, -4554.42, -3793.52, 0.000, 0.000, 0.000, 17:38:39.617
145, -4034.89, -4553.30, -4543.01, -3808.64, 0.000, 0.000, 0.000, 17:38:39.646
146, -4335.14, -4889.46, -4860.99, -4115.70, 0.000, 0.000, 0.000, 17:38:39.647
147, -4260.69, -4775.07, -4751.48, -4001.87, 0.000, 0.000, 0.000, 17:38:39.647
148, -4055.95, -4554.94, -4552.43, -3794.54, 0.000, 0.000, 0.000, 17:38:39.647
149, -4031.87, -4546.87, -4543.98, -3800.25, 0.000, 0.000, 0.000, 17:38:39.648
150, -4347.60, -4888.03, -4869.06, -4128.91, 0.000, 0.000, 0.000, 17:38:39.648
151, -4277.39, -4782.50, -4762.42, -4014.62, 0.000, 0.000, 0.000, 17:38:39.662
152, -4057.06, -4557.06, -4538.25, -3796.64, 0.000, 0.000, 0.000, 17:38:39.662
153, -4023.14, -4544.39, -4541.76, -3789.10, 0.000, 0.000, 0.000, 17:38:39.676
154, -4337.46, -4882.86, -4869.26, -4127.23, 0.000, 0.000, 0.000, 17:38:39.676
155, -4262.16, -4776.38, -4754.25, -4010.00, 0.000, 0.000, 0.000, 17:38:39.676
156, -4044.46, -4546.28, -4539.13, -3809.80, 0.000, 0.000, 0.000, 17:38:39.676
157, -4035.56, -4555.63, -4547.81, -3808.55, 0.000, 0.000, 0.000, 17:38:39.690
158, -4342.62, -4892.40, -4866.50, -4124.30, 0.000, 0.000, 0.000, 17:38:39.690
159, -4267.85, -4782.22, -4770.48, -4016.64, 0.000, 0.000, 0.000, 17:38:39.706
160, -4049.73, -4550.94, -4545.58, -3810.00, 0.000, 0.000, 0.000, 17:38:39.706
161, -4022.19, -4543.59, -4530.09, -3793.11, 0.000, 0.000, 0.000, 17:38:39.706
162, -4338.29, -4882.75, -4860.53, -4117.51, 0.000, 0.000, 0.000, 17:38:39.706
163, -4268.78, -4795.00, -4764.81, -4031.18, 0.000, 0.000, 0.000, 17:38:39.721
164, -4067.11, -4551.65, -4545.38, -3800.22, 0.000, 0.000, 0.000, 17:38:39.721
165, -4025.52, -4547.69, -4529.59, -3789.31, 0.000, 0.000, 0.000, 17:38:39.736
166, -4323.89, -4872.09, -4862.41, -4112.06, 0.000, 0.000, 0.000, 17:38:39.736
167, -4266.22, -4781.09, -4760.91, -4004.37, 0.000, 0.000, 0.000, 17:38:39.736
168, -4066.11, -4558.52, -4548.92, -3802.94, 0.000, 0.000, 0.000, 17:38:39.736
169, -4014.38, -4523.70, -4519.30, -3780.05, 0.000, 0.000, 0.000, 17:38:39.750
170, -4315.11, -4857.38, -4847.07, -4108.42, 0.000, 0.000, 0.000, 17:38:39.751
171, -4261.65, -4781.10, -4764.42, -4017.50, 0.000, 0.000, 0.000, 17:38:39.766
172, -4064.10, -4558.76, -4549.06, -3809.46, 0.000, 0.000, 0.000, 17:38:39.766
173, -4022.80, -4531.06, -4533.19, -3785.63, 0.000, 0.000, 0.000, 17:38:39.766
174, -4334.50, -4884.90, -4867.30, -4125.10, 0.000, 0.000, 0.000, 17:38:39.766
175, -4268.29, -4783.32, -4767.50, -4028.80, 0.000, 0.000, 0.000, 17:38:39.782
176, -4060.33, -4557.97, -4545.10, -3798.39, 0.000, 0.000, 0.000, 17:38:39.783
177, -3997.15, -4523.24, -4511.83, -3769.67, 0.000, 0.000, 0.000, 17:38:39.798
178, -4306.38, -4859.25, -4820.96, -4100.25, 0.000, 0.000, 0.000, 17:38:39.798
179, -4263.63, -4769.15, -4770.26, -4010.73, 0.000, 0.000, 0.000, 17:38:39.799
180, -4067.56, -4552.35, -4546.39, -3811.38, 0.000, 0.000, 0.000, 17:38:39.799
181, -4010.03, -4515.41, -4504.32, -3768.24, 0.000, 0.000, 0.000, 17:38:39.819
182, -4314.27, -4876.64, -4848.62, -4103.51, 0.000, 0.000, 0.000, 17:38:39.819
183, -4273.51, -4787.31, -4772.40, -4020.84, 0.000, 0.000, 0.000, 17:38:39.826
184, -4064.54, -4559.30, -4551.14, -3806.93, 0.000, 0.000, 0.000, 17:38:39.826
185, -4002.78, -4509.42, -4504.57, -3763.82, 0.000, 0.000, 0.000, 17:38:39.827
186, -4301.30, -4849.90, -4829.52, -4082.04, 0.000, 0.000, 0.000, 17:38:39.827
187, -4259.75, -4768.57, -4758.12, -4014.09, 0.000, 0.000, 0.000, 17:38:39.841
188, -4078.19, -4586.27, -4562.94, -3819.59, 0.000, 0.000, 0.000, 17:38:39.841
189, -4003.16, -4514.37, -4498.26, -3752.16, 0.000, 0.000, 0.000, 17:38:39.855
190, -4316.22, -4854.62, -4831.40, -4090.51, 0.000, 0.000, 0.000, 17:38:39.856
191, -4272.92, -4781.74, -4774.94, -4022.42, 0.000, 0.000, 0.000, 17:38:39.856
192, -4064.84, -4567.31, -4546.87, -3797.07, 0.000, 0.000, 0.000, 17:38:39.856
193, -3999.58, -4497.51, -4491.69, -3758.60, 0.000, 0.000, 0.000, 17:38:39.870
194, -4314.64, -4847.49, -4837.19, -4104.55, 0.000, 0.000, 0.000, 17:38:39.871
195, -4271.93, -4778.69, -4757.58, -4019.67, 0.000, 0.000, 0.000, 17:38:39.885
196, -4069.87, -4575.69, -4552.10, -3815.17, 0.000, 0.000, 0.000, 17:38:39.885
197, -3997.34, -4506.26, -4506.66, -3757.83, 0.000, 0.000, 0.000, 17:38:39.886
198, -4304.84, -4848.00, -4837.54, -4077.45, 0.000, 0.000, 0.000, 17:38:39.886
199, -4264.82, -4787.52, -4770.55, -4024.65, 0.000, 0.000, 0.000, 17:38:39.901
200, -4089.34, -4593.53, -4576.95, -3820.75, 0.000, 0.000, 0.000, 17:38:39.901
0, -4002.90, -4520.72, -4516.42, -3764.89, 0.000, 0.000, 0.000, 17:38:39.902
1, -4303.54, -4845.26, -4828.47, -4092.23, 0.000, 0.000, 0.000, 17:38:39.916
2, -4270.00, -4783.45, -4752.24, -4012.47, 0.000, 0.000, 0.000, 17:38:39.916
3, -4062.71, -4564.55, -4555.95, -3804.55, 0.000, 0.000, 0.000, 17:38:39.931
4, -3982.97, -4492.22, -4493.05, -3747.31, 0.000, 0.000, 0.000, 17:38:39.931
5, -4292.45, -4840.11, -4837.51, -4091.45, 0.000, 0.000, 0.000, 17:38:39.932
6, -4262.36, -4793.21, -4767.87, -4027.20, 0.000, 0.000, 0.000, 17:38:39.932
7, -4076.38, -4571.23, -4567.61, -3815.65, 0.000, 0.000, 0.000, 17:38:39.946
8, -3996.09, -4520.92, -4498.55, -3744.23, 0.000, 0.000, 0.000, 17:38:39.946
9, -4297.77, -4851.41, -4834.59, -4088.27, 0.000, 0.000, 0.000, 17:38:39.961
10, -4275.87, -4802.69, -4790.18, -4030.75, 0.000, 0.000, 0.000, 17:38:39.962
11, -4084.45, -4587.13, -4584.32, -3831.19, 0.000, 0.000, 0.000, 17:38:39.962
12, -3983.43, -4498.30, -4498.27, -3750.26, 0.000, 0.000, 0.000, 17:38:39.962
13, -4292.82, -4849.97, -4822.75, -4085.13, 0.000, 0.000, 0.000, 17:38:39.976
14, -4274.99, -4798.78, -4779.62, -4031.02, 0.000, 0.000, 0.000, 17:38:39.976
15, -4087.76, -4589.93, -4584.39, -3829.36, 0.000, 0.000, 0.000, 17:38:39.992
16, -3991.50, -4494.52, -4500.57, -3744.23, 0.000, 0.000, 0.000, 17:38:39.992
17, -4297.80, -4851.05, -4827.64, -4084.79, 0.000, 0.000, 0.000, 17:38:39.992
18, -4283.16, -4804.44, -4785.00, -4039.18, 0.000, 0.000, 0.000, 17:38:39.992
19, -4093.68, -4602.91, -4593.32, -3826.92, 0.000, 0.000, 0.000, 17:38:40.006
20, -3989.15, -4499.10, -4496.08, -3740.91, 0.000, 0.000, 0.000, 17:38:40.006
21, -4306.19, -4868.38, -4843.42, -4099.87, 0.000, 0.000, 0.000, 17:38:40.021
22, -4292.43, -4816.55, -4805.51, -4052.10, 0.000, 0.000, 0.000, 17:38:40.021
23, -4098.57, -4596.71, -4590.23, -3844.85, 0.000, 0.000, 0.000, 17:38:40.021
24, -3981.12, -4488.15, -4480.33, -3747.67, 0.000, 0.000, 0.000, 17:38:40.021
25, -4295.65, -4849.78, -4820.67, -4087.90, 0.000, 0.000, 0.000, 17:38:40.052
26, -4284.00, -4798.48, -4780.91, -4035.19, 0.000, 0.000, 0.000, 17:38:40.052
27, -4100.08, -4609.58, -4578.04, -3837.54, 0.000, 0.000, 0.000, 17:38:40.052
28, -3983.43, -4486.89, -4489.71, -3738.99, 0.000, 0.000, 0.000, 17:38:40.052
29, -4298.34, -4839.77, -4822.07, -4079.98, 0.000, 0.000, 0.000, 17:38:40.052
30, -4289.79, -4817.96, -4794.33, -4052.35, 0.000, 0.000, 0.000, 17:38:40.052
31, -4104.21, -4607.91, -4600.07, -3852.39, 0.000, 0.000, 0.000, 17:38:40.066
32, -3985.51, -4491.79, -4487.12, -3749.12, 0.000, 0.000, 0.000, 17:38:40.066
33, -4286.20, -4830.96, -4829.21, -4080.06, 0.000, 0.000, 0.000, 17:38:40.081
34, -4272.06, -4813.63, -4784.62, -4050.63, 0.000, 0.000, 0.000, 17:38:40.081
35, -4111.52, -4606.53, -4593.47, -3851.77, 0.000, 0.000, 0.000, 17:38:40.082
36, -3965.91, -4470.73, -4469.50, -3723.72, 0.000, 0.000, 0.000, 17:38:40.082
37, -4285.43, -4824.69, -4816.46, -4067.11, 0.000, 0.000, 0.000, 17:38:40.096
38, -4283.62, -4808.34, -4791.79, -4044.44, 0.000, 0.000, 0.000, 17:38:40.096
39, -4116.09, -4607.18, -4600.13, -3855.65, 0.000, 0.000, 0.000, 17:38:40.127
40, -3989.72, -4494.22, -4500.78, -3751.34, 0.000, 0.000, 0.000, 17:38:40.127
41, -4285.04, -4835.28, -4813.50, -4071.49, 0.000, 0.000, 0.000, 17:38:40.127
42, -4301.70, -4827.08, -4804.06, -4061.51, 0.000, 0.000, 0.000, 17:38:40.128
43, -4104.27, -4593.68, -4593.97, -3848.93, 0.000, 0.000, 0.000, 17:38:40.141
44, -3968.51, -4473.71, -4476.45, -3731.87, 0.000, 0.000, 0.000, 17:38:40.141
45, -4295.80, -4854.08, -4824.57, -4083.10, 0.000, 0.000, 0.000, 17:38:40.142
46, -4303.84, -4832.47, -4814.17, -4066.08, 0.000, 0.000, 0.000, 17:38:40.142
47, -4114.61, -4612.93, -4601.53, -3852.55, 0.000, 0.000, 0.000, 17:38:40.142
48, -3978.03, -4486.66, -4476.39, -3736.12, 0.000, 0.000, 0.000, 17:38:40.142
49, -4280.82, -4826.64, -4804.40, -4065.28, 0.000, 0.000, 0.000, 17:38:40.156
50, -4299.78, -4829.27, -4796.32, -4051.75, 0.000, 0.000, 0.000, 17:38:40.156
51, -4107.90, -4613.48, -4593.64, -3857.06, 0.000, 0.000, 0.000, 17:38:40.171
52, -3984.80, -4492.00, -4495.96, -3738.88, 0.000, 0.000, 0.000, 17:38:40.171
53, -4275.27, -4814.53, -4796.70, -4061.64, 0.000, 0.000, 0.000, 17:38:40.171
54, -4297.41, -4822.62, -4798.64, -4056.16, 0.000, 0.000, 0.000, 17:38:40.171
55, -4114.97, -4610.37, -4598.76, -3849.24, 0.000, 0.000, 0.000, 17:38:40.185
56, -3977.54, -4488.10, -4484.42, -3739.08, 0.000, 0.000, 0.000, 17:38:40.185
57, -4284.25, -4823.35, -4811.98, -4069.09, 0.000, 0.000, 0.000, 17:38:40.201
58, -4308.79, -4824.78, -4821.63, -4064.82, 0.000, 0.000, 0.000, 17:38:40.201
59, -4131.35, -4626.60, -4620.32, -3871.16, 0.000, 0.000, 0.000, 17:38:40.202
60, -3978.17, -4484.05, -4475.79, -3731.77, 0.000, 0.000, 0.000, 17:38:40.202
61, -4289.85, -4827.82, -4813.29, -4068.01, 0.000, 0.000, 0.000, 17:38:40.216
62, -4299.34, -4828.55, -4803.88, -4056.70, 0.000, 0.000, 0.000, 17:38:40.216
63, -4117.64, -4618.66, -4601.90, -3854.38, 0.000, 0.000, 0.000, 17:38:40.230
64, -3984.73, -4491.93, -4491.07, -3735.33, 0.000, 0.000, 0.000, 17:38:40.231
65, -4270.24, -4809.69, -4798.54, -4050.50, 0.000, 0.000, 0.000, 17:38:40.238
66, -4308.72, -4821.76, -4807.68, -4061.36, 0.000, 0.000, 0.000, 17:38:40.238
67, -4117.93, -4619.83, -4603.86, -3868.82, 0.000, 0.000, 0.000, 17:38:40.246
68, -3988.99, -4485.84, -4493.61, -3744.98, 0.000, 0.000, 0.000, 17:38:40.247
69, -4260.63, -4809.09, -4787.42, -4044.95, 0.000, 0.000, 0.000, 17:38:40.292
70, -4294.93, -4819.13, -4791.05, -4065.51, 0.000, 0.000, 0.000, 17:38:40.292
71, -4125.53, -4615.59, -4618.37, -3874.13, 0.000, 0.000, 0.000, 17:38:40.293
72, -3977.78, -4480.62, -4490.23, -3733.21, 0.000, 0.000, 0.000, 17:38:40.293
73, -4252.86, -4795.54, -4784.74, -4039.88, 0.000, 0.000, 0.000, 17:38:40.293
74, -4285.97, -4822.68, -4811.74, -4063.36, 0.000, 0.000, 0.000, 17:38:40.294
75, -4109.43, -4604.33, -4599.00, -3852.35, 0.000, 0.000, 0.000, 17:38:40.294
76, -3968.39, -4478.42, -4467.50, -3724.18, 0.000, 0.000, 0.000, 17:38:40.294
77, -4252.81, -4803.67, -4779.71, -4047.16, 0.000, 0.000, 0.000, 17:38:40.294
78, -4299.75, -4823.90, -4808.12, -4065.02, 0.000, 0.000, 0.000, 17:38:40.294
79, -4131.51, -4628.18, -4620.14, -3870.34, 0.000, 0.000, 0.000, 17:38:40.306
80, -3986.13, -4483.09, -4486.19, -3733.84, 0.000, 0.000, 0.000, 17:38:40.306
81, -4249.66, -4793.95, -4775.25, -4040.10, 0.000, 0.000, 0.000, 17:38:40.321
82, -4312.51, -4839.62, -4808.05, -4069.85, 0.000, 0.000, 0.000, 17:38:40.321
83, -4144.68, -4646.08, -4631.67, -3875.46, 0.000, 0.000, 0.000, 17:38:40.321
84, -3993.86, -4493.89, -4482.65, -3737.36, 0.000, 0.000, 0.000, 17:38:40.321
85, -4251.42, -4812.42, -4788.41, -4032.91, 0.000, 0.000, 0.000, 17:38:40.335
86, -4306.73, -4829.26, -4801.10, -4068.18, 0.000, 0.000, 0.000, 17:38:40.336
87, -4107.48, -4611.90, -4599.11, -3856.87, 0.000, 0.000, 0.000, 17:38:40.351
88, -3967.35, -4452.39, -4456.52, -3717.79, 0.000, 0.000, 0.000, 17:38:40.351
89, -4240.25, -4782.34, -4772.94, -4036.48, 0.000, 0.000, 0.000, 17:38:40.352
90, -4320.10, -4839.71, -4814.65, -4071.50, 0.000, 0.000, 0.000, 17:38:40.352
91, -4141.84, -4636.92, -4615.15, -3868.51, 0.000, 0.000, 0.000, 17:38:40.366
92, -3971.93, -4477.01, -4471.62, -3721.36, 0.000, 0.000, 0.000, 17:38:40.366
93, -4235.13, -4784.32, -4769.38, -4030.09, 0.000, 0.000, 0.000, 17:38:40.382
94, -4325.91, -4828.40, -4818.52, -4077.16, 0.000, 0.000, 0.000, 17:38:40.382
95, -4124.10, -4624.44, -4609.50, -3876.18, 0.000, 0.000, 0.000, 17:38:40.382
96, -3984.61, -4481.92, -4482.31, -3728.24, 0.000, 0.000, 0.000, 17:38:40.382
97, -4252.05, -4790.57, -4782.82, -4038.44, 0.000, 0.000, 0.000, 17:38:40.397
98, -4328.65, -4847.04, -4832.94, -4086.09, 0.000, 0.000, 0.000, 17:38:40.397
99, -4137.89, -4637.59, -4627.26, -3878.82, 0.000, 0.000, 0.000, 17:38:40.412
100, -3988.77, -4484.80, -4474.68, -3728.85, 0.000, 0.000, 0.000, 17:38:40.413
