%OpenBCI Raw EEG Data
%
%Sample Rate = 200.0 Hz
%First Column = SampleIndex
%Last Column = Timestamp 
%Other Columns = EEG data in microvolts followed by Accel Data (in G) interleaved with Aux Data
0, -4041.33, -4565.59, -4453.55, -3731.65, 0.000, 0.000, 0.000, 17:34:45.673
1, -3986.88, -4536.20, -4427.41, -3692.80, 0.000, 0.000, 0.000, 17:34:45.688
2, -4294.19, -4848.73, -4741.83, -4010.12, 0.000, 0.000, 0.000, 17:34:45.688
3, -4236.90, -4778.36, -4656.13, -3924.09, 0.000, 0.000, 0.000, 17:34:45.703
4, -4048.65, -4572.95, -4477.10, -3727.58, 0.000, 0.000, 0.000, 17:34:45.703
5, -3964.48, -4493.51, -4410.57, -3674.06, 0.000, 0.000, 0.000, 17:34:45.703
6, -4246.04, -4796.48, -4708.50, -3963.64, 0.000, 0.000, 0.000, 17:34:45.704
7, -4194.72, -4731.77, -4622.89, -3898.27, 0.000, 0.000, 0.000, 17:34:45.733
8, -3995.15, -4517.74, -4414.55, -3697.05, 0.000, 0.000, 0.000, 17:34:45.733
9, -3935.87, -4465.59, -4380.58, -3650.27, 0.000, 0.000, 0.000, 17:34:45.733
10, -4257.89, -4810.74, -4706.88, -3978.10, 0.000, 0.000, 0.000, 17:34:45.733
11, -4215.20, -4737.78, -4635.12, -3900.97, 0.000, 0.000, 0.000, 17:34:45.748
12, -3998.62, -4518.79, -4418.55, -3683.27, 0.000, 0.000, 0.000, 17:34:45.748
13, -3917.92, -4444.38, -4362.05, -3630.67, 0.000, 0.000, 0.000, 17:34:45.748
14, -4231.61, -4782.16, -4700.49, -3965.48, 0.000, 0.000, 0.000, 17:34:45.749
15, -4182.16, -4720.75, -4600.02, -3879.85, 0.000, 0.000, 0.000, 17:34:45.763
16, -3986.58, -4513.25, -4414.35, -3670.98, 0.000, 0.000, 0.000, 17:34:45.763
17, -3912.26, -4449.56, -4358.00, -3627.11, 0.000, 0.000, 0.000, 17:34:45.764
18, -4223.68, -4767.01, -4674.38, -3954.41, 0.000, 0.000, 0.000, 17:34:45.764
19, -4178.94, -4704.56, -4598.44, -3876.33, 0.000, 0.000, 0.000, 17:34:45.778
20, -3982.53, -4503.98, -4402.76, -3671.34, 0.000, 0.000, 0.000, 17:34:45.778
21, -3907.52, -4454.65, -4348.67, -3630.95, 0.000, 0.000, 0.000, 17:34:45.793
22, -4207.53, -4769.51, -4653.56, -3947.41, 0.000, 0.000, 0.000, 17:34:45.793
23, -4170.84, -4708.91, -4583.01, -3866.27, 0.000, 0.000, 0.000, 17:34:45.794
24, -3961.21, -4504.73, -4391.14, -3660.84, 0.000, 0.000, 0.000, 17:34:45.794
25, -3887.50, -4439.84, -4347.35, -3612.40, 0.000, 0.000, 0.000, 17:34:45.809
26, -4202.80, -4795.22, -4660.36, -3940.88, 0.000, 0.000, 0.000, 17:34:45.809
27, -4156.76, -4707.34, -4605.37, -3886.17, 0.000, 0.000, 0.000, 17:34:45.823
28, -3938.63, -4516.24, -4376.73, -3657.12, 0.000, 0.000, 0.000, 17:34:45.823
29, -3853.97, -4451.23, -4327.30, -3601.90, 0.000, 0.000, 0.000, 17:34:45.823
30, -4161.07, -4782.21, -4656.96, -3930.15, 0.000, 0.000, 0.000, 17:34:45.824
31, -4116.79, -4738.33, -4610.20, -3854.18, 0.000, 0.000, 0.000, 17:34:45.838
32, -3917.10, -4522.55, -4385.06, -3659.53, 0.000, 0.000, 0.000, 17:34:45.839
33, -3816.52, -4476.13, -4319.20, -3601.09, 0.000, 0.000, 0.000, 17:34:45.868
34, -4127.48, -4808.33, -4645.09, -3933.15, 0.000, 0.000, 0.000, 17:34:45.868
35, -4075.48, -4756.19, -4589.46, -3863.21, 0.000, 0.000, 0.000, 17:34:45.868
36, -3868.43, -4544.05, -4372.55, -3652.41, 0.000, 0.000, 0.000, 17:34:45.868
37, -3795.76, -4480.51, -4322.60, -3593.71, 0.000, 0.000, 0.000, 17:34:45.869
38, -4109.77, -4821.16, -4651.21, -3920.85, 0.000, 0.000, 0.000, 17:34:45.869
39, -4058.46, -4751.43, -4574.47, -3852.36, 0.000, 0.000, 0.000, 17:34:45.869
40, -3869.03, -4525.48, -4373.81, -3643.63, 0.000, 0.000, 0.000, 17:34:45.870
41, -3791.15, -4456.51, -4315.62, -3587.51, 0.000, 0.000, 0.000, 17:34:45.883
42, -4107.43, -4787.79, -4628.60, -3913.40, 0.000, 0.000, 0.000, 17:34:45.883
43, -4083.26, -4716.03, -4589.44, -3850.93, 0.000, 0.000, 0.000, 17:34:45.898
44, -3887.65, -4505.34, -4367.05, -3649.45, 0.000, 0.000, 0.000, 17:34:45.898
45, -3822.66, -4431.26, -4336.23, -3595.55, 0.000, 0.000, 0.000, 17:34:45.912
46, -4162.39, -4777.57, -4662.37, -3934.54, 0.000, 0.000, 0.000, 17:34:45.912
47, -4121.25, -4698.13, -4607.09, -3857.36, 0.000, 0.000, 0.000, 17:34:45.913
48, -3941.41, -4492.43, -4400.62, -3662.97, 0.000, 0.000, 0.000, 17:34:45.913
49, -3859.73, -4425.51, -4341.97, -3596.23, 0.000, 0.000, 0.000, 17:34:45.928
50, -4182.13, -4774.85, -4663.56, -3946.56, 0.000, 0.000, 0.000, 17:34:45.928
51, -4150.82, -4702.92, -4605.06, -3860.14, 0.000, 0.000, 0.000, 17:34:45.942
52, -3961.34, -4482.74, -4410.86, -3661.36, 0.000, 0.000, 0.000, 17:34:45.942
53, -3878.50, -4397.33, -4336.37, -3595.35, 0.000, 0.000, 0.000, 17:34:45.943
54, -4193.73, -4729.12, -4647.28, -3913.60, 0.000, 0.000, 0.000, 17:34:45.943
55, -4173.25, -4692.16, -4608.88, -3860.71, 0.000, 0.000, 0.000, 17:34:45.973
56, -3969.46, -4493.85, -4407.61, -3658.54, 0.000, 0.000, 0.000, 17:34:45.973
57, -3892.23, -4401.79, -4337.61, -3605.22, 0.000, 0.000, 0.000, 17:34:45.973
58, -4214.15, -4733.30, -4651.70, -3932.81, 0.000, 0.000, 0.000, 17:34:45.973
59, -4186.31, -4672.50, -4615.37, -3873.14, 0.000, 0.000, 0.000, 17:34:45.975
60, -3993.89, -4479.63, -4412.17, -3673.88, 0.000, 0.000, 0.000, 17:34:45.975
61, -3921.26, -4416.82, -4345.93, -3627.88, 0.000, 0.000, 0.000, 17:34:45.988
62, -4217.33, -4733.16, -4650.41, -3932.58, 0.000, 0.000, 0.000, 17:34:45.989
63, -4199.49, -4679.16, -4609.42, -3865.44, 0.000, 0.000, 0.000, 17:34:46.004
64, -3993.20, -4474.51, -4401.86, -3662.84, 0.000, 0.000, 0.000, 17:34:46.004
65, -3916.54, -4403.67, -4329.70, -3613.23, 0.000, 0.000, 0.000, 17:34:46.004
66, -4230.73, -4739.23, -4663.35, -3938.20, 0.000, 0.000, 0.000, 17:34:46.004
67, -4202.98, -4678.21, -4611.65, -3878.41, 0.000, 0.000, 0.000, 17:34:46.018
68, -4000.92, -4480.86, -4405.85, -3656.60, 0.000, 0.000, 0.000, 17:34:46.018
69, -3919.85, -4402.64, -4334.55, -3604.90, 0.000, 0.000, 0.000, 17:34:46.048
70, -4242.99, -4752.77, -4674.23, -3943.37, 0.000, 0.000, 0.000, 17:34:46.048
71, -4201.05, -4677.96, -4600.10, -3868.47, 0.000, 0.000, 0.000, 17:34:46.048
72, -3996.67, -4467.30, -4400.42, -3660.25, 0.000, 0.000, 0.000, 17:34:46.049
73, -3913.56, -4382.74, -4327.95, -3617.52, 0.000, 0.000, 0.000, 17:34:46.049
74, -4237.17, -4731.31, -4660.34, -3940.16, 0.000, 0.000, 0.000, 17:34:46.049
75, -4220.23, -4693.01, -4621.43, -3896.35, 0.000, 0.000, 0.000, 17:34:46.050
76, -3994.69, -4480.10, -4397.79, -3661.17, 0.000, 0.000, 0.000, 17:34:46.050
77, -3909.41, -4386.25, -4329.74, -3606.40, 0.000, 0.000, 0.000, 17:34:46.062
78, -4229.21, -4741.47, -4675.12, -3941.01, 0.000, 0.000, 0.000, 17:34:46.063
79, -4201.37, -4685.91, -4610.45, -3867.77, 0.000, 0.000, 0.000, 17:34:46.093
80, -3996.21, -4470.72, -4391.03, -3661.87, 0.000, 0.000, 0.000, 17:34:46.093
81, -3912.37, -4388.83, -4321.88, -3610.18, 0.000, 0.000, 0.000, 17:34:46.094
82, -4233.78, -4747.57, -4659.06, -3948.03, 0.000, 0.000, 0.000, 17:34:46.094
83, -4203.80, -4682.45, -4612.52, -3871.26, 0.000, 0.000, 0.000, 17:34:46.094
84, -3987.06, -4459.44, -4389.83, -3660.14, 0.000, 0.000, 0.000, 17:34:46.094
85, -3908.05, -4399.55, -4326.40, -3614.02, 0.000, 0.000, 0.000, 17:34:46.108
86, -4221.47, -4742.69, -4656.12, -3938.13, 0.000, 0.000, 0.000, 17:34:46.108
87, -4199.02, -4697.65, -4611.63, -3883.04, 0.000, 0.000, 0.000, 17:34:46.139
88, -4004.95, -4484.60, -4408.11, -3673.75, 0.000, 0.000, 0.000, 17:34:46.139
89, -3903.35, -4399.45, -4318.83, -3610.91, 0.000, 0.000, 0.000, 17:34:46.153
90, -4223.18, -4746.47, -4662.54, -3947.84, 0.000, 0.000, 0.000, 17:34:46.153
91, -4169.50, -4667.52, -4582.98, -3860.09, 0.000, 0.000, 0.000, 17:34:46.154
92, -3977.34, -4477.06, -4394.79, -3666.92, 0.000, 0.000, 0.000, 17:34:46.154
93, -3904.72, -4408.86, -4320.93, -3605.23, 0.000, 0.000, 0.000, 17:34:46.154
94, -4206.72, -4744.22, -4655.11, -3932.98, 0.000, 0.000, 0.000, 17:34:46.154
95, -4194.55, -4694.89, -4610.90, -3870.23, 0.000, 0.000, 0.000, 17:34:46.155
96, -3967.38, -4463.00, -4373.69, -3662.88, 0.000, 0.000, 0.000, 17:34:46.155
97, -3883.63, -4396.08, -4315.26, -3603.81, 0.000, 0.000, 0.000, 17:34:46.167
98, -4205.68, -4743.77, -4649.65, -3937.32, 0.000, 0.000, 0.000, 17:34:46.167
99, -4178.41, -4685.03, -4595.70, -3870.61, 0.000, 0.000, 0.000, 17:34:46.183
100, -3985.70, -4487.55, -4406.58, -3669.40, 0.000, 0.000, 0.000, 17:34:46.183
101, -3906.51, -4420.56, -4335.05, -3614.58, 0.000, 0.000, 0.000, 17:34:46.184
102, -4213.83, -4766.17, -4665.35, -3931.68, 0.000, 0.000, 0.000, 17:34:46.184
103, -4178.19, -4707.31, -4598.71, -3856.88, 0.000, 0.000, 0.000, 17:34:46.198
104, -3986.88, -4501.74, -4398.77, -3677.44, 0.000, 0.000, 0.000, 17:34:46.198
105, -3902.42, -4425.76, -4340.27, -3620.77, 0.000, 0.000, 0.000, 17:34:46.213
106, -4218.38, -4771.42, -4671.05, -3947.22, 0.000, 0.000, 0.000, 17:34:46.213
107, -4152.73, -4677.29, -4576.66, -3860.60, 0.000, 0.000, 0.000, 17:34:46.213
108, -3950.57, -4453.53, -4370.81, -3658.25, 0.000, 0.000, 0.000, 17:34:46.213
109, -3876.52, -4389.94, -4307.78, -3598.56, 0.000, 0.000, 0.000, 17:34:46.228
110, -4186.28, -4732.56, -4632.74, -3919.39, 0.000, 0.000, 0.000, 17:34:46.228
111, -4163.13, -4683.62, -4585.32, -3863.13, 0.000, 0.000, 0.000, 17:34:46.243
112, -3969.76, -4480.97, -4381.98, -3669.76, 0.000, 0.000, 0.000, 17:34:46.243
113, -3875.34, -4396.70, -4314.45, -3589.51, 0.000, 0.000, 0.000, 17:34:46.244
114, -4202.41, -4745.79, -4662.31, -3919.15, 0.000, 0.000, 0.000, 17:34:46.244
115, -4167.68, -4682.70, -4596.78, -3860.59, 0.000, 0.000, 0.000, 17:34:46.258
116, -3988.21, -4495.33, -4409.90, -3673.14, 0.000, 0.000, 0.000, 17:34:46.258
117, -3879.87, -4404.75, -4331.57, -3606.58, 0.000, 0.000, 0.000, 17:34:46.273
118, -4208.93, -4766.26, -4651.23, -3929.64, 0.000, 0.000, 0.000, 17:34:46.273
119, -4179.49, -4710.26, -4606.18, -3873.79, 0.000, 0.000, 0.000, 17:34:46.274
120, -3978.65, -4485.45, -4396.94, -3678.56, 0.000, 0.000, 0.000, 17:34:46.274
121, -3901.20, -4417.71, -4334.32, -3613.60, 0.000, 0.000, 0.000, 17:34:46.303
122, -4196.17, -4748.12, -4653.22, -3934.73, 0.000, 0.000, 0.000, 17:34:46.303
123, -4176.17, -4709.78, -4608.71, -3870.24, 0.000, 0.000, 0.000, 17:34:46.304
124, -3977.00, -4497.50, -4402.90, -3671.45, 0.000, 0.000, 0.000, 17:34:46.304
125, -3883.02, -4406.12, -4323.52, -3599.35, 0.000, 0.000, 0.000, 17:34:46.304
126, -4209.67, -4752.89, -4661.72, -3934.20, 0.000, 0.000, 0.000, 17:34:46.304
127, -4198.53, -4720.16, -4621.20, -3884.98, 0.000, 0.000, 0.000, 17:34:46.317
128, -3989.81, -4519.44, -4412.39, -3689.43, 0.000, 0.000, 0.000, 17:34:46.317
129, -3885.60, -4408.67, -4322.86, -3599.14, 0.000, 0.000, 0.000, 17:34:46.332
130, -4206.20, -4768.49, -4665.29, -3931.26, 0.000, 0.000, 0.000, 17:34:46.332
131, -4179.46, -4707.59, -4603.84, -3866.85, 0.000, 0.000, 0.000, 17:34:46.333
132, -3986.54, -4496.60, -4404.29, -3672.76, 0.000, 0.000, 0.000, 17:34:46.333
133, -3898.09, -4413.53, -4336.39, -3614.23, 0.000, 0.000, 0.000, 17:34:46.348
134, -4198.00, -4738.69, -4649.49, -3939.04, 0.000, 0.000, 0.000, 17:34:46.348
135, -4161.20, -4684.33, -4587.07, -3864.68, 0.000, 0.000, 0.000, 17:34:46.363
136, -3956.48, -4475.48, -4381.89, -3658.38, 0.000, 0.000, 0.000, 17:34:46.363
137, -3890.83, -4418.59, -4336.13, -3616.55, 0.000, 0.000, 0.000, 17:34:46.363
138, -4215.31, -4762.24, -4661.76, -3935.65, 0.000, 0.000, 0.000, 17:34:46.363
139, -4178.55, -4712.67, -4611.12, -3869.77, 0.000, 0.000, 0.000, 17:34:46.378
140, -3983.61, -4500.82, -4415.78, -3672.28, 0.000, 0.000, 0.000, 17:34:46.378
141, -3888.14, -4417.90, -4329.52, -3602.34, 0.000, 0.000, 0.000, 17:34:46.393
142, -4190.92, -4760.15, -4658.72, -3924.78, 0.000, 0.000, 0.000, 17:34:46.393
143, -4176.33, -4707.12, -4601.81, -3869.85, 0.000, 0.000, 0.000, 17:34:46.394
144, -3969.69, -4498.13, -4400.39, -3674.51, 0.000, 0.000, 0.000, 17:34:46.394
145, -3871.19, -4403.87, -4328.21, -3595.50, 0.000, 0.000, 0.000, 17:34:46.408
146, -4194.29, -4765.83, -4658.34, -3945.20, 0.000, 0.000, 0.000, 17:34:46.408
147, -4158.60, -4705.45, -4589.93, -3871.68, 0.000, 0.000, 0.000, 17:34:46.423
148, -3977.52, -4508.60, -4407.02, -3673.64, 0.000, 0.000, 0.000, 17:34:46.423
149, -3884.85, -4415.33, -4330.17, -3596.45, 0.000, 0.000, 0.000, 17:34:46.424
150, -4205.93, -4772.68, -4662.60, -3943.43, 0.000, 0.000, 0.000, 17:34:46.425
151, -4177.60, -4700.08, -4607.95, -3874.63, 0.000, 0.000, 0.000, 17:34:46.438
152, -3969.97, -4486.97, -4399.87, -3670.52, 0.000, 0.000, 0.000, 17:34:46.438
153, -3879.28, -4409.46, -4319.06, -3597.25, 0.000, 0.000, 0.000, 17:34:46.453
154, -4195.81, -4756.05, -4657.84, -3927.84, 0.000, 0.000, 0.000, 17:34:46.453
155, -4175.96, -4701.90, -4602.41, -3874.39, 0.000, 0.000, 0.000, 17:34:46.453
156, -3978.39, -4492.02, -4392.98, -3682.14, 0.000, 0.000, 0.000, 17:34:46.453
157, -3855.77, -4380.91, -4297.00, -3582.20, 0.000, 0.000, 0.000, 17:34:46.475
158, -4197.32, -4750.01, -4658.13, -3935.37, 0.000, 0.000, 0.000, 17:34:46.475
159, -4168.01, -4695.75, -4592.96, -3875.88, 0.000, 0.000, 0.000, 17:34:46.482
160, -3972.87, -4489.95, -4385.83, -3676.39, 0.000, 0.000, 0.000, 17:34:46.483
161, -3869.96, -4388.81, -4295.08, -3598.45, 0.000, 0.000, 0.000, 17:34:46.483
162, -4191.76, -4741.43, -4640.84, -3938.23, 0.000, 0.000, 0.000, 17:34:46.483
163, -4165.78, -4685.13, -4595.76, -3876.35, 0.000, 0.000, 0.000, 17:34:46.498
164, -3976.75, -4477.23, -4389.12, -3669.14, 0.000, 0.000, 0.000, 17:34:46.498
165, -3887.17, -4420.29, -4322.59, -3610.48, 0.000, 0.000, 0.000, 17:34:46.512
166, -4205.81, -4759.07, -4654.66, -3941.25, 0.000, 0.000, 0.000, 17:34:46.513
167, -4175.33, -4694.45, -4596.32, -3881.31, 0.000, 0.000, 0.000, 17:34:46.513
168, -3982.06, -4490.41, -4394.50, -3681.66, 0.000, 0.000, 0.000, 17:34:46.513
169, -3881.17, -4405.20, -4312.52, -3605.34, 0.000, 0.000, 0.000, 17:34:46.528
170, -4203.92, -4753.26, -4642.80, -3938.11, 0.000, 0.000, 0.000, 17:34:46.528
171, -4180.76, -4711.56, -4604.77, -3881.53, 0.000, 0.000, 0.000, 17:34:46.543
172, -3982.87, -4505.71, -4409.23, -3669.85, 0.000, 0.000, 0.000, 17:34:46.543
173, -3867.55, -4390.90, -4306.06, -3580.82, 0.000, 0.000, 0.000, 17:34:46.544
174, -4188.37, -4749.65, -4655.28, -3923.37, 0.000, 0.000, 0.000, 17:34:46.544
175, -4184.06, -4715.39, -4618.53, -3885.91, 0.000, 0.000, 0.000, 17:34:46.558
176, -3977.16, -4510.79, -4405.34, -3670.66, 0.000, 0.000, 0.000, 17:34:46.558
177, -3889.77, -4420.41, -4317.11, -3605.68, 0.000, 0.000, 0.000, 17:34:46.573
178, -4204.48, -4766.42, -4651.64, -3929.28, 0.000, 0.000, 0.000, 17:34:46.573
179, -4175.63, -4712.22, -4612.88, -3867.42, 0.000, 0.000, 0.000, 17:34:46.573
180, -3970.26, -4486.64, -4394.09, -3674.75, 0.000, 0.000, 0.000, 17:34:46.574
181, -3883.45, -4417.76, -4316.12, -3596.39, 0.000, 0.000, 0.000, 17:34:46.589
182, -4201.15, -4766.68, -4663.35, -3944.82, 0.000, 0.000, 0.000, 17:34:46.589
183, -4168.20, -4692.96, -4612.92, -3860.24, 0.000, 0.000, 0.000, 17:34:46.603
184, -3975.49, -4502.74, -4402.44, -3667.29, 0.000, 0.000, 0.000, 17:34:46.603
185, -3885.23, -4420.61, -4320.49, -3602.25, 0.000, 0.000, 0.000, 17:34:46.604
186, -4201.90, -4750.88, -4665.89, -3926.89, 0.000, 0.000, 0.000, 17:34:46.604
187, -4169.15, -4706.73, -4600.19, -3868.82, 0.000, 0.000, 0.000, 17:34:46.618
188, -3978.21, -4518.81, -4410.95, -3672.21, 0.000, 0.000, 0.000, 17:34:46.618
189, -3876.87, -4422.45, -4319.20, -3596.77, 0.000, 0.000, 0.000, 17:34:46.633
190, -4187.72, -4745.34, -4650.17, -3937.73, 0.000, 0.000, 0.000, 17:34:46.633
191, -4177.27, -4704.02, -4609.11, -3873.81, 0.000, 0.000, 0.000, 17:34:46.633
192, -3973.68, -4504.43, -4408.58, -3672.52, 0.000, 0.000, 0.000, 17:34:46.634
193, -3878.20, -4426.04, -4336.28, -3603.04, 0.000, 0.000, 0.000, 17:34:46.648
194, -4182.75, -4755.29, -4651.16, -3925.50, 0.000, 0.000, 0.000, 17:34:46.648
195, -4168.50, -4706.90, -4619.19, -3869.51, 0.000, 0.000, 0.000, 17:34:46.663
196, -3979.36, -4511.21, -4410.52, -3687.88, 0.000, 0.000, 0.000, 17:34:46.663
197, -3864.74, -4410.27, -4317.94, -3586.71, 0.000, 0.000, 0.000, 17:34:46.664
198, -4177.98, -4741.13, -4653.36, -3914.27, 0.000, 0.000, 0.000, 17:34:46.664
199, -4164.27, -4699.00, -4603.58, -3863.42, 0.000, 0.000, 0.000, 17:34:46.678
200, -3971.47, -4509.64, -4408.62, -3660.33, 0.000, 0.000, 0.000, 17:34:46.678
0, -3860.25, -4404.73, -4320.28, -3584.49, 0.000, 0.000, 0.000, 17:34:46.693
1, -4173.09, -4749.08, -4645.44, -3913.49, 0.000, 0.000, 0.000, 17:34:46.694
2, -4176.06, -4723.75, -4629.61, -3886.58, 0.000, 0.000, 0.000, 17:34:46.694
3, -3967.30, -4495.95, -4405.92, -3676.41, 0.000, 0.000, 0.000, 17:34:46.708
4, -3878.74, -4421.31, -4320.53, -3605.88, 0.000, 0.000, 0.000, 17:34:46.708
5, -4186.20, -4741.87, -4657.99, -3926.89, 0.000, 0.000, 0.000, 17:34:46.708
6, -4167.33, -4690.86, -4603.90, -3869.33, 0.000, 0.000, 0.000, 17:34:46.708
7, -3967.41, -4491.43, -4389.27, -3669.03, 0.000, 0.000, 0.000, 17:34:46.723
8, -3881.33, -4413.94, -4326.92, -3602.26, 0.000, 0.000, 0.000, 17:34:46.723
9, -4183.05, -4747.76, -4648.26, -3933.33, 0.000, 0.000, 0.000, 17:34:46.738
10, -4167.12, -4714.02, -4607.60, -3879.30, 0.000, 0.000, 0.000, 17:34:46.738
11, -3966.76, -4497.04, -4399.59, -3669.97, 0.000, 0.000, 0.000, 17:34:46.738
12, -3866.17, -4404.67, -4311.86, -3596.16, 0.000, 0.000, 0.000, 17:34:46.738
13, -4179.42, -4739.78, -4633.44, -3936.70, 0.000, 0.000, 0.000, 17:34:46.768
14, -4169.96, -4709.87, -4611.41, -3877.11, 0.000, 0.000, 0.000, 17:34:46.768
15, -3979.64, -4508.90, -4421.75, -3672.58, 0.000, 0.000, 0.000, 17:34:46.768
16, -3878.90, -4409.92, -4318.64, -3598.22, 0.000, 0.000, 0.000, 17:34:46.768
17, -4188.02, -4740.54, -4644.99, -3926.16, 0.000, 0.000, 0.000, 17:34:46.769
18, -4171.96, -4718.36, -4614.72, -3867.35, 0.000, 0.000, 0.000, 17:34:46.769
19, -3981.60, -4508.23, -4406.24, -3673.91, 0.000, 0.000, 0.000, 17:34:46.783
20, -3875.94, -4420.82, -4325.56, -3589.99, 0.000, 0.000, 0.000, 17:34:46.783
21, -4195.55, -4756.80, -4664.84, -3938.74, 0.000, 0.000, 0.000, 17:34:46.812
22, -4169.65, -4697.08, -4601.75, -3876.06, 0.000, 0.000, 0.000, 17:34:46.812
23, -3981.46, -4501.80, -4404.44, -3660.32, 0.000, 0.000, 0.000, 17:34:46.813
24, -3868.29, -4403.01, -4318.63, -3588.12, 0.000, 0.000, 0.000, 17:34:46.813
25, -4191.07, -4755.63, -4649.75, -3927.43, 0.000, 0.000, 0.000, 17:34:46.814
26, -4182.97, -4724.21, -4618.62, -3888.50, 0.000, 0.000, 0.000, 17:34:46.814
27, -3981.38, -4502.94, -4412.21, -3678.97, 0.000, 0.000, 0.000, 17:34:46.814
28, -3860.35, -4394.15, -4303.23, -3585.47, 0.000, 0.000, 0.000, 17:34:46.814
29, -4195.81, -4757.54, -4652.23, -3927.11, 0.000, 0.000, 0.000, 17:34:46.827
30, -4183.13, -4706.80, -4601.18, -3882.74, 0.000, 0.000, 0.000, 17:34:46.827
31, -3968.73, -4502.89, -4395.44, -3670.66, 0.000, 0.000, 0.000, 17:34:46.859
32, -3870.83, -4395.95, -4309.46, -3590.36, 0.000, 0.000, 0.000, 17:34:46.860
33, -4183.04, -4743.39, -4648.30, -3932.00, 0.000, 0.000, 0.000, 17:34:46.860
34, -4179.64, -4701.73, -4602.55, -3874.57, 0.000, 0.000, 0.000, 17:34:46.860
35, -3979.09, -4494.75, -4409.48, -3671.12, 0.000, 0.000, 0.000, 17:34:46.860
36, -3876.73, -4400.54, -4325.05, -3592.49, 0.000, 0.000, 0.000, 17:34:46.860
37, -4202.63, -4749.71, -4665.45, -3932.63, 0.000, 0.000, 0.000, 17:34:46.873
38, -4189.91, -4712.43, -4613.03, -3874.75, 0.000, 0.000, 0.000, 17:34:46.873
39, -4006.63, -4522.61, -4421.40, -3681.03, 0.000, 0.000, 0.000, 17:34:46.888
40, -3890.38, -4417.17, -4330.10, -3601.88, 0.000, 0.000, 0.000, 17:34:46.888
41, -4207.49, -4763.41, -4665.45, -3935.66, 0.000, 0.000, 0.000, 17:34:46.895
42, -4190.89, -4730.87, -4617.48, -3893.76, 0.000, 0.000, 0.000, 17:34:46.895
43, -3977.52, -4501.77, -4418.30, -3677.89, 0.000, 0.000, 0.000, 17:34:46.903
44, -3878.65, -4413.90, -4311.92, -3599.63, 0.000, 0.000, 0.000, 17:34:46.903
45, -4193.77, -4739.27, -4660.41, -3935.59, 0.000, 0.000, 0.000, 17:34:46.918
46, -4170.08, -4701.35, -4601.01, -3870.93, 0.000, 0.000, 0.000, 17:34:46.918
47, -3974.41, -4497.61, -4395.81, -3665.58, 0.000, 0.000, 0.000, 17:34:46.918
48, -3859.83, -4385.65, -4309.26, -3589.19, 0.000, 0.000, 0.000, 17:34:46.918
49, -4176.19, -4734.40, -4649.69, -3914.64, 0.000, 0.000, 0.000, 17:34:46.932
50, -4168.47, -4707.46, -4604.79, -3876.70, 0.000, 0.000, 0.000, 17:34:46.932
51, -3975.17, -4499.90, -4397.53, -3668.22, 0.000, 0.000, 0.000, 17:34:46.947
52, -3873.14, -4397.47, -4298.10, -3591.43, 0.000, 0.000, 0.000, 17:34:46.947
53, -4178.15, -4728.21, -4629.82, -3913.38, 0.000, 0.000, 0.000, 17:34:46.948
54, -4166.47, -4711.09, -4609.71, -3885.03, 0.000, 0.000, 0.000, 17:34:46.948
55, -3982.09, -4508.92, -4400.29, -3682.67, 0.000, 0.000, 0.000, 17:34:46.978
56, -3876.76, -4408.41, -4307.70, -3591.56, 0.000, 0.000, 0.000, 17:34:46.978
57, -4188.19, -4750.86, -4655.97, -3922.97, 0.000, 0.000, 0.000, 17:34:46.978
58, -4178.99, -4725.72, -4626.13, -3875.16, 0.000, 0.000, 0.000, 17:34:46.979
59, -3975.71, -4504.46, -4411.65, -3674.06, 0.000, 0.000, 0.000, 17:34:46.979
60, -3857.64, -4389.99, -4296.18, -3583.25, 0.000, 0.000, 0.000, 17:34:46.979
61, -4180.40, -4731.76, -4641.17, -3923.81, 0.000, 0.000, 0.000, 17:34:46.993
62, -4162.88, -4692.64, -4590.03, -3870.97, 0.000, 0.000, 0.000, 17:34:46.993
63, -3979.68, -4499.50, -4397.67, -3679.27, 0.000, 0.000, 0.000, 17:34:47.008
64, -3866.85, -4400.47, -4314.57, -3593.15, 0.000, 0.000, 0.000, 17:34:47.008
65, -4169.17, -4737.07, -4625.28, -3916.27, 0.000, 0.000, 0.000, 17:34:47.008
66, -4174.48, -4713.34, -4607.36, -3889.20, 0.000, 0.000, 0.000, 17:34:47.008
67, -3970.88, -4502.88, -4401.02, -3670.48, 0.000, 0.000, 0.000, 17:34:47.023
68, -3879.73, -4415.54, -4314.62, -3596.51, 0.000, 0.000, 0.000, 17:34:47.023
69, -4176.08, -4734.18, -4643.15, -3922.99, 0.000, 0.000, 0.000, 17:34:47.038
70, -4170.80, -4694.94, -4606.19, -3875.06, 0.000, 0.000, 0.000, 17:34:47.039
71, -3984.75, -4501.66, -4411.49, -3675.38, 0.000, 0.000, 0.000, 17:34:47.039
72, -3866.66, -4402.92, -4297.48, -3595.75, 0.000, 0.000, 0.000, 17:34:47.039
73, -4171.11, -4736.77, -4639.98, -3912.28, 0.000, 0.000, 0.000, 17:34:47.053
74, -4174.22, -4710.87, -4610.19, -3885.05, 0.000, 0.000, 0.000, 17:34:47.053
75, -3985.52, -4512.00, -4422.70, -3685.45, 0.000, 0.000, 0.000, 17:34:47.068
76, -3865.38, -4398.80, -4314.49, -3593.38, 0.000, 0.000, 0.000, 17:34:47.068
77, -4180.48, -4738.25, -4639.81, -3917.64, 0.000, 0.000, 0.000, 17:34:47.069
78, -4173.21, -4707.48, -4617.23, -3877.52, 0.000, 0.000, 0.000, 17:34:47.069
79, -3984.59, -4511.38, -4417.30, -3679.60, 0.000, 0.000, 0.000, 17:34:47.083
80, -3868.35, -4398.02, -4309.44, -3588.48, 0.000, 0.000, 0.000, 17:34:47.083
81, -4176.96, -4729.20, -4639.25, -3906.27, 0.000, 0.000, 0.000, 17:34:47.098
82, -4157.38, -4678.90, -4590.95, -3870.36, 0.000, 0.000, 0.000, 17:34:47.098
83, -3975.32, -4511.39, -4406.90, -3679.31, 0.000, 0.000, 0.000, 17:34:47.099
84, -3871.54, -4407.33, -4324.46, -3591.56, 0.000, 0.000, 0.000, 17:34:47.099
85, -4181.76, -4740.00, -4641.22, -3920.33, 0.000, 0.000, 0.000, 17:34:47.112
86, -4170.35, -4711.44, -4606.19, -3869.84, 0.000, 0.000, 0.000, 17:34:47.112
87, -3990.76, -4513.13, -4422.30, -3683.56, 0.000, 0.000, 0.000, 17:34:47.128
88, -3869.72, -4398.88, -4313.87, -3584.18, 0.000, 0.000, 0.000, 17:34:47.128
89, -4178.17, -4737.40, -4650.85, -3919.77, 0.000, 0.000, 0.000, 17:34:47.128
90, -4178.12, -4721.36, -4608.21, -3871.37, 0.000, 0.000, 0.000, 17:34:47.129
91, -3979.19, -4509.24, -4415.60, -3679.66, 0.000, 0.000, 0.000, 17:34:47.143
92, -3873.26, -4407.63, -4326.31, -3587.77, 0.000, 0.000, 0.000, 17:34:47.144
93, -4194.46, -4756.07, -4652.12, -3928.85, 0.000, 0.000, 0.000, 17:34:47.158
94, -4177.06, -4709.27, -4616.56, -3878.37, 0.000, 0.000, 0.000, 17:34:47.158
95, -3977.42, -4499.95, -4417.58, -3685.96, 0.000, 0.000, 0.000, 17:34:47.159
96, -3872.49, -4387.52, -4316.23, -3588.11, 0.000, 0.000, 0.000, 17:34:47.159
97, -4184.84, -4731.41, -4632.25, -3910.35, 0.000, 0.000, 0.000, 17:34:47.173
98, -4173.35, -4708.96, -4604.79, -3876.89, 0.000, 0.000, 0.000, 17:34:47.173
99, -3982.74, -4504.80, -4407.88, -3682.16, 0.000, 0.000, 0.000, 17:34:47.189
100, -3876.54, -4414.22, -4316.07, -3587.08, 0.000, 0.000, 0.000, 17:34:47.189
101, -4184.67, -4716.81, -4644.47, -3915.36, 0.000, 0.000, 0.000, 17:34:47.189
102, -4161.29, -4695.87, -4593.00, -3865.56, 0.000, 0.000, 0.000, 17:34:47.189
103, -3976.59, -4501.52, -4420.55, -3677.19, 0.000, 0.000, 0.000, 17:34:47.204
104, -3888.02, -4418.82, -4328.33, -3608.54, 0.000, 0.000, 0.000, 17:34:47.204
105, -4190.40, -4747.79, -4653.06, -3936.36, 0.000, 0.000, 0.000, 17:34:47.218
106, -4178.42, -4712.81, -4619.77, -3885.11, 0.000, 0.000, 0.000, 17:34:47.218
107, -3993.70, -4512.79, -4411.82, -3680.62, 0.000, 0.000, 0.000, 17:34:47.219
108, -3883.27, -4411.47, -4310.99, -3602.20, 0.000, 0.000, 0.000, 17:34:47.219
109, -4177.29, -4740.59, -4633.95, -3918.28, 0.000, 0.000, 0.000, 17:34:47.233
110, -4173.85, -4709.42, -4606.99, -3871.47, 0.000, 0.000, 0.000, 17:34:47.233
111, -3973.39, -4490.84, -4403.04, -3678.12, 0.000, 0.000, 0.000, 17:34:47.248
112, -3865.11, -4386.90, -4307.63, -3584.74, 0.000, 0.000, 0.000, 17:34:47.248
113, -4180.64, -4735.62, -4643.58, -3926.67, 0.000, 0.000, 0.000, 17:34:47.249
114, -4196.30, -4722.48, -4620.03, -3889.98, 0.000, 0.000, 0.000, 17:34:47.249
115, -4004.05, -4524.07, -4427.71, -3689.81, 0.000, 0.000, 0.000, 17:34:47.263
116, -3861.99, -4389.75, -4308.44, -3574.46, 0.000, 0.000, 0.000, 17:34:47.263
117, -4179.13, -4743.02, -4643.20, -3924.44, 0.000, 0.000, 0.000, 17:34:47.278
118, -4177.61, -4709.38, -4597.16, -3868.35, 0.000, 0.000, 0.000, 17:34:47.278
119, -3987.59, -4497.01, -4411.09, -3674.41, 0.000, 0.000, 0.000, 17:34:47.278
120, -3868.66, -4401.58, -4315.00, -3592.76, 0.000, 0.000, 0.000, 17:34:47.278
121, -4172.76, -4728.02, -4631.31, -3917.10, 0.000, 0.000, 0.000, 17:34:47.293
122, -4170.91, -4710.08, -4603.37, -3888.19, 0.000, 0.000, 0.000, 17:34:47.293
123, -3985.17, -4508.59, -4411.67, -3689.77, 0.000, 0.000, 0.000, 17:34:47.308
124, -3877.09, -4414.74, -4310.32, -3605.21, 0.000, 0.000, 0.000, 17:34:47.309
125, -4192.33, -4753.00, -4652.84, -3934.44, 0.000, 0.000, 0.000, 17:34:47.309
126, -4190.25, -4709.44, -4625.80, -3891.62, 0.000, 0.000, 0.000, 17:34:47.309
127, -3977.98, -4494.87, -4407.20, -3674.77, 0.000, 0.000, 0.000, 17:34:47.323
128, -3869.39, -4391.30, -4307.95, -3591.43, 0.000, 0.000, 0.000, 17:34:47.323
129, -4177.16, -4734.21, -4643.64, -3922.51, 0.000, 0.000, 0.000, 17:34:47.339
130, -4178.92, -4722.29, -4608.89, -3889.44, 0.000, 0.000, 0.000, 17:34:47.339
131, -3993.41, -4516.72, -4419.85, -3687.74, 0.000, 0.000, 0.000, 17:34:47.339
132, -3869.60, -4399.07, -4312.99, -3604.68, 0.000, 0.000, 0.000, 17:34:47.339
133, -4175.88, -4741.26, -4633.72, -3917.33, 0.000, 0.000, 0.000, 17:34:47.353
134, -4189.49, -4732.47, -4617.67, -3891.69, 0.000, 0.000, 0.000, 17:34:47.353
135, -3997.53, -4515.34, -4429.68, -3695.19, 0.000, 0.000, 0.000, 17:34:47.368
136, -3890.38, -4426.72, -4333.68, -3608.64, 0.000, 0.000, 0.000, 17:34:47.368
137, -4177.63, -4735.35, -4641.71, -3927.04, 0.000, 0.000, 0.000, 17:34:47.375
138, -4179.10, -4717.53, -4620.25, -3881.10, 0.000, 0.000, 0.000, 17:34:47.376
139, -4005.36, -4532.71, -4437.98, -3699.76, 0.000, 0.000, 0.000, 17:34:47.383
140, -3884.56, -4418.25, -4325.02, -3597.82, 0.000, 0.000, 0.000, 17:34:47.383
141, -4169.81, -4743.38, -4628.64, -3909.69, 0.000, 0.000, 0.000, 17:34:47.398
142, -4180.49, -4720.74, -4614.90, -3876.15, 0.000, 0.000, 0.000, 17:34:47.398
143, -3971.38, -4496.43, -4406.80, -3685.02, 0.000, 0.000, 0.000, 17:34:47.399
144, -3875.97, -4407.19, -4315.03, -3599.68, 0.000, 0.000, 0.000, 17:34:47.399
145, -4180.13, -4741.76, -4641.27, -3907.26, 0.000, 0.000, 0.000, 17:34:47.412
146, -4178.30, -4727.10, -4627.93, -3873.86, 0.000, 0.000, 0.000, 17:34:47.412
147, -3989.00, -4532.52, -4421.97, -3670.05, 0.000, 0.000, 0.000, 17:34:47.428
148, -3866.07, -4411.00, -4323.79, -3580.27, 0.000, 0.000, 0.000, 17:34:47.430
149, -4173.05, -4728.84, -4642.53, -3909.35, 0.000, 0.000, 0.000, 17:34:47.430
150, -4178.99, -4720.53, -4622.49, -3877.59, 0.000, 0.000, 0.000, 17:34:47.430
151, -3987.28, -4526.98, -4420.02, -3681.35, 0.000, 0.000, 0.000, 17:34:47.443
152, -3878.53, -4411.87, -4321.92, -3593.07, 0.000, 0.000, 0.000, 17:34:47.443
153, -4178.74, -4748.98, -4635.38, -3909.55, 0.000, 0.000, 0.000, 17:34:47.459
154, -4175.73, -4733.04, -4625.89, -3876.89, 0.000, 0.000, 0.000, 17:34:47.459
155, -3994.07, -4525.21, -4427.29, -3686.08, 0.000, 0.000, 0.000, 17:34:47.459
156, -3860.68, -4400.91, -4306.75, -3578.50, 0.000, 0.000, 0.000, 17:34:47.459
157, -4171.25, -4723.92, -4626.43, -3900.34, 0.000, 0.000, 0.000, 17:34:47.474
158, -4178.30, -4712.49, -4614.23, -3878.77, 0.000, 0.000, 0.000, 17:34:47.474
159, -3975.04, -4501.24, -4409.04, -3683.06, 0.000, 0.000, 0.000, 17:34:47.488
160, -3877.07, -4409.84, -4321.52, -3598.72, 0.000, 0.000, 0.000, 17:34:47.488
161, -4171.27, -4728.08, -4627.71, -3900.70, 0.000, 0.000, 0.000, 17:34:47.489
162, -4167.24, -4707.14, -4601.39, -3869.63, 0.000, 0.000, 0.000, 17:34:47.489
163, -3986.05, -4514.90, -4415.39, -3687.73, 0.000, 0.000, 0.000, 17:34:47.503
164, -3880.35, -4406.85, -4314.21, -3587.08, 0.000, 0.000, 0.000, 17:34:47.503
165, -4180.32, -4735.83, -4642.62, -3912.81, 0.000, 0.000, 0.000, 17:34:47.519
166, -4173.77, -4710.27, -4599.87, -3872.84, 0.000, 0.000, 0.000, 17:34:47.519
167, -3998.68, -4524.73, -4424.61, -3684.87, 0.000, 0.000, 0.000, 17:34:47.519
168, -3864.10, -4404.88, -4309.48, -3584.50, 0.000, 0.000, 0.000, 17:34:47.519
169, -4171.58, -4732.81, -4630.59, -3917.38, 0.000, 0.000, 0.000, 17:34:47.533
170, -4171.12, -4713.14, -4609.62, -3887.80, 0.000, 0.000, 0.000, 17:34:47.533
171, -3981.77, -4509.09, -4420.95, -3671.26, 0.000, 0.000, 0.000, 17:34:47.548
172, -3865.87, -4404.73, -4310.20, -3581.58, 0.000, 0.000, 0.000, 17:34:47.548
173, -4173.76, -4727.01, -4628.43, -3913.20, 0.000, 0.000, 0.000, 17:34:47.563
174, -4184.16, -4724.29, -4636.84, -3885.18, 0.000, 0.000, 0.000, 17:34:47.563
175, -3990.51, -4527.16, -4425.97, -3685.89, 0.000, 0.000, 0.000, 17:34:47.563
176, -3857.22, -4393.84, -4304.08, -3581.42, 0.000, 0.000, 0.000, 17:34:47.563
177, -4162.44, -4728.95, -4625.18, -3913.07, 0.000, 0.000, 0.000, 17:34:47.578
178, -4170.85, -4712.78, -4598.37, -3879.96, 0.000, 0.000, 0.000, 17:34:47.578
179, -3987.18, -4515.76, -4431.32, -3686.36, 0.000, 0.000, 0.000, 17:34:47.579
180, -3866.64, -4403.48, -4312.21, -3585.26, 0.000, 0.000, 0.000, 17:34:47.579
181, -4177.83, -4749.66, -4650.43, -3910.63, 0.000, 0.000, 0.000, 17:34:47.592
182, -4185.62, -4729.01, -4632.69, -3887.50, 0.000, 0.000, 0.000, 17:34:47.592
183, -4001.97, -4529.65, -4431.65, -3702.25, 0.000, 0.000, 0.000, 17:34:47.609
184, -3874.01, -4404.05, -4316.85, -3591.55, 0.000, 0.000, 0.000, 17:34:47.609
185, -4167.08, -4728.97, -4621.32, -3902.96, 0.000, 0.000, 0.000, 17:34:47.609
186, -4163.98, -4693.05, -4590.01, -3875.15, 0.000, 0.000, 0.000, 17:34:47.609
187, -3975.44, -4504.86, -4396.29, -3686.69, 0.000, 0.000, 0.000, 17:34:47.623
188, -3873.20, -4405.08, -4318.28, -3597.59, 0.000, 0.000, 0.000, 17:34:47.623
189, -4174.66, -4725.39, -4631.68, -3910.10, 0.000, 0.000, 0.000, 17:34:47.638
190, -4188.68, -4708.67, -4623.60, -3877.39, 0.000, 0.000, 0.000, 17:34:47.638
191, -3995.98, -4524.14, -4412.62, -3680.89, 0.000, 0.000, 0.000, 17:34:47.639
192, -3871.57, -4403.31, -4313.59, -3584.05, 0.000, 0.000, 0.000, 17:34:47.639
193, -4162.56, -4712.66, -4624.72, -3898.16, 0.000, 0.000, 0.000, 17:34:47.654
194, -4190.22, -4714.98, -4630.85, -3899.69, 0.000, 0.000, 0.000, 17:34:47.654
195, -4005.21, -4524.71, -4433.05, -3698.16, 0.000, 0.000, 0.000, 17:34:47.668
196, -3880.76, -4410.54, -4315.77, -3596.29, 0.000, 0.000, 0.000, 17:34:47.668
197, -4184.86, -4749.16, -4652.41, -3915.79, 0.000, 0.000, 0.000, 17:34:47.669
198, -4193.25, -4730.72, -4610.59, -3875.75, 0.000, 0.000, 0.000, 17:34:47.669
199, -3981.36, -4492.90, -4411.22, -3677.87, 0.000, 0.000, 0.000, 17:34:47.683
200, -3867.38, -4403.21, -4304.63, -3594.38, 0.000, 0.000, 0.000, 17:34:47.683
0, -4175.47, -4730.86, -4627.96, -3926.18, 0.000, 0.000, 0.000, 17:34:47.683
1, -4189.94, -4720.55, -4622.76, -3894.24, 0.000, 0.000, 0.000, 17:34:47.698
2, -4008.84, -4515.84, -4431.30, -3694.76, 0.000, 0.000, 0.000, 17:34:47.698
3, -3877.46, -4399.22, -4311.42, -3592.41, 0.000, 0.000, 0.000, 17:34:47.713
4, -4167.72, -4726.00, -4621.85, -3903.09, 0.000, 0.000, 0.000, 17:34:47.713
5, -4172.88, -4690.28, -4607.33, -3885.60, 0.000, 0.000, 0.000, 17:34:47.713
6, -3994.04, -4516.63, -4423.79, -3692.95, 0.000, 0.000, 0.000, 17:34:47.713
7, -3881.24, -4417.03, -4323.72, -3593.81, 0.000, 0.000, 0.000, 17:34:47.727
8, -4179.88, -4736.03, -4636.79, -3913.90, 0.000, 0.000, 0.000, 17:34:47.727
9, -4185.25, -4717.60, -4614.89, -3888.60, 0.000, 0.000, 0.000, 17:34:47.742
10, -3991.16, -4519.97, -4419.52, -3689.22, 0.000, 0.000, 0.000, 17:34:47.742
11, -3874.49, -4401.42, -4321.17, -3590.24, 0.000, 0.000, 0.000, 17:34:47.743
12, -4176.96, -4721.64, -4641.81, -3911.15, 0.000, 0.000, 0.000, 17:34:47.743
13, -4186.02, -4713.38, -4619.29, -3879.26, 0.000, 0.000, 0.000, 17:34:47.758
14, -4011.44, -4534.08, -4434.00, -3704.44, 0.000, 0.000, 0.000, 17:34:47.758
15, -3867.39, -4410.40, -4302.04, -3587.43, 0.000, 0.000, 0.000, 17:34:47.773
16, -4164.40, -4727.33, -4626.43, -3905.08, 0.000, 0.000, 0.000, 17:34:47.773
17, -4179.52, -4715.27, -4617.95, -3885.48, 0.000, 0.000, 0.000, 17:34:47.803
18, -3998.46, -4516.51, -4433.27, -3678.16, 0.000, 0.000, 0.000, 17:34:47.804
19, -3868.82, -4405.50, -4324.67, -3580.03, 0.000, 0.000, 0.000, 17:34:47.804
20, -4179.16, -4731.93, -4638.98, -3918.24, 0.000, 0.000, 0.000, 17:34:47.804
21, -4186.12, -4714.39, -4619.05, -3880.06, 0.000, 0.000, 0.000, 17:34:47.804
22, -3979.70, -4496.38, -4408.83, -3676.33, 0.000, 0.000, 0.000, 17:34:47.804
23, -3883.47, -4419.69, -4324.18, -3597.96, 0.000, 0.000, 0.000, 17:34:47.805
24, -4174.09, -4717.84, -4640.93, -3914.59, 0.000, 0.000, 0.000, 17:34:47.806
25, -4187.52, -4715.42, -4614.64, -3883.98, 0.000, 0.000, 0.000, 17:34:47.818
26, -4000.51, -4516.83, -4422.42, -3694.91, 0.000, 0.000, 0.000, 17:34:47.818
27, -3883.02, -4413.96, -4321.88, -3593.04, 0.000, 0.000, 0.000, 17:34:47.832
28, -4168.24, -4713.78, -4629.87, -3900.12, 0.000, 0.000, 0.000, 17:34:47.833
29, -4184.64, -4708.99, -4600.89, -3877.76, 0.000, 0.000, 0.000, 17:34:47.833
30, -3996.43, -4505.48, -4412.95, -3685.62, 0.000, 0.000, 0.000, 17:34:47.833
31, -3874.50, -4393.72, -4307.15, -3584.27, 0.000, 0.000, 0.000, 17:34:47.848
32, -4184.91, -4735.23, -4635.71, -3924.26, 0.000, 0.000, 0.000, 17:34:47.848
33, -4197.41, -4720.33, -4624.27, -3896.90, 0.000, 0.000, 0.000, 17:34:47.877
34, -3994.96, -4510.62, -4418.35, -3692.05, 0.000, 0.000, 0.000, 17:34:47.877
35, -3887.96, -4415.26, -4331.47, -3595.21, 0.000, 0.000, 0.000, 17:34:47.878
36, -4182.08, -4736.21, -4639.30, -3914.54, 0.000, 0.000, 0.000, 17:34:47.878
37, -4206.97, -4736.50, -4643.80, -3890.09, 0.000, 0.000, 0.000, 17:34:47.879
38, -4007.97, -4511.37, -4436.21, -3697.96, 0.000, 0.000, 0.000, 17:34:47.879
39, -3862.33, -4379.80, -4301.18, -3577.88, 0.000, 0.000, 0.000, 17:34:47.886
40, -4178.38, -4717.61, -4635.12, -3904.41, 0.000, 0.000, 0.000, 17:34:47.887
41, -4198.34, -4731.38, -4629.39, -3891.33, 0.000, 0.000, 0.000, 17:34:47.892
42, -3998.04, -4508.60, -4407.02, -3687.63, 0.000, 0.000, 0.000, 17:34:47.892
43, -3876.02, -4383.66, -4302.12, -3583.19, 0.000, 0.000, 0.000, 17:34:47.908
44, -4184.27, -4720.44, -4636.01, -3915.35, 0.000, 0.000, 0.000, 17:34:47.908
45, -4200.04, -4718.83, -4622.98, -3901.80, 0.000, 0.000, 0.000, 17:34:47.923
46, -4015.73, -4514.46, -4433.96, -3712.01, 0.000, 0.000, 0.000, 17:34:47.923
47, -3879.47, -4381.78, -4314.74, -3596.61, 0.000, 0.000, 0.000, 17:34:47.924
48, -4172.61, -4710.83, -4623.26, -3906.92, 0.000, 0.000, 0.000, 17:34:47.924
49, -4177.78, -4692.93, -4604.47, -3880.61, 0.000, 0.000, 0.000, 17:34:47.938
50, -4004.56, -4514.55, -4430.44, -3694.13, 0.000, 0.000, 0.000, 17:34:47.938
51, -3884.38, -4399.51, -4316.59, -3588.77, 0.000, 0.000, 0.000, 17:34:47.953
52, -4176.57, -4735.21, -4634.08, -3919.53, 0.000, 0.000, 0.000, 17:34:47.954
53, -4187.24, -4710.47, -4615.66, -3884.93, 0.000, 0.000, 0.000, 17:34:47.954
54, -4002.78, -4513.60, -4410.14, -3696.49, 0.000, 0.000, 0.000, 17:34:47.954
55, -3875.35, -4391.82, -4315.19, -3587.25, 0.000, 0.000, 0.000, 17:34:47.968
56, -4182.01, -4714.54, -4637.06, -3913.95, 0.000, 0.000, 0.000, 17:34:47.968
57, -4193.83, -4714.13, -4608.28, -3894.47, 0.000, 0.000, 0.000, 17:34:47.983
58, -3993.63, -4497.62, -4416.98, -3687.95, 0.000, 0.000, 0.000, 17:34:47.983
59, -3880.07, -4410.55, -4333.66, -3584.00, 0.000, 0.000, 0.000, 17:34:47.984
60, -4172.03, -4711.33, -4632.02, -3899.87, 0.000, 0.000, 0.000, 17:34:47.984
61, -4180.62, -4706.26, -4615.96, -3889.69, 0.000, 0.000, 0.000, 17:34:47.997
62, -4008.07, -4518.22, -4436.33, -3699.74, 0.000, 0.000, 0.000, 17:34:47.998
63, -3875.64, -4391.83, -4303.56, -3586.60, 0.000, 0.000, 0.000, 17:34:48.013
64, -4167.77, -4704.96, -4627.27, -3906.71, 0.000, 0.000, 0.000, 17:34:48.013
65, -4195.10, -4724.94, -4623.64, -3889.18, 0.000, 0.000, 0.000, 17:34:48.014
66, -4011.90, -4527.79, -4415.14, -3697.07, 0.000, 0.000, 0.000, 17:34:48.014
67, -3886.17, -4420.08, -4325.97, -3596.06, 0.000, 0.000, 0.000, 17:34:48.027
68, -4176.26, -4719.79, -4625.64, -3908.79, 0.000, 0.000, 0.000, 17:34:48.027
69, -4184.22, -4703.80, -4609.04, -3883.24, 0.000, 0.000, 0.000, 17:34:48.043
70, -3994.37, -4505.69, -4418.97, -3692.29, 0.000, 0.000, 0.000, 17:34:48.043
71, -3877.51, -4391.44, -4311.17, -3590.91, 0.000, 0.000, 0.000, 17:34:48.044
72, -4155.33, -4720.56, -4619.73, -3895.85, 0.000, 0.000, 0.000, 17:34:48.044
73, -4181.11, -4726.14, -4621.44, -3880.77, 0.000, 0.000, 0.000, 17:34:48.058
74, -3994.48, -4516.67, -4411.75, -3686.10, 0.000, 0.000, 0.000, 17:34:48.058
75, -3870.93, -4392.18, -4304.17, -3578.68, 0.000, 0.000, 0.000, 17:34:48.072
76, -4162.62, -4722.88, -4620.53, -3909.79, 0.000, 0.000, 0.000, 17:34:48.072
77, -4185.09, -4725.61, -4615.70, -3887.45, 0.000, 0.000, 0.000, 17:34:48.073
78, -4005.90, -4528.91, -4436.41, -3691.10, 0.000, 0.000, 0.000, 17:34:48.074
79, -3866.52, -4415.23, -4317.71, -3580.20, 0.000, 0.000, 0.000, 17:34:48.088
80, -4157.32, -4770.90, -4601.63, -3882.30, 0.000, 0.000, 0.000, 17:34:48.088
81, -4167.88, -4740.36, -4613.15, -3884.04, 0.000, 0.000, 0.000, 17:34:48.103
82, -3990.17, -4520.08, -4449.13, -3695.90, 0.000, 0.000, 0.000, 17:34:48.104
83, -3830.36, -4448.50, -4284.85, -3577.70, 0.000, 0.000, 0.000, 17:34:48.104
84, -4128.19, -4709.09, -4607.57, -3905.54, 0.000, 0.000, 0.000, 17:34:48.104
85, -4132.48, -4742.89, -4609.76, -3875.47, 0.000, 0.000, 0.000, 17:34:48.118
86, -3930.63, -4556.87, -4409.03, -3685.26, 0.000, 0.000, 0.000, 17:34:48.118
87, -3789.01, -4450.73, -4291.46, -3570.25, 0.000, 0.000, 0.000, 17:34:48.133
88, -4075.86, -4759.59, -4610.24, -3873.53, 0.000, 0.000, 0.000, 17:34:48.133
89, -4097.95, -4780.62, -4613.00, -3875.53, 0.000, 0.000, 0.000, 17:34:48.134
90, -3890.27, -4579.42, -4396.94, -3679.05, 0.000, 0.000, 0.000, 17:34:48.134
91, -3751.97, -4441.45, -4274.85, -3560.08, 0.000, 0.000, 0.000, 17:34:48.154
92, -4056.41, -4763.59, -4597.05, -3873.49, 0.000, 0.000, 0.000, 17:34:48.154
93, -4114.23, -4775.93, -4621.42, -3881.02, 0.000, 0.000, 0.000, 17:34:48.163
94, -3935.15, -4563.94, -4428.10, -3689.13, 0.000, 0.000, 0.000, 17:34:48.163
95, -3818.51, -4431.77, -4303.43, -3570.05, 0.000, 0.000, 0.000, 17:34:48.163
96, -4135.97, -4726.74, -4617.67, -3891.18, 0.000, 0.000, 0.000, 17:34:48.163
97, -4160.33, -4718.40, -4612.52, -3883.65, 0.000, 0.000, 0.000, 17:34:48.178
98, -3993.12, -4534.50, -4433.90, -3685.13, 0.000, 0.000, 0.000, 17:34:48.178
99, -3878.67, -4410.20, -4330.62, -3584.31, 0.000, 0.000, 0.000, 17:34:48.193
100, -4173.02, -4708.79, -4626.14, -3893.52, 0.000, 0.000, 0.000, 17:34:48.193
101, -4192.52, -4706.95, -4620.37, -3886.91, 0.000, 0.000, 0.000, 17:34:48.193
102, -4032.30, -4511.36, -4448.85, -3708.86, 0.000, 0.000, 0.000, 17:34:48.193
103, -3916.86, -4396.33, -4333.67, -3603.99, 0.000, 0.000, 0.000, 17:34:48.208
104, -4205.17, -4716.31, -4636.05, -3908.69, 0.000, 0.000, 0.000, 17:34:48.208
105, -4217.33, -4703.89, -4635.54, -3892.39, 0.000, 0.000, 0.000, 17:34:48.239
106, -4034.26, -4503.09, -4446.80, -3713.44, 0.000, 0.000, 0.000, 17:34:48.239
107, -3906.47, -4379.57, -4316.60, -3593.59, 0.000, 0.000, 0.000, 17:34:48.240
108, -4187.62, -4694.91, -4610.15, -3894.87, 0.000, 0.000, 0.000, 17:34:48.240
109, -4212.60, -4688.41, -4598.32, -3895.66, 0.000, 0.000, 0.000, 17:34:48.241
110, -4023.27, -4489.19, -4426.57, -3698.73, 0.000, 0.000, 0.000, 17:34:48.241
111, -3899.71, -4382.47, -4310.29, -3593.31, 0.000, 0.000, 0.000, 17:34:48.241
112, -4189.96, -4696.16, -4623.23, -3899.71, 0.000, 0.000, 0.000, 17:34:48.241
113, -4222.66, -4703.79, -4628.77, -3898.67, 0.000, 0.000, 0.000, 17:34:48.254
114, -4026.57, -4508.49, -4429.81, -3697.05, 0.000, 0.000, 0.000, 17:34:48.254
115, -3895.20, -4366.48, -4309.23, -3589.92, 0.000, 0.000, 0.000, 17:34:48.268
116, -4191.42, -4702.79, -4614.20, -3900.65, 0.000, 0.000, 0.000, 17:34:48.268
117, -4209.60, -4696.22, -4619.16, -3892.78, 0.000, 0.000, 0.000, 17:34:48.283
118, -4019.61, -4499.03, -4432.40, -3683.96, 0.000, 0.000, 0.000, 17:34:48.283
119, -3912.41, -4402.25, -4343.15, -3607.42, 0.000, 0.000, 0.000, 17:34:48.284
120, -4204.39, -4726.73, -4633.57, -3917.09, 0.000, 0.000, 0.000, 17:34:48.284
121, -4214.23, -4705.26, -4623.23, -3894.57, 0.000, 0.000, 0.000, 17:34:48.312
122, -4021.99, -4500.35, -4440.90, -3709.79, 0.000, 0.000, 0.000, 17:34:48.312
123, -3892.42, -4386.45, -4313.91, -3593.25, 0.000, 0.000, 0.000, 17:34:48.313
124, -4186.67, -4702.03, -4634.19, -3906.40, 0.000, 0.000, 0.000, 17:34:48.313
125, -4218.73, -4723.64, -4655.36, -3905.74, 0.000, 0.000, 0.000, 17:34:48.314
126, -4041.40, -4550.87, -4450.44, -3714.03, 0.000, 0.000, 0.000, 17:34:48.314
127, -3889.85, -4393.61, -4311.39, -3594.60, 0.000, 0.000, 0.000, 17:34:48.328
128, -4176.97, -4722.73, -4619.66, -3907.11, 0.000, 0.000, 0.000, 17:34:48.328
129, -4195.31, -4703.01, -4617.17, -3897.17, 0.000, 0.000, 0.000, 17:34:48.343
130, -4009.08, -4523.64, -4428.95, -3701.27, 0.000, 0.000, 0.000, 17:34:48.343
131, -3865.41, -4380.82, -4300.26, -3586.14, 0.000, 0.000, 0.000, 17:34:48.343
132, -4155.62, -4697.26, -4606.22, -3890.65, 0.000, 0.000, 0.000, 17:34:48.344
133, -4200.02, -4720.63, -4625.03, -3896.76, 0.000, 0.000, 0.000, 17:34:48.359
134, -4006.47, -4514.71, -4417.17, -3691.75, 0.000, 0.000, 0.000, 17:34:48.359
135, -3877.87, -4389.12, -4304.11, -3590.65, 0.000, 0.000, 0.000, 17:34:48.372
136, -4163.64, -4694.54, -4619.48, -3902.79, 0.000, 0.000, 0.000, 17:34:48.373
137, -4191.92, -4722.64, -4619.03, -3891.54, 0.000, 0.000, 0.000, 17:34:48.373
138, -4014.86, -4537.16, -4438.34, -3697.99, 0.000, 0.000, 0.000, 17:34:48.375
139, -3876.95, -4409.80, -4311.80, -3586.89, 0.000, 0.000, 0.000, 17:34:48.388
140, -4151.09, -4705.58, -4592.33, -3888.17, 0.000, 0.000, 0.000, 17:34:48.388
141, -4190.50, -4716.37, -4617.78, -3896.07, 0.000, 0.000, 0.000, 17:34:48.403
142, -4013.31, -4515.78, -4440.44, -3714.49, 0.000, 0.000, 0.000, 17:34:48.403
143, -3879.48, -4399.43, -4321.37, -3597.60, 0.000, 0.000, 0.000, 17:34:48.403
144, -4154.66, -4706.02, -4615.12, -3897.96, 0.000, 0.000, 0.000, 17:34:48.403
145, -4181.57, -4706.21, -4620.53, -3881.14, 0.000, 0.000, 0.000, 17:34:48.419
146, -3992.29, -4513.72, -4421.99, -3690.23, 0.000, 0.000, 0.000, 17:34:48.419
147, -3867.28, -4390.37, -4307.70, -3580.17, 0.000, 0.000, 0.000, 17:34:48.432
148, -4169.45, -4717.48, -4618.58, -3893.01, 0.000, 0.000, 0.000, 17:34:48.433
149, -4207.36, -4742.05, -4645.12, -3901.61, 0.000, 0.000, 0.000, 17:34:48.433
150, -4016.45, -4537.81, -4439.94, -3710.00, 0.000, 0.000, 0.000, 17:34:48.433
151, -3853.53, -4374.39, -4289.69, -3573.93, 0.000, 0.000, 0.000, 17:34:48.448
152, -4145.79, -4694.55, -4602.26, -3895.08, 0.000, 0.000, 0.000, 17:34:48.448
153, -4179.89, -4715.09, -4606.17, -3895.56, 0.000, 0.000, 0.000, 17:34:48.463
154, -3991.46, -4516.35, -4427.10, -3702.35, 0.000, 0.000, 0.000, 17:34:48.463
155, -3864.90, -4377.22, -4300.43, -3589.85, 0.000, 0.000, 0.000, 17:34:48.478
156, -4152.23, -4707.88, -4604.80, -3905.59, 0.000, 0.000, 0.000, 17:34:48.479
157, -4188.72, -4721.22, -4610.32, -3886.37, 0.000, 0.000, 0.000, 17:34:48.486
158, -4012.02, -4533.44, -4431.21, -3704.51, 0.000, 0.000, 0.000, 17:34:48.486
159, -3875.45, -4410.84, -4322.43, -3597.96, 0.000, 0.000, 0.000, 17:34:48.493
160, -4160.38, -4720.98, -4608.32, -3903.33, 0.000, 0.000, 0.000, 17:34:48.493
161, -4194.52, -4721.01, -4626.53, -3908.98, 0.000, 0.000, 0.000, 17:34:48.493
162, -4011.46, -4538.91, -4449.24, -3712.59, 0.000, 0.000, 0.000, 17:34:48.493
163, -3875.59, -4408.27, -4321.59, -3597.82, 0.000, 0.000, 0.000, 17:34:48.508
164, -4162.26, -4719.85, -4627.09, -3894.04, 0.000, 0.000, 0.000, 17:34:48.508
165, -4186.06, -4713.16, -4619.49, -3894.40, 0.000, 0.000, 0.000, 17:34:48.523
166, -4006.77, -4536.12, -4438.64, -3696.42, 0.000, 0.000, 0.000, 17:34:48.523
167, -3873.35, -4399.36, -4317.32, -3587.47, 0.000, 0.000, 0.000, 17:34:48.524
168, -4153.69, -4708.16, -4606.94, -3895.41, 0.000, 0.000, 0.000, 17:34:48.524
169, -4202.39, -4718.35, -4631.94, -3895.83, 0.000, 0.000, 0.000, 17:34:48.538
170, -4013.20, -4535.05, -4428.91, -3699.48, 0.000, 0.000, 0.000, 17:34:48.538
171, -3878.97, -4401.67, -4308.52, -3587.00, 0.000, 0.000, 0.000, 17:34:48.554
172, -4157.98, -4710.02, -4615.18, -3889.83, 0.000, 0.000, 0.000, 17:34:48.554
173, -4202.36, -4737.85, -4640.29, -3889.74, 0.000, 0.000, 0.000, 17:34:48.554
174, -4019.96, -4534.27, -4449.19, -3712.92, 0.000, 0.000, 0.000, 17:34:48.554
175, -3882.11, -4411.25, -4322.35, -3609.74, 0.000, 0.000, 0.000, 17:34:48.568
176, -4164.68, -4715.14, -4620.21, -3908.71, 0.000, 0.000, 0.000, 17:34:48.568
177, -4197.43, -4716.22, -4630.51, -3895.17, 0.000, 0.000, 0.000, 17:34:48.583
178, -4008.58, -4524.38, -4439.17, -3695.18, 0.000, 0.000, 0.000, 17:34:48.583
179, -3867.61, -4384.05, -4301.09, -3583.49, 0.000, 0.000, 0.000, 17:34:48.584
180, -4145.20, -4703.99, -4612.25, -3891.90, 0.000, 0.000, 0.000, 17:34:48.584
181, -4197.85, -4729.61, -4627.50, -3892.86, 0.000, 0.000, 0.000, 17:34:48.598
182, -4015.43, -4533.04, -4434.88, -3702.86, 0.000, 0.000, 0.000, 17:34:48.598
183, -3867.93, -4406.79, -4316.73, -3583.29, 0.000, 0.000, 0.000, 17:34:48.613
184, -4159.47, -4701.60, -4617.19, -3898.70, 0.000, 0.000, 0.000, 17:34:48.613
185, -4193.53, -4719.21, -4627.35, -3898.45, 0.000, 0.000, 0.000, 17:34:48.613
186, -4005.10, -4533.17, -4441.73, -3703.45, 0.000, 0.000, 0.000, 17:34:48.613
187, -3864.37, -4394.45, -4296.08, -3586.80, 0.000, 0.000, 0.000, 17:34:48.628
188, -4148.25, -4707.15, -4609.04, -3893.63, 0.000, 0.000, 0.000, 17:34:48.628
189, -4186.82, -4713.62, -4611.48, -3885.32, 0.000, 0.000, 0.000, 17:34:48.643
190, -3989.95, -4513.54, -4415.61, -3692.57, 0.000, 0.000, 0.000, 17:34:48.643
191, -3869.60, -4383.71, -4307.76, -3590.12, 0.000, 0.000, 0.000, 17:34:48.643
192, -4137.65, -4703.37, -4608.18, -3889.71, 0.000, 0.000, 0.000, 17:34:48.643
193, -4197.83, -4735.20, -4633.46, -3900.43, 0.000, 0.000, 0.000, 17:34:48.658
194, -4000.67, -4528.85, -4428.97, -3693.95, 0.000, 0.000, 0.000, 17:34:48.658
195, -3867.87, -4411.53, -4310.97, -3589.62, 0.000, 0.000, 0.000, 17:34:48.674
196, -4144.69, -4700.59, -4614.78, -3895.70, 0.000, 0.000, 0.000, 17:34:48.674
197, -4177.14, -4704.44, -4613.44, -3889.54, 0.000, 0.000, 0.000, 17:34:48.674
198, -3999.22, -4509.00, -4420.43, -3696.49, 0.000, 0.000, 0.000, 17:34:48.674
199, -3866.62, -4389.51, -4304.24, -3583.15, 0.000, 0.000, 0.000, 17:34:48.688
200, -4135.55, -4700.31, -4594.88, -3884.81, 0.000, 0.000, 0.000, 17:34:48.688
0, -4198.07, -4738.23, -4631.79, -3898.21, 0.000, 0.000, 0.000, 17:34:48.689
1, -4005.81, -4528.14, -4432.37, -3701.56, 0.000, 0.000, 0.000, 17:34:48.703
2, -3860.94, -4402.03, -4318.83, -3576.29, 0.000, 0.000, 0.000, 17:34:48.704
3, -4149.71, -4724.64, -4614.46, -3896.46, 0.000, 0.000, 0.000, 17:34:48.718
4, -4198.23, -4744.68, -4645.87, -3910.25, 0.000, 0.000, 0.000, 17:34:48.718
5, -4001.12, -4531.17, -4436.63, -3694.43, 0.000, 0.000, 0.000, 17:34:48.719
6, -3860.47, -4404.33, -4303.97, -3575.58, 0.000, 0.000, 0.000, 17:34:48.719
7, -4165.19, -4723.65, -4627.75, -3898.02, 0.000, 0.000, 0.000, 17:34:48.748
8, -4199.46, -4725.62, -4634.18, -3892.96, 0.000, 0.000, 0.000, 17:34:48.748
9, -4005.56, -4534.92, -4448.55, -3701.15, 0.000, 0.000, 0.000, 17:34:48.748
10, -3872.99, -4414.95, -4330.83, -3591.61, 0.000, 0.000, 0.000, 17:34:48.748
11, -4164.52, -4717.71, -4615.17, -3900.72, 0.000, 0.000, 0.000, 17:34:48.749
12, -4206.95, -4739.41, -4639.04, -3907.15, 0.000, 0.000, 0.000, 17:34:48.749
13, -4011.56, -4544.75, -4446.93, -3706.54, 0.000, 0.000, 0.000, 17:34:48.763
14, -3859.34, -4391.33, -4303.84, -3577.94, 0.000, 0.000, 0.000, 17:34:48.763
15, -4157.37, -4718.72, -4613.90, -3896.56, 0.000, 0.000, 0.000, 17:34:48.792
16, -4189.43, -4718.63, -4625.56, -3893.21, 0.000, 0.000, 0.000, 17:34:48.793
17, -4007.79, -4547.50, -4439.70, -3706.25, 0.000, 0.000, 0.000, 17:34:48.793
18, -3873.79, -4415.03, -4317.26, -3591.04, 0.000, 0.000, 0.000, 17:34:48.793
19, -4153.40, -4715.72, -4614.75, -3882.55, 0.000, 0.000, 0.000, 17:34:48.794
20, -4193.57, -4730.84, -4633.13, -3897.82, 0.000, 0.000, 0.000, 17:34:48.794
21, -4011.18, -4541.89, -4445.35, -3706.06, 0.000, 0.000, 0.000, 17:34:48.794
22, -3861.38, -4394.10, -4308.51, -3581.28, 0.000, 0.000, 0.000, 17:34:48.794
23, -4145.82, -4704.63, -4614.64, -3889.88, 0.000, 0.000, 0.000, 17:34:48.807
24, -4187.36, -4706.49, -4621.10, -3889.63, 0.000, 0.000, 0.000, 17:34:48.807
25, -4007.00, -4531.69, -4431.65, -3701.94, 0.000, 0.000, 0.000, 17:34:48.823
26, -3861.90, -4384.70, -4310.90, -3580.47, 0.000, 0.000, 0.000, 17:34:48.823
27, -4136.55, -4693.82, -4605.74, -3889.73, 0.000, 0.000, 0.000, 17:34:48.839
28, -4187.55, -4732.58, -4622.30, -3895.36, 0.000, 0.000, 0.000, 17:34:48.839
29, -4003.71, -4526.48, -4435.67, -3706.38, 0.000, 0.000, 0.000, 17:34:48.839
30, -3862.49, -4391.24, -4311.59, -3579.90, 0.000, 0.000, 0.000, 17:34:48.839
31, -4146.32, -4706.65, -4605.49, -3887.03, 0.000, 0.000, 0.000, 17:34:48.853
32, -4186.36, -4728.96, -4621.15, -3899.13, 0.000, 0.000, 0.000, 17:34:48.853
33, -3993.38, -4518.15, -4431.65, -3699.19, 0.000, 0.000, 0.000, 17:34:48.868
34, -3855.59, -4382.47, -4297.38, -3573.96, 0.000, 0.000, 0.000, 17:34:48.869
35, -4132.15, -4697.71, -4598.16, -3885.79, 0.000, 0.000, 0.000, 17:34:48.869
36, -4186.72, -4723.74, -4623.51, -3905.61, 0.000, 0.000, 0.000, 17:34:48.869
37, -3999.82, -4523.25, -4436.22, -3705.25, 0.000, 0.000, 0.000, 17:34:48.883
38, -3857.12, -4390.98, -4306.42, -3577.84, 0.000, 0.000, 0.000, 17:34:48.883
39, -4139.27, -4702.25, -4601.62, -3882.09, 0.000, 0.000, 0.000, 17:34:48.898
40, -4191.38, -4741.28, -4641.02, -3905.56, 0.000, 0.000, 0.000, 17:34:48.898
41, -4010.76, -4533.41, -4447.29, -3712.41, 0.000, 0.000, 0.000, 17:34:48.898
42, -3860.36, -4390.89, -4307.76, -3571.35, 0.000, 0.000, 0.000, 17:34:48.898
43, -4145.71, -4693.97, -4603.64, -3881.05, 0.000, 0.000, 0.000, 17:34:48.928
44, -4198.63, -4747.25, -4634.64, -3903.61, 0.000, 0.000, 0.000, 17:34:48.928
45, -4015.59, -4540.95, -4450.80, -3714.04, 0.000, 0.000, 0.000, 17:34:48.928
46, -3867.62, -4395.46, -4310.19, -3577.00, 0.000, 0.000, 0.000, 17:34:48.928
47, -4145.28, -4702.84, -4607.00, -3880.60, 0.000, 0.000, 0.000, 17:34:48.929
48, -4188.90, -4728.96, -4617.88, -3895.37, 0.000, 0.000, 0.000, 17:34:48.929
49, -4012.06, -4542.22, -4448.04, -3715.35, 0.000, 0.000, 0.000, 17:34:48.943
50, -3868.97, -4407.13, -4317.59, -3593.42, 0.000, 0.000, 0.000, 17:34:48.943
51, -4155.63, -4715.53, -4616.50, -3889.61, 0.000, 0.000, 0.000, 17:34:48.958
52, -4194.95, -4735.46, -4620.10, -3899.98, 0.000, 0.000, 0.000, 17:34:48.958
53, -4016.88, -4547.34, -4451.31, -3711.88, 0.000, 0.000, 0.000, 17:34:48.958
54, -3886.32, -4415.10, -4322.92, -3589.39, 0.000, 0.000, 0.000, 17:34:48.959
55, -4156.58, -4707.98, -4595.67, -3893.33, 0.000, 0.000, 0.000, 17:34:48.988
56, -4188.68, -4728.97, -4628.97, -3902.31, 0.000, 0.000, 0.000, 17:34:48.988
57, -3999.25, -4519.33, -4434.58, -3707.61, 0.000, 0.000, 0.000, 17:34:48.989
58, -3857.53, -4378.14, -4298.82, -3569.14, 0.000, 0.000, 0.000, 17:34:48.989
59, -4150.21, -4694.99, -4612.85, -3894.74, 0.000, 0.000, 0.000, 17:34:48.989
60, -4209.58, -4744.84, -4641.03, -3914.30, 0.000, 0.000, 0.000, 17:34:48.990
61, -4020.54, -4546.85, -4446.68, -3715.87, 0.000, 0.000, 0.000, 17:34:49.003
62, -3860.41, -4391.45, -4300.61, -3576.38, 0.000, 0.000, 0.000, 17:34:49.004
63, -4140.91, -4696.47, -4610.28, -3877.88, 0.000, 0.000, 0.000, 17:34:49.033
64, -4197.68, -4735.18, -4635.48, -3904.32, 0.000, 0.000, 0.000, 17:34:49.033
65, -4028.19, -4554.75, -4453.42, -3714.35, 0.000, 0.000, 0.000, 17:34:49.033
66, -3886.36, -4427.04, -4326.55, -3596.22, 0.000, 0.000, 0.000, 17:34:49.033
67, -4165.73, -4724.25, -4632.98, -3898.90, 0.000, 0.000, 0.000, 17:34:49.034
68, -4192.65, -4728.97, -4625.98, -3889.65, 0.000, 0.000, 0.000, 17:34:49.034
69, -4001.81, -4517.29, -4435.63, -3702.07, 0.000, 0.000, 0.000, 17:34:49.035
70, -3854.87, -4381.40, -4298.18, -3573.55, 0.000, 0.000, 0.000, 17:34:49.035
71, -4133.22, -4677.40, -4590.63, -3875.99, 0.000, 0.000, 0.000, 17:34:49.047
72, -4196.98, -4720.97, -4623.76, -3898.30, 0.000, 0.000, 0.000, 17:34:49.047
73, -4009.51, -4531.43, -4440.10, -3711.40, 0.000, 0.000, 0.000, 17:34:49.077
74, -3856.38, -4386.44, -4298.26, -3579.32, 0.000, 0.000, 0.000, 17:34:49.078
75, -4133.83, -4688.17, -4593.92, -3873.52, 0.000, 0.000, 0.000, 17:34:49.078
76, -4184.84, -4725.59, -4624.91, -3902.63, 0.000, 0.000, 0.000, 17:34:49.078
77, -3999.90, -4522.39, -4430.80, -3700.70, 0.000, 0.000, 0.000, 17:34:49.079
78, -3869.09, -4382.51, -4318.58, -3589.18, 0.000, 0.000, 0.000, 17:34:49.079
79, -4141.04, -4701.24, -4599.19, -3881.75, 0.000, 0.000, 0.000, 17:34:49.093
80, -4189.78, -4733.27, -4624.61, -3901.82, 0.000, 0.000, 0.000, 17:34:49.093
81, -4021.02, -4547.10, -4453.66, -3716.12, 0.000, 0.000, 0.000, 17:34:49.108
82, -3872.23, -4402.68, -4318.08, -3591.57, 0.000, 0.000, 0.000, 17:34:49.108
83, -4150.57, -4720.33, -4619.26, -3890.83, 0.000, 0.000, 0.000, 17:34:49.108
84, -4200.05, -4727.33, -4622.47, -3897.50, 0.000, 0.000, 0.000, 17:34:49.109
85, -4002.22, -4527.39, -4427.39, -3687.80, 0.000, 0.000, 0.000, 17:34:49.124
86, -3857.77, -4386.35, -4292.56, -3580.55, 0.000, 0.000, 0.000, 17:34:49.124
87, -4137.28, -4687.47, -4591.16, -3878.38, 0.000, 0.000, 0.000, 17:34:49.138
88, -4200.07, -4744.44, -4634.66, -3908.30, 0.000, 0.000, 0.000, 17:34:49.138
89, -4025.58, -4549.78, -4460.89, -3719.45, 0.000, 0.000, 0.000, 17:34:49.139
90, -3863.65, -4387.59, -4299.56, -3575.34, 0.000, 0.000, 0.000, 17:34:49.139
91, -4128.04, -4683.63, -4588.19, -3869.09, 0.000, 0.000, 0.000, 17:34:49.153
92, -4188.68, -4724.34, -4635.03, -3894.62, 0.000, 0.000, 0.000, 17:34:49.153
93, -4005.00, -4527.23, -4439.46, -3696.66, 0.000, 0.000, 0.000, 17:34:49.168
94, -3865.83, -4396.07, -4309.18, -3573.87, 0.000, 0.000, 0.000, 17:34:49.168
95, -4135.62, -4695.09, -4612.67, -3881.45, 0.000, 0.000, 0.000, 17:34:49.175
96, -4203.00, -4738.23, -4633.85, -3903.14, 0.000, 0.000, 0.000, 17:34:49.176
97, -4019.03, -4541.73, -4436.95, -3710.64, 0.000, 0.000, 0.000, 17:34:49.198
98, -3876.58, -4398.17, -4316.25, -3591.43, 0.000, 0.000, 0.000, 17:34:49.198
99, -4145.26, -4696.68, -4598.96, -3873.03, 0.000, 0.000, 0.000, 17:34:49.198
100, -4194.10, -4726.28, -4634.53, -3896.02, 0.000, 0.000, 0.000, 17:34:49.199
101, -4015.94, -4532.20, -4449.02, -3709.67, 0.000, 0.000, 0.000, 17:34:49.199
102, -3848.40, -4365.09, -4289.13, -3569.06, 0.000, 0.000, 0.000, 17:34:49.199
103, -4139.57, -4695.65, -4597.91, -3888.12, 0.000, 0.000, 0.000, 17:34:49.213
104, -4211.50, -4741.66, -4649.98, -3901.99, 0.000, 0.000, 0.000, 17:34:49.213
105, -4008.69, -4544.64, -4431.88, -3710.39, 0.000, 0.000, 0.000, 17:34:49.227
106, -3865.74, -4402.39, -4308.50, -3577.13, 0.000, 0.000, 0.000, 17:34:49.228
107, -4143.35, -4691.11, -4594.80, -3874.24, 0.000, 0.000, 0.000, 17:34:49.228
108, -4199.02, -4730.43, -4620.99, -3918.61, 0.000, 0.000, 0.000, 17:34:49.228
109, -4013.31, -4541.92, -4442.55, -3714.21, 0.000, 0.000, 0.000, 17:34:49.243
110, -3867.19, -4395.09, -4308.64, -3579.39, 0.000, 0.000, 0.000, 17:34:49.243
111, -4147.59, -4702.77, -4598.39, -3886.39, 0.000, 0.000, 0.000, 17:34:49.258
112, -4201.90, -4735.76, -4635.05, -3895.10, 0.000, 0.000, 0.000, 17:34:49.258
113, -4013.67, -4531.51, -4436.81, -3712.45, 0.000, 0.000, 0.000, 17:34:49.259
114, -3894.25, -4420.27, -4344.84, -3589.58, 0.000, 0.000, 0.000, 17:34:49.259
115, -4138.15, -4712.15, -4603.31, -3883.99, 0.000, 0.000, 0.000, 17:34:49.274
116, -4202.49, -4748.06, -4642.63, -3908.13, 0.000, 0.000, 0.000, 17:34:49.274
117, -4014.73, -4540.56, -4457.33, -3715.97, 0.000, 0.000, 0.000, 17:34:49.303
118, -3859.34, -4383.78, -4304.98, -3580.67, 0.000, 0.000, 0.000, 17:34:49.303
119, -4134.18, -4684.95, -4599.53, -3881.07, 0.000, 0.000, 0.000, 17:34:49.304
120, -4201.02, -4749.66, -4638.07, -3909.29, 0.000, 0.000, 0.000, 17:34:49.304
121, -4011.46, -4549.73, -4453.04, -3708.20, 0.000, 0.000, 0.000, 17:34:49.304
122, -3846.12, -4377.80, -4297.59, -3574.10, 0.000, 0.000, 0.000, 17:34:49.305
123, -4130.78, -4687.16, -4587.11, -3865.19, 0.000, 0.000, 0.000, 17:34:49.305
124, -4191.50, -4737.88, -4630.21, -3899.06, 0.000, 0.000, 0.000, 17:34:49.305
125, -4013.71, -4539.48, -4439.77, -3706.90, 0.000, 0.000, 0.000, 17:34:49.318
126, -3867.66, -4391.98, -4297.82, -3579.31, 0.000, 0.000, 0.000, 17:34:49.318
127, -4137.97, -4692.75, -4603.29, -3885.50, 0.000, 0.000, 0.000, 17:34:49.332
128, -4204.69, -4741.70, -4641.38, -3910.60, 0.000, 0.000, 0.000, 17:34:49.332
129, -4012.54, -4532.99, -4445.59, -3714.04, 0.000, 0.000, 0.000, 17:34:49.347
130, -3858.91, -4383.58, -4301.68, -3574.81, 0.000, 0.000, 0.000, 17:34:49.347
131, -4132.08, -4694.33, -4592.17, -3866.69, 0.000, 0.000, 0.000, 17:34:49.348
132, -4207.56, -4732.39, -4640.06, -3903.64, 0.000, 0.000, 0.000, 17:34:49.348
133, -4021.96, -4535.20, -4454.33, -3726.72, 0.000, 0.000, 0.000, 17:34:49.363
134, -3860.84, -4389.11, -4298.75, -3573.43, 0.000, 0.000, 0.000, 17:34:49.363
135, -4131.36, -4678.25, -4587.43, -3874.78, 0.000, 0.000, 0.000, 17:34:49.378
136, -4199.60, -4732.53, -4628.80, -3900.81, 0.000, 0.000, 0.000, 17:34:49.378
137, -4008.99, -4540.89, -4441.01, -3708.09, 0.000, 0.000, 0.000, 17:34:49.379
138, -3864.49, -4388.98, -4306.84, -3579.22, 0.000, 0.000, 0.000, 17:34:49.379
139, -4132.61, -4693.87, -4590.99, -3880.06, 0.000, 0.000, 0.000, 17:34:49.393
140, -4199.80, -4735.99, -4631.43, -3912.32, 0.000, 0.000, 0.000, 17:34:49.393
141, -4003.81, -4528.94, -4431.11, -3708.45, 0.000, 0.000, 0.000, 17:34:49.407
142, -3854.89, -4389.79, -4301.54, -3579.18, 0.000, 0.000, 0.000, 17:34:49.408
143, -4137.33, -4701.21, -4597.35, -3874.71, 0.000, 0.000, 0.000, 17:34:49.408
144, -4214.99, -4762.79, -4653.28, -3913.12, 0.000, 0.000, 0.000, 17:34:49.408
145, -4022.15, -4548.06, -4451.37, -3725.62, 0.000, 0.000, 0.000, 17:34:49.424
146, -3864.58, -4385.24, -4313.35, -3581.07, 0.000, 0.000, 0.000, 17:34:49.424
147, -4139.16, -4688.55, -4603.01, -3878.21, 0.000, 0.000, 0.000, 17:34:49.438
148, -4201.86, -4742.51, -4638.16, -3902.80, 0.000, 0.000, 0.000, 17:34:49.438
149, -4012.70, -4538.86, -4450.40, -3722.69, 0.000, 0.000, 0.000, 17:34:49.439
150, -3862.79, -4376.83, -4291.02, -3579.68, 0.000, 0.000, 0.000, 17:34:49.439
151, -4140.88, -4690.67, -4604.61, -3884.87, 0.000, 0.000, 0.000, 17:34:49.453
152, -4194.52, -4741.02, -4634.23, -3906.53, 0.000, 0.000, 0.000, 17:34:49.453
153, -4010.29, -4532.32, -4448.05, -3707.29, 0.000, 0.000, 0.000, 17:34:49.469
154, -3850.36, -4383.39, -4297.56, -3567.02, 0.000, 0.000, 0.000, 17:34:49.469
155, -4138.97, -4694.34, -4599.82, -3877.17, 0.000, 0.000, 0.000, 17:34:49.469
156, -4204.22, -4747.07, -4648.25, -3901.58, 0.000, 0.000, 0.000, 17:34:49.469
157, -4013.07, -4538.96, -4435.83, -3708.12, 0.000, 0.000, 0.000, 17:34:49.483
158, -3859.93, -4384.19, -4304.05, -3575.61, 0.000, 0.000, 0.000, 17:34:49.483
159, -4132.15, -4683.44, -4601.26, -3873.78, 0.000, 0.000, 0.000, 17:34:49.498
160, -4196.94, -4743.26, -4637.42, -3905.95, 0.000, 0.000, 0.000, 17:34:49.498
161, -4012.20, -4538.65, -4444.86, -3709.57, 0.000, 0.000, 0.000, 17:34:49.498
162, -3851.89, -4385.00, -4295.28, -3582.02, 0.000, 0.000, 0.000, 17:34:49.499
163, -4128.17, -4680.71, -4580.76, -3861.37, 0.000, 0.000, 0.000, 17:34:49.512
164, -4198.88, -4744.64, -4632.93, -3907.25, 0.000, 0.000, 0.000, 17:34:49.512
165, -4009.38, -4526.38, -4437.17, -3698.14, 0.000, 0.000, 0.000, 17:34:49.528
166, -3864.25, -4393.37, -4306.60, -3575.11, 0.000, 0.000, 0.000, 17:34:49.528
167, -4137.69, -4691.80, -4591.74, -3871.41, 0.000, 0.000, 0.000, 17:34:49.529
168, -4196.66, -4742.92, -4639.57, -3901.04, 0.000, 0.000, 0.000, 17:34:49.529
169, -4010.47, -4532.89, -4449.81, -3712.29, 0.000, 0.000, 0.000, 17:34:49.543
170, -3860.71, -4391.36, -4294.63, -3577.44, 0.000, 0.000, 0.000, 17:34:49.543
171, -4128.53, -4699.09, -4591.56, -3870.63, 0.000, 0.000, 0.000, 17:34:49.558
172, -4198.45, -4740.96, -4616.40, -3901.70, 0.000, 0.000, 0.000, 17:34:49.558
173, -4019.67, -4544.89, -4450.02, -3714.91, 0.000, 0.000, 0.000, 17:34:49.558
174, -3870.09, -4393.09, -4311.75, -3581.75, 0.000, 0.000, 0.000, 17:34:49.558
175, -4125.16, -4686.43, -4597.99, -3868.96, 0.000, 0.000, 0.000, 17:34:49.574
176, -4198.72, -4735.14, -4645.99, -3917.45, 0.000, 0.000, 0.000, 17:34:49.574
177, -4027.64, -4558.78, -4462.47, -3731.52, 0.000, 0.000, 0.000, 17:34:49.588
178, -3875.89, -4403.94, -4307.81, -3574.42, 0.000, 0.000, 0.000, 17:34:49.588
179, -4142.68, -4703.44, -4603.28, -3881.56, 0.000, 0.000, 0.000, 17:34:49.589
180, -4212.00, -4753.59, -4649.70, -3919.84, 0.000, 0.000, 0.000, 17:34:49.589
181, -4022.66, -4548.61, -4447.03, -3712.60, 0.000, 0.000, 0.000, 17:34:49.603
182, -3869.68, -4392.40, -4303.67, -3573.49, 0.000, 0.000, 0.000, 17:34:49.603
183, -4139.82, -4688.45, -4598.82, -3879.81, 0.000, 0.000, 0.000, 17:34:49.618
184, -4207.67, -4754.75, -4639.13, -3913.02, 0.000, 0.000, 0.000, 17:34:49.618
185, -4022.65, -4548.14, -4458.04, -3713.78, 0.000, 0.000, 0.000, 17:34:49.618
186, -3844.33, -4377.78, -4278.05, -3557.29, 0.000, 0.000, 0.000, 17:34:49.618
187, -4126.40, -4684.51, -4590.16, -3869.85, 0.000, 0.000, 0.000, 17:34:49.640
188, -4188.42, -4727.72, -4611.64, -3897.57, 0.000, 0.000, 0.000, 17:34:49.640
189, -4025.73, -4555.85, -4459.07, -3722.93, 0.000, 0.000, 0.000, 17:34:49.662
190, -3874.45, -4397.01, -4321.85, -3584.48, 0.000, 0.000, 0.000, 17:34:49.663
191, -4133.77, -4691.26, -4596.19, -3870.44, 0.000, 0.000, 0.000, 17:34:49.663
192, -4200.67, -4737.98, -4642.05, -3908.62, 0.000, 0.000, 0.000, 17:34:49.663
193, -4015.71, -4543.73, -4441.54, -3717.11, 0.000, 0.000, 0.000, 17:34:49.664
194, -3855.06, -4383.35, -4290.93, -3569.91, 0.000, 0.000, 0.000, 17:34:49.665
195, -4117.22, -4672.89, -4573.82, -3858.68, 0.000, 0.000, 0.000, 17:34:49.665
196, -4202.33, -4734.67, -4636.44, -3904.64, 0.000, 0.000, 0.000, 17:34:49.665
197, -4018.96, -4538.47, -4448.21, -3708.88, 0.000, 0.000, 0.000, 17:34:49.678
198, -3868.68, -4398.92, -4297.73, -3578.79, 0.000, 0.000, 0.000, 17:34:49.678
199, -4123.74, -4683.27, -4592.53, -3865.47, 0.000, 0.000, 0.000, 17:34:49.693
200, -4201.50, -4739.63, -4633.31, -3910.69, 0.000, 0.000, 0.000, 17:34:49.693
0, -4029.58, -4552.21, -4452.54, -3724.06, 0.000, 0.000, 0.000, 17:34:49.693
1, -3865.21, -4395.07, -4296.32, -3576.45, 0.000, 0.000, 0.000, 17:34:49.707
2, -4130.60, -4688.44, -4588.55, -3864.09, 0.000, 0.000, 0.000, 17:34:49.707
3, -4222.11, -4764.85, -4654.07, -3919.07, 0.000, 0.000, 0.000, 17:34:49.754
4, -4028.57, -4564.22, -4463.17, -3716.53, 0.000, 0.000, 0.000, 17:34:49.754
5, -3872.08, -4404.43, -4314.36, -3579.85, 0.000, 0.000, 0.000, 17:34:49.754
6, -4116.75, -4669.09, -4584.00, -3868.00, 0.000, 0.000, 0.000, 17:34:49.754
7, -4208.07, -4738.76, -4642.94, -3909.75, 0.000, 0.000, 0.000, 17:34:49.754
8, -4009.30, -4536.96, -4437.46, -3708.59, 0.000, 0.000, 0.000, 17:34:49.754
9, -3856.79, -4379.86, -4290.78, -3560.98, 0.000, 0.000, 0.000, 17:34:49.755
10, -4114.45, -4665.48, -4573.52, -3859.39, 0.000, 0.000, 0.000, 17:34:49.755
11, -4209.38, -4739.39, -4641.04, -3912.89, 0.000, 0.000, 0.000, 17:34:49.756
12, -4023.47, -4545.04, -4449.93, -3714.00, 0.000, 0.000, 0.000, 17:34:49.756
13, -3864.58, -4383.13, -4304.37, -3564.41, 0.000, 0.000, 0.000, 17:34:49.783
14, -4118.60, -4667.60, -4584.83, -3861.99, 0.000, 0.000, 0.000, 17:34:49.783
15, -4201.79, -4734.03, -4638.82, -3903.77, 0.000, 0.000, 0.000, 17:34:49.784
16, -4023.07, -4544.00, -4448.53, -3713.09, 0.000, 0.000, 0.000, 17:34:49.784
17, -3860.35, -4374.57, -4293.77, -3567.56, 0.000, 0.000, 0.000, 17:34:49.785
18, -4118.90, -4678.97, -4588.24, -3861.99, 0.000, 0.000, 0.000, 17:34:49.785
19, -4212.19, -4746.35, -4656.18, -3915.63, 0.000, 0.000, 0.000, 17:34:49.798
20, -4026.12, -4553.83, -4463.12, -3718.56, 0.000, 0.000, 0.000, 17:34:49.798
21, -3859.50, -4370.94, -4290.19, -3563.50, 0.000, 0.000, 0.000, 17:34:49.813
22, -4136.09, -4681.84, -4594.22, -3873.20, 0.000, 0.000, 0.000, 17:34:49.813
23, -4207.39, -4741.10, -4644.96, -3911.03, 0.000, 0.000, 0.000, 17:34:49.814
24, -4026.88, -4555.64, -4460.35, -3723.92, 0.000, 0.000, 0.000, 17:34:49.814
25, -3856.28, -4382.31, -4301.51, -3565.66, 0.000, 0.000, 0.000, 17:34:49.828
26, -4112.90, -4674.45, -4583.55, -3862.31, 0.000, 0.000, 0.000, 17:34:49.828
27, -4198.27, -4737.00, -4630.48, -3908.98, 0.000, 0.000, 0.000, 17:34:49.859
28, -4019.48, -4546.23, -4447.91, -3723.79, 0.000, 0.000, 0.000, 17:34:49.859
29, -3864.96, -4389.69, -4296.08, -3575.13, 0.000, 0.000, 0.000, 17:34:49.859
30, -4119.93, -4677.92, -4582.27, -3867.16, 0.000, 0.000, 0.000, 17:34:49.859
31, -4201.30, -4739.15, -4644.23, -3906.71, 0.000, 0.000, 0.000, 17:34:49.859
32, -4009.30, -4539.38, -4440.36, -3705.41, 0.000, 0.000, 0.000, 17:34:49.859
33, -3853.41, -4384.74, -4295.03, -3566.64, 0.000, 0.000, 0.000, 17:34:49.860
34, -4134.05, -4684.58, -4602.64, -3865.83, 0.000, 0.000, 0.000, 17:34:49.860
35, -4205.66, -4752.59, -4643.20, -3910.27, 0.000, 0.000, 0.000, 17:34:49.874
36, -4034.09, -4561.39, -4462.72, -3717.90, 0.000, 0.000, 0.000, 17:34:49.874
37, -3870.94, -4399.26, -4305.83, -3583.69, 0.000, 0.000, 0.000, 17:34:49.888
38, -4127.69, -4681.22, -4579.10, -3867.13, 0.000, 0.000, 0.000, 17:34:49.888
39, -4209.28, -4747.75, -4656.69, -3916.15, 0.000, 0.000, 0.000, 17:34:49.903
40, -4028.30, -4547.12, -4459.01, -3725.17, 0.000, 0.000, 0.000, 17:34:49.903
41, -3876.60, -4397.06, -4311.03, -3591.56, 0.000, 0.000, 0.000, 17:34:49.904
42, -4127.77, -4681.54, -4599.21, -3870.07, 0.000, 0.000, 0.000, 17:34:49.904
43, -4209.55, -4746.35, -4640.00, -3920.07, 0.000, 0.000, 0.000, 17:34:49.918
44, -4018.17, -4543.67, -4452.41, -3715.35, 0.000, 0.000, 0.000, 17:34:49.918
45, -3863.35, -4393.25, -4293.04, -3578.09, 0.000, 0.000, 0.000, 17:34:49.933
46, -4126.88, -4672.20, -4592.49, -3873.29, 0.000, 0.000, 0.000, 17:34:49.933
47, -4207.97, -4740.00, -4642.35, -3913.62, 0.000, 0.000, 0.000, 17:34:49.934
48, -4027.11, -4568.01, -4466.10, -3730.42, 0.000, 0.000, 0.000, 17:34:49.934
49, -3870.94, -4405.97, -4309.88, -3584.81, 0.000, 0.000, 0.000, 17:34:49.955
50, -4120.88, -4680.68, -4590.21, -3868.12, 0.000, 0.000, 0.000, 17:34:49.955
51, -4197.56, -4748.05, -4634.12, -3915.25, 0.000, 0.000, 0.000, 17:34:49.963
52, -4023.81, -4558.24, -4453.32, -3728.70, 0.000, 0.000, 0.000, 17:34:49.963
53, -3862.81, -4391.80, -4302.10, -3592.92, 0.000, 0.000, 0.000, 17:34:49.964
54, -4129.49, -4685.84, -4592.10, -3864.26, 0.000, 0.000, 0.000, 17:34:49.964
55, -4214.02, -4746.78, -4649.71, -3913.65, 0.000, 0.000, 0.000, 17:34:49.978
56, -4032.51, -4553.76, -4461.60, -3730.81, 0.000, 0.000, 0.000, 17:34:49.978
57, -3871.87, -4409.47, -4317.46, -3592.90, 0.000, 0.000, 0.000, 17:34:49.993
58, -4125.91, -4685.63, -4583.98, -3874.88, 0.000, 0.000, 0.000, 17:34:49.993
59, -4202.64, -4737.97, -4635.24, -3912.48, 0.000, 0.000, 0.000, 17:34:49.993
60, -4017.06, -4529.05, -4434.40, -3713.37, 0.000, 0.000, 0.000, 17:34:49.993
61, -3874.55, -4393.81, -4300.92, -3583.36, 0.000, 0.000, 0.000, 17:34:50.008
62, -4113.36, -4671.95, -4565.14, -3858.95, 0.000, 0.000, 0.000, 17:34:50.009
63, -4201.54, -4735.62, -4638.55, -3906.46, 0.000, 0.000, 0.000, 17:34:50.038
64, -4015.89, -4526.47, -4437.33, -3720.08, 0.000, 0.000, 0.000, 17:34:50.038
65, -3863.67, -4385.61, -4297.75, -3578.37, 0.000, 0.000, 0.000, 17:34:50.038
66, -4106.68, -4679.47, -4564.08, -3853.66, 0.000, 0.000, 0.000, 17:34:50.038
67, -4198.87, -4733.69, -4638.56, -3909.26, 0.000, 0.000, 0.000, 17:34:50.040
68, -4021.20, -4551.15, -4455.14, -3718.35, 0.000, 0.000, 0.000, 17:34:50.040
69, -3866.01, -4401.56, -4321.12, -3576.24, 0.000, 0.000, 0.000, 17:34:50.040
70, -4128.00, -4695.35, -4598.73, -3858.43, 0.000, 0.000, 0.000, 17:34:50.041
71, -4214.33, -4761.46, -4648.73, -3922.50, 0.000, 0.000, 0.000, 17:34:50.053
72, -4031.65, -4555.41, -4464.15, -3729.12, 0.000, 0.000, 0.000, 17:34:50.054
73, -3857.93, -4387.20, -4300.77, -3572.16, 0.000, 0.000, 0.000, 17:34:50.068
74, -4118.31, -4672.55, -4578.18, -3863.36, 0.000, 0.000, 0.000, 17:34:50.068
75, -4210.93, -4741.41, -4646.63, -3914.92, 0.000, 0.000, 0.000, 17:34:50.098
76, -4025.63, -4549.96, -4450.21, -3732.49, 0.000, 0.000, 0.000, 17:34:50.098
77, -3867.44, -4393.31, -4302.38, -3581.89, 0.000, 0.000, 0.000, 17:34:50.098
78, -4119.24, -4651.68, -4577.97, -3858.24, 0.000, 0.000, 0.000, 17:34:50.098
79, -4201.19, -4737.39, -4644.01, -3917.28, 0.000, 0.000, 0.000, 17:34:50.099
80, -4032.26, -4546.94, -4452.64, -3721.44, 0.000, 0.000, 0.000, 17:34:50.099
81, -3870.12, -4403.67, -4310.59, -3576.19, 0.000, 0.000, 0.000, 17:34:50.100
82, -4117.33, -4682.33, -4582.71, -3859.62, 0.000, 0.000, 0.000, 17:34:50.100
83, -4209.59, -4754.42, -4657.29, -3915.42, 0.000, 0.000, 0.000, 17:34:50.112
84, -4022.41, -4540.33, -4459.29, -3729.68, 0.000, 0.000, 0.000, 17:34:50.113
85, -3869.34, -4401.33, -4312.19, -3586.90, 0.000, 0.000, 0.000, 17:34:50.128
86, -4130.41, -4671.43, -4588.32, -3871.49, 0.000, 0.000, 0.000, 17:34:50.128
87, -4219.08, -4753.31, -4648.75, -3924.70, 0.000, 0.000, 0.000, 17:34:50.142
88, -4038.77, -4569.09, -4467.49, -3729.30, 0.000, 0.000, 0.000, 17:34:50.143
89, -3867.57, -4401.45, -4298.65, -3574.24, 0.000, 0.000, 0.000, 17:34:50.143
90, -4125.10, -4686.07, -4590.10, -3862.41, 0.000, 0.000, 0.000, 17:34:50.143
91, -4204.98, -4745.55, -4651.00, -3910.20, 0.000, 0.000, 0.000, 17:34:50.157
92, -4029.20, -4543.74, -4450.30, -3720.13, 0.000, 0.000, 0.000, 17:34:50.158
93, -3864.37, -4403.57, -4303.41, -3579.28, 0.000, 0.000, 0.000, 17:34:50.174
94, -4127.68, -4683.43, -4590.42, -3879.10, 0.000, 0.000, 0.000, 17:34:50.174
95, -4206.56, -4738.72, -4652.38, -3909.85, 0.000, 0.000, 0.000, 17:34:50.174
96, -4041.74, -4568.45, -4480.09, -3739.90, 0.000, 0.000, 0.000, 17:34:50.174
97, -3880.35, -4405.28, -4318.58, -3581.38, 0.000, 0.000, 0.000, 17:34:50.188
98, -4109.73, -4661.02, -4573.06, -3856.02, 0.000, 0.000, 0.000, 17:34:50.188
99, -4206.05, -4740.84, -4635.40, -3915.52, 0.000, 0.000, 0.000, 17:34:50.218
100, -4017.18, -4540.15, -4448.46, -3722.22, 0.000, 0.000, 0.000, 17:34:50.219
101, -3860.50, -4388.25, -4293.47, -3578.85, 0.000, 0.000, 0.000, 17:34:50.219
102, -4110.80, -4668.62, -4581.61, -3859.00, 0.000, 0.000, 0.000, 17:34:50.219
103, -4204.50, -4743.58, -4646.31, -3909.48, 0.000, 0.000, 0.000, 17:34:50.219
104, -4032.61, -4553.04, -4455.32, -3728.76, 0.000, 0.000, 0.000, 17:34:50.220
105, -3874.36, -4397.19, -4307.64, -3580.45, 0.000, 0.000, 0.000, 17:34:50.220
106, -4111.26, -4669.72, -4570.71, -3857.75, 0.000, 0.000, 0.000, 17:34:50.220
107, -4196.27, -4724.12, -4638.25, -3907.36, 0.000, 0.000, 0.000, 17:34:50.232
108, -4039.49, -4572.51, -4456.79, -3727.37, 0.000, 0.000, 0.000, 17:34:50.233
109, -3875.65, -4421.13, -4314.63, -3596.06, 0.000, 0.000, 0.000, 17:34:50.247
110, -4105.54, -4668.43, -4567.72, -3852.86, 0.000, 0.000, 0.000, 17:34:50.248
111, -4203.40, -4737.91, -4657.36, -3917.76, 0.000, 0.000, 0.000, 17:34:50.262
112, -4023.77, -4541.01, -4457.25, -3721.89, 0.000, 0.000, 0.000, 17:34:50.262
113, -3864.44, -4390.33, -4302.71, -3587.54, 0.000, 0.000, 0.000, 17:34:50.263
114, -4104.35, -4662.42, -4571.89, -3847.09, 0.000, 0.000, 0.000, 17:34:50.263
115, -4212.45, -4757.09, -4656.35, -3916.86, 0.000, 0.000, 0.000, 17:34:50.308
116, -4022.82, -4535.29, -4459.88, -3723.70, 0.000, 0.000, 0.000, 17:34:50.308
117, -3867.77, -4386.31, -4301.55, -3579.13, 0.000, 0.000, 0.000, 17:34:50.308
118, -4122.21, -4685.18, -4582.34, -3853.71, 0.000, 0.000, 0.000, 17:34:50.308
119, -4212.89, -4751.56, -4644.69, -3914.18, 0.000, 0.000, 0.000, 17:34:50.309
120, -4031.48, -4554.69, -4457.64, -3723.46, 0.000, 0.000, 0.000, 17:34:50.309
121, -3868.21, -4399.66, -4310.54, -3571.75, 0.000, 0.000, 0.000, 17:34:50.309
122, -4117.68, -4680.52, -4587.09, -3861.81, 0.000, 0.000, 0.000, 17:34:50.310
123, -4213.35, -4758.14, -4651.93, -3915.19, 0.000, 0.000, 0.000, 17:34:50.310
124, -4023.83, -4546.11, -4451.29, -3719.50, 0.000, 0.000, 0.000, 17:34:50.310
125, -3861.27, -4382.30, -4305.32, -3573.18, 0.000, 0.000, 0.000, 17:34:50.324
126, -4114.43, -4664.32, -4564.13, -3853.24, 0.000, 0.000, 0.000, 17:34:50.324
127, -4215.05, -4751.78, -4649.85, -3925.84, 0.000, 0.000, 0.000, 17:34:50.339
128, -4018.60, -4549.00, -4455.23, -3713.14, 0.000, 0.000, 0.000, 17:34:50.339
129, -3852.12, -4385.51, -4280.57, -3567.79, 0.000, 0.000, 0.000, 17:34:50.353
130, -4105.16, -4655.21, -4568.46, -3840.25, 0.000, 0.000, 0.000, 17:34:50.353
131, -4188.97, -4740.83, -4626.03, -3902.77, 0.000, 0.000, 0.000, 17:34:50.360
132, -4027.95, -4546.97, -4451.57, -3726.11, 0.000, 0.000, 0.000, 17:34:50.360
133, -3874.46, -4403.60, -4302.84, -3579.55, 0.000, 0.000, 0.000, 17:34:50.368
134, -4121.21, -4670.26, -4583.06, -3866.25, 0.000, 0.000, 0.000, 17:34:50.369
135, -4216.40, -4757.55, -4653.33, -3914.46, 0.000, 0.000, 0.000, 17:34:50.382
136, -4040.62, -4552.05, -4471.24, -3724.65, 0.000, 0.000, 0.000, 17:34:50.383
137, -3863.46, -4383.84, -4306.70, -3570.11, 0.000, 0.000, 0.000, 17:34:50.383
138, -4113.20, -4669.89, -4573.33, -3846.42, 0.000, 0.000, 0.000, 17:34:50.383
139, -4209.14, -4750.94, -4648.87, -3918.54, 0.000, 0.000, 0.000, 17:34:50.398
140, -4036.47, -4554.22, -4468.78, -3735.46, 0.000, 0.000, 0.000, 17:34:50.398
141, -3867.61, -4392.50, -4295.06, -3586.52, 0.000, 0.000, 0.000, 17:34:50.413
142, -4113.01, -4661.16, -4573.58, -3849.30, 0.000, 0.000, 0.000, 17:34:50.413
143, -4206.10, -4746.87, -4641.07, -3914.32, 0.000, 0.000, 0.000, 17:34:50.414
144, -4032.17, -4558.60, -4457.16, -3732.46, 0.000, 0.000, 0.000, 17:34:50.414
145, -3874.64, -4386.96, -4311.71, -3575.31, 0.000, 0.000, 0.000, 17:34:50.428
146, -4108.98, -4649.28, -4561.85, -3845.79, 0.000, 0.000, 0.000, 17:34:50.428
147, -4210.11, -4740.64, -4639.72, -3911.14, 0.000, 0.000, 0.000, 17:34:50.442
148, -4032.87, -4567.32, -4462.23, -3725.97, 0.000, 0.000, 0.000, 17:34:50.442
149, -3881.05, -4413.45, -4313.17, -3580.00, 0.000, 0.000, 0.000, 17:34:50.443
150, -4130.26, -4683.03, -4589.17, -3860.43, 0.000, 0.000, 0.000, 17:34:50.443
151, -4238.35, -4782.95, -4681.09, -3938.08, 0.000, 0.000, 0.000, 17:34:50.459
152, -4051.18, -4575.63, -4479.91, -3742.34, 0.000, 0.000, 0.000, 17:34:50.459
153, -3870.65, -4391.91, -4315.52, -3581.18, 0.000, 0.000, 0.000, 17:34:50.473
154, -4095.96, -4644.09, -4555.80, -3849.75, 0.000, 0.000, 0.000, 17:34:50.473
155, -4192.21, -4734.18, -4627.90, -3902.42, 0.000, 0.000, 0.000, 17:34:50.474
156, -4021.70, -4543.55, -4445.27, -3718.84, 0.000, 0.000, 0.000, 17:34:50.474
157, -3862.13, -4384.39, -4287.84, -3565.78, 0.000, 0.000, 0.000, 17:34:50.488
158, -4100.77, -4655.72, -4566.94, -3849.01, 0.000, 0.000, 0.000, 17:34:50.488
159, -4213.55, -4745.88, -4642.70, -3926.86, 0.000, 0.000, 0.000, 17:34:50.504
160, -4037.17, -4558.47, -4467.05, -3735.25, 0.000, 0.000, 0.000, 17:34:50.504
161, -3859.30, -4385.85, -4288.22, -3575.12, 0.000, 0.000, 0.000, 17:34:50.504
162, -4110.68, -4671.73, -4569.03, -3850.94, 0.000, 0.000, 0.000, 17:34:50.504
163, -4216.86, -4757.58, -4646.83, -3923.15, 0.000, 0.000, 0.000, 17:34:50.533
164, -4025.70, -4549.18, -4451.72, -3724.42, 0.000, 0.000, 0.000, 17:34:50.533
165, -3846.69, -4360.31, -4286.48, -3562.94, 0.000, 0.000, 0.000, 17:34:50.534
166, -4103.12, -4649.48, -4572.76, -3853.37, 0.000, 0.000, 0.000, 17:34:50.534
167, -4215.10, -4750.12, -4656.81, -3924.61, 0.000, 0.000, 0.000, 17:34:50.534
168, -4040.44, -4569.42, -4464.59, -3738.31, 0.000, 0.000, 0.000, 17:34:50.535
169, -3884.04, -4414.93, -4317.96, -3593.28, 0.000, 0.000, 0.000, 17:34:50.548
170, -4109.01, -4672.12, -4566.70, -3857.88, 0.000, 0.000, 0.000, 17:34:50.548
171, -4211.09, -4742.49, -4650.43, -3921.29, 0.000, 0.000, 0.000, 17:34:50.563
172, -4040.74, -4559.59, -4475.38, -3736.94, 0.000, 0.000, 0.000, 17:34:50.563
173, -3877.07, -4410.18, -4311.03, -3592.47, 0.000, 0.000, 0.000, 17:34:50.563
174, -4122.67, -4669.38, -4575.12, -3859.98, 0.000, 0.000, 0.000, 17:34:50.563
175, -4219.78, -4749.84, -4661.76, -3923.23, 0.000, 0.000, 0.000, 17:34:50.593
176, -4036.27, -4555.81, -4466.43, -3733.97, 0.000, 0.000, 0.000, 17:34:50.593
177, -3876.59, -4396.57, -4307.85, -3590.78, 0.000, 0.000, 0.000, 17:34:50.594
178, -4120.49, -4670.78, -4583.06, -3865.18, 0.000, 0.000, 0.000, 17:34:50.594
179, -4217.44, -4752.54, -4656.53, -3930.09, 0.000, 0.000, 0.000, 17:34:50.595
180, -4047.57, -4572.88, -4477.82, -3738.51, 0.000, 0.000, 0.000, 17:34:50.595
181, -3877.43, -4405.12, -4313.38, -3585.17, 0.000, 0.000, 0.000, 17:34:50.608
182, -4107.98, -4652.92, -4569.79, -3842.94, 0.000, 0.000, 0.000, 17:34:50.609
183, -4210.81, -4755.55, -4657.98, -3915.76, 0.000, 0.000, 0.000, 17:34:50.624
184, -4033.14, -4549.75, -4461.76, -3721.91, 0.000, 0.000, 0.000, 17:34:50.624
185, -3884.19, -4410.62, -4318.22, -3591.73, 0.000, 0.000, 0.000, 17:34:50.624
186, -4120.51, -4664.35, -4574.11, -3857.67, 0.000, 0.000, 0.000, 17:34:50.626
187, -4216.04, -4756.82, -4661.51, -3921.49, 0.000, 0.000, 0.000, 17:34:50.653
188, -4031.36, -4550.07, -4462.74, -3724.70, 0.000, 0.000, 0.000, 17:34:50.653
189, -3872.23, -4408.38, -4315.94, -3581.34, 0.000, 0.000, 0.000, 17:34:50.654
190, -4109.14, -4669.44, -4574.68, -3841.22, 0.000, 0.000, 0.000, 17:34:50.654
191, -4209.56, -4754.14, -4656.40, -3906.29, 0.000, 0.000, 0.000, 17:34:50.654
192, -4025.82, -4557.46, -4455.85, -3734.92, 0.000, 0.000, 0.000, 17:34:50.654
193, -3861.76, -4383.73, -4304.74, -3581.05, 0.000, 0.000, 0.000, 17:34:50.669
194, -4103.36, -4659.78, -4582.88, -3844.74, 0.000, 0.000, 0.000, 17:34:50.669
195, -4209.27, -4746.76, -4656.84, -3914.26, 0.000, 0.000, 0.000, 17:34:50.683
196, -4034.96, -4568.15, -4466.03, -3736.07, 0.000, 0.000, 0.000, 17:34:50.683
197, -3878.57, -4411.11, -4308.50, -3584.10, 0.000, 0.000, 0.000, 17:34:50.684
198, -4106.55, -4651.38, -4565.93, -3840.99, 0.000, 0.000, 0.000, 17:34:50.684
199, -4215.48, -4743.63, -4656.52, -3920.31, 0.000, 0.000, 0.000, 17:34:50.698
200, -4034.43, -4559.01, -4474.79, -3736.00, 0.000, 0.000, 0.000, 17:34:50.698
0, -3868.60, -4405.14, -4310.15, -3586.03, 0.000, 0.000, 0.000, 17:34:50.698
1, -4087.57, -4653.93, -4543.86, -3844.12, 0.000, 0.000, 0.000, 17:34:50.712
2, -4189.53, -4731.41, -4625.20, -3912.76, 0.000, 0.000, 0.000, 17:34:50.712
3, -4030.67, -4546.67, -4454.40, -3740.32, 0.000, 0.000, 0.000, 17:34:50.728
4, -3868.85, -4395.13, -4308.83, -3597.71, 0.000, 0.000, 0.000, 17:34:50.728
5, -4097.78, -4657.15, -4561.26, -3841.20, 0.000, 0.000, 0.000, 17:34:50.729
6, -4209.24, -4750.46, -4640.63, -3912.79, 0.000, 0.000, 0.000, 17:34:50.729
7, -4042.57, -4572.72, -4483.96, -3732.58, 0.000, 0.000, 0.000, 17:34:50.743
8, -3886.39, -4412.23, -4329.34, -3596.76, 0.000, 0.000, 0.000, 17:34:50.743
9, -4108.22, -4664.87, -4560.72, -3848.86, 0.000, 0.000, 0.000, 17:34:50.758
10, -4211.81, -4747.21, -4649.19, -3922.66, 0.000, 0.000, 0.000, 17:34:50.758
11, -4041.04, -4554.11, -4471.66, -3738.17, 0.000, 0.000, 0.000, 17:34:50.765
12, -3869.54, -4387.05, -4312.09, -3581.48, 0.000, 0.000, 0.000, 17:34:50.765
13, -4109.76, -4668.37, -4578.22, -3847.24, 0.000, 0.000, 0.000, 17:34:50.774
14, -4200.81, -4742.45, -4633.63, -3911.37, 0.000, 0.000, 0.000, 17:34:50.774
15, -4030.91, -4570.23, -4460.93, -3735.41, 0.000, 0.000, 0.000, 17:34:50.788
16, -3887.31, -4423.23, -4323.36, -3598.86, 0.000, 0.000, 0.000, 17:34:50.789
17, -4113.67, -4654.48, -4573.38, -3849.14, 0.000, 0.000, 0.000, 17:34:50.789
18, -4210.29, -4754.56, -4656.17, -3918.56, 0.000, 0.000, 0.000, 17:34:50.789
19, -4053.17, -4582.70, -4475.46, -3738.31, 0.000, 0.000, 0.000, 17:34:50.804
20, -3885.30, -4401.25, -4317.78, -3587.04, 0.000, 0.000, 0.000, 17:34:50.804
21, -4095.52, -4653.05, -4555.41, -3838.37, 0.000, 0.000, 0.000, 17:34:50.818
22, -4218.87, -4750.54, -4657.84, -3919.15, 0.000, 0.000, 0.000, 17:34:50.818
23, -4042.65, -4565.97, -4472.76, -3734.01, 0.000, 0.000, 0.000, 17:34:50.819
24, -3875.87, -4408.87, -4317.68, -3589.90, 0.000, 0.000, 0.000, 17:34:50.819
25, -4093.33, -4640.76, -4553.88, -3833.72, 0.000, 0.000, 0.000, 17:34:50.833
26, -4212.32, -4759.26, -4652.94, -3920.56, 0.000, 0.000, 0.000, 17:34:50.833
27, -4051.80, -4573.02, -4469.75, -3733.20, 0.000, 0.000, 0.000, 17:34:50.848
28, -3878.55, -4409.21, -4308.86, -3585.60, 0.000, 0.000, 0.000, 17:34:50.848
29, -4110.13, -4663.39, -4567.56, -3848.41, 0.000, 0.000, 0.000, 17:34:50.849
30, -4209.68, -4743.18, -4645.05, -3919.40, 0.000, 0.000, 0.000, 17:34:50.849
31, -4040.52, -4564.89, -4471.75, -3743.15, 0.000, 0.000, 0.000, 17:34:50.863
32, -3882.49, -4419.85, -4322.88, -3593.23, 0.000, 0.000, 0.000, 17:34:50.863
33, -4100.25, -4653.62, -4555.99, -3845.85, 0.000, 0.000, 0.000, 17:34:50.878
34, -4201.08, -4739.87, -4634.99, -3912.17, 0.000, 0.000, 0.000, 17:34:50.878
35, -4036.38, -4555.86, -4464.91, -3732.92, 0.000, 0.000, 0.000, 17:34:50.878
36, -3889.12, -4418.53, -4338.39, -3602.05, 0.000, 0.000, 0.000, 17:34:50.878
37, -4109.02, -4674.15, -4568.49, -3851.28, 0.000, 0.000, 0.000, 17:34:50.893
38, -4211.62, -4741.63, -4644.15, -3915.66, 0.000, 0.000, 0.000, 17:34:50.893
39, -4033.91, -4558.07, -4458.08, -3745.90, 0.000, 0.000, 0.000, 17:34:50.908
40, -3882.77, -4409.28, -4331.94, -3601.08, 0.000, 0.000, 0.000, 17:34:50.908
41, -4096.12, -4656.50, -4559.23, -3850.25, 0.000, 0.000, 0.000, 17:34:50.909
42, -4203.46, -4740.12, -4636.34, -3911.04, 0.000, 0.000, 0.000, 17:34:50.909
43, -4031.26, -4558.07, -4470.04, -3732.78, 0.000, 0.000, 0.000, 17:34:50.924
44, -3880.56, -4414.55, -4327.97, -3601.56, 0.000, 0.000, 0.000, 17:34:50.924
45, -4104.86, -4659.32, -4567.16, -3843.99, 0.000, 0.000, 0.000, 17:34:50.938
46, -4209.06, -4741.38, -4650.66, -3919.58, 0.000, 0.000, 0.000, 17:34:50.938
47, -4034.56, -4562.21, -4459.14, -3728.33, 0.000, 0.000, 0.000, 17:34:50.938
48, -3886.99, -4406.86, -4311.84, -3586.06, 0.000, 0.000, 0.000, 17:34:50.938
49, -4092.96, -4641.70, -4552.81, -3845.22, 0.000, 0.000, 0.000, 17:34:50.953
50, -4196.28, -4735.30, -4629.46, -3895.99, 0.000, 0.000, 0.000, 17:34:50.953
51, -4048.99, -4570.51, -4480.67, -3733.83, 0.000, 0.000, 0.000, 17:34:50.968
52, -3883.97, -4415.29, -4322.54, -3593.79, 0.000, 0.000, 0.000, 17:34:50.968
53, -4096.98, -4637.69, -4552.95, -3835.95, 0.000, 0.000, 0.000, 17:34:50.969
54, -4210.58, -4737.94, -4645.14, -3908.07, 0.000, 0.000, 0.000, 17:34:50.969
55, -4032.00, -4554.82, -4469.07, -3731.75, 0.000, 0.000, 0.000, 17:34:50.983
56, -3889.29, -4411.60, -4325.79, -3600.27, 0.000, 0.000, 0.000, 17:34:50.983
57, -4099.22, -4640.42, -4565.07, -3841.27, 0.000, 0.000, 0.000, 17:34:50.997
58, -4191.27, -4754.47, -4633.60, -3911.04, 0.000, 0.000, 0.000, 17:34:50.998
59, -4033.61, -4566.29, -4470.70, -3736.90, 0.000, 0.000, 0.000, 17:34:50.998
60, -3887.66, -4414.28, -4326.54, -3598.35, 0.000, 0.000, 0.000, 17:34:50.998
61, -4103.20, -4659.36, -4567.25, -3848.70, 0.000, 0.000, 0.000, 17:34:51.012
62, -4200.40, -4738.04, -4636.21, -3907.21, 0.000, 0.000, 0.000, 17:34:51.013
63, -4038.05, -4556.62, -4476.02, -3742.61, 0.000, 0.000, 0.000, 17:34:51.028
64, -3891.88, -4421.60, -4336.45, -3607.28, 0.000, 0.000, 0.000, 17:34:51.028
65, -4099.45, -4660.84, -4561.20, -3839.76, 0.000, 0.000, 0.000, 17:34:51.029
66, -4187.29, -4722.00, -4633.77, -3896.05, 0.000, 0.000, 0.000, 17:34:51.029
67, -4026.41, -4549.60, -4455.73, -3721.48, 0.000, 0.000, 0.000, 17:34:51.042
68, -3892.26, -4413.13, -4333.99, -3599.03, 0.000, 0.000, 0.000, 17:34:51.042
69, -4103.84, -4644.20, -4559.01, -3846.98, 0.000, 0.000, 0.000, 17:34:51.058
70, -4196.44, -4739.65, -4628.18, -3896.85, 0.000, 0.000, 0.000, 17:34:51.058
71, -4033.56, -4567.34, -4459.63, -3724.90, 0.000, 0.000, 0.000, 17:34:51.058
72, -3884.45, -4414.71, -4320.88, -3599.38, 0.000, 0.000, 0.000, 17:34:51.058
73, -4097.42, -4655.64, -4561.49, -3839.68, 0.000, 0.000, 0.000, 17:34:51.088
74, -4189.70, -4727.75, -4631.05, -3898.03, 0.000, 0.000, 0.000, 17:34:51.089
75, -4024.49, -4549.81, -4451.30, -3723.07, 0.000, 0.000, 0.000, 17:34:51.089
76, -3879.04, -4414.91, -4325.47, -3595.55, 0.000, 0.000, 0.000, 17:34:51.090
77, -4100.44, -4655.27, -4564.46, -3847.45, 0.000, 0.000, 0.000, 17:34:51.090
78, -4199.95, -4742.18, -4642.84, -3906.36, 0.000, 0.000, 0.000, 17:34:51.090
79, -4027.61, -4567.49, -4460.83, -3724.38, 0.000, 0.000, 0.000, 17:34:51.103
80, -3877.13, -4412.47, -4315.44, -3596.33, 0.000, 0.000, 0.000, 17:34:51.103
81, -4085.74, -4628.65, -4548.57, -3831.52, 0.000, 0.000, 0.000, 17:34:51.118
82, -4188.56, -4730.78, -4628.85, -3900.19, 0.000, 0.000, 0.000, 17:34:51.118
83, -4038.25, -4570.42, -4468.22, -3732.27, 0.000, 0.000, 0.000, 17:34:51.119
84, -3892.13, -4411.26, -4324.15, -3611.97, 0.000, 0.000, 0.000, 17:34:51.119
85, -4104.65, -4661.26, -4570.87, -3849.66, 0.000, 0.000, 0.000, 17:34:51.133
86, -4206.64, -4734.46, -4647.47, -3896.88, 0.000, 0.000, 0.000, 17:34:51.133
87, -4041.32, -4577.27, -4462.09, -3739.60, 0.000, 0.000, 0.000, 17:34:51.148
88, -3873.05, -4407.79, -4311.31, -3600.31, 0.000, 0.000, 0.000, 17:34:51.148
89, -4091.95, -4650.30, -4551.74, -3839.78, 0.000, 0.000, 0.000, 17:34:51.148
90, -4194.97, -4734.16, -4630.26, -3913.82, 0.000, 0.000, 0.000, 17:34:51.148
91, -4039.43, -4561.16, -4465.48, -3737.05, 0.000, 0.000, 0.000, 17:34:51.163
92, -3906.53, -4438.59, -4339.43, -3607.83, 0.000, 0.000, 0.000, 17:34:51.163
93, -4108.66, -4667.39, -4563.50, -3843.97, 0.000, 0.000, 0.000, 17:34:51.178
94, -4207.02, -4751.14, -4650.25, -3913.61, 0.000, 0.000, 0.000, 17:34:51.178
95, -4054.26, -4593.90, -4489.79, -3748.61, 0.000, 0.000, 0.000, 17:34:51.186
96, -3899.56, -4442.58, -4340.88, -3605.77, 0.000, 0.000, 0.000, 17:34:51.186
97, -4108.90, -4680.73, -4577.97, -3852.87, 0.000, 0.000, 0.000, 17:34:51.193
98, -4195.26, -4741.36, -4636.96, -3901.23, 0.000, 0.000, 0.000, 17:34:51.193
99, -4026.04, -4564.50, -4452.50, -3725.64, 0.000, 0.000, 0.000, 17:34:51.208
100, -3879.60, -4417.64, -4320.65, -3590.62, 0.000, 0.000, 0.000, 17:34:51.208
101, -4078.91, -4638.17, -4537.14, -3826.77, 0.000, 0.000, 0.000, 17:34:51.209
102, -4186.52, -4719.22, -4627.02, -3901.30, 0.000, 0.000, 0.000, 17:34:51.209
103, -4039.07, -4562.56, -4461.12, -3736.88, 0.000, 0.000, 0.000, 17:34:51.223
104, -3894.48, -4421.25, -4323.33, -3602.93, 0.000, 0.000, 0.000, 17:34:51.224
105, -4098.67, -4662.02, -4553.67, -3838.34, 0.000, 0.000, 0.000, 17:34:51.238
106, -4213.38, -4750.74, -4651.57, -3922.36, 0.000, 0.000, 0.000, 17:34:51.238
107, -4052.76, -4575.75, -4478.28, -3743.92, 0.000, 0.000, 0.000, 17:34:51.238
108, -3890.71, -4401.44, -4322.39, -3599.33, 0.000, 0.000, 0.000, 17:34:51.238
109, -4093.30, -4628.82, -4543.75, -3836.97, 0.000, 0.000, 0.000, 17:34:51.253
110, -4208.34, -4735.14, -4652.30, -3892.89, 0.000, 0.000, 0.000, 17:34:51.253
111, -4042.30, -4570.36, -4479.67, -3728.27, 0.000, 0.000, 0.000, 17:34:51.268
112, -3891.63, -4418.79, -4329.74, -3602.76, 0.000, 0.000, 0.000, 17:34:51.268
113, -4096.84, -4645.90, -4578.72, -3833.58, 0.000, 0.000, 0.000, 17:34:51.269
114, -4209.05, -4740.39, -4663.56, -3911.57, 0.000, 0.000, 0.000, 17:34:51.269
115, -4053.36, -4572.35, -4471.82, -3738.92, 0.000, 0.000, 0.000, 17:34:51.283
116, -3884.60, -4403.79, -4315.40, -3605.27, 0.000, 0.000, 0.000, 17:34:51.283
117, -4094.07, -4643.41, -4541.81, -3823.90, 0.000, 0.000, 0.000, 17:34:51.298
118, -4204.98, -4747.38, -4638.58, -3902.02, 0.000, 0.000, 0.000, 17:34:51.298
119, -4037.23, -4566.40, -4456.86, -3730.61, 0.000, 0.000, 0.000, 17:34:51.298
120, -3888.59, -4420.39, -4333.50, -3602.77, 0.000, 0.000, 0.000, 17:34:51.298
121, -4098.44, -4651.36, -4562.83, -3841.10, 0.000, 0.000, 0.000, 17:34:51.327
122, -4207.21, -4735.43, -4649.98, -3904.38, 0.000, 0.000, 0.000, 17:34:51.328
123, -4045.14, -4568.54, -4475.67, -3737.61, 0.000, 0.000, 0.000, 17:34:51.328
124, -3885.94, -4419.74, -4322.04, -3602.12, 0.000, 0.000, 0.000, 17:34:51.328
125, -4102.14, -4653.63, -4562.09, -3838.12, 0.000, 0.000, 0.000, 17:34:51.329
126, -4213.51, -4745.09, -4653.24, -3914.38, 0.000, 0.000, 0.000, 17:34:51.329
127, -4043.61, -4583.56, -4469.40, -3739.44, 0.000, 0.000, 0.000, 17:34:51.342
128, -3881.17, -4421.22, -4319.04, -3593.93, 0.000, 0.000, 0.000, 17:34:51.343
129, -4092.29, -4656.62, -4558.71, -3836.84, 0.000, 0.000, 0.000, 17:34:51.358
130, -4193.99, -4741.51, -4646.57, -3914.43, 0.000, 0.000, 0.000, 17:34:51.358
131, -4037.01, -4558.40, -4465.22, -3743.86, 0.000, 0.000, 0.000, 17:34:51.358
132, -3889.11, -4424.86, -4326.61, -3602.64, 0.000, 0.000, 0.000, 17:34:51.359
133, -4103.98, -4665.68, -4569.55, -3857.24, 0.000, 0.000, 0.000, 17:34:51.373
134, -4204.67, -4737.13, -4647.52, -3923.12, 0.000, 0.000, 0.000, 17:34:51.374
135, -4045.68, -4565.13, -4470.52, -3741.43, 0.000, 0.000, 0.000, 17:34:51.388
136, -3889.95, -4423.71, -4315.45, -3599.03, 0.000, 0.000, 0.000, 17:34:51.388
137, -4087.81, -4642.38, -4551.28, -3839.32, 0.000, 0.000, 0.000, 17:34:51.388
138, -4203.10, -4749.29, -4650.61, -3916.77, 0.000, 0.000, 0.000, 17:34:51.389
139, -4051.20, -4572.51, -4478.69, -3747.86, 0.000, 0.000, 0.000, 17:34:51.403
140, -3902.48, -4423.63, -4339.69, -3609.87, 0.000, 0.000, 0.000, 17:34:51.403
141, -4096.93, -4650.77, -4558.29, -3838.54, 0.000, 0.000, 0.000, 17:34:51.418
142, -4218.11, -4750.50, -4653.54, -3921.26, 0.000, 0.000, 0.000, 17:34:51.418
143, -4052.02, -4568.13, -4483.56, -3739.42, 0.000, 0.000, 0.000, 17:34:51.418
144, -3895.85, -4419.07, -4324.59, -3600.04, 0.000, 0.000, 0.000, 17:34:51.419
145, -4095.96, -4661.15, -4556.37, -3835.51, 0.000, 0.000, 0.000, 17:34:51.433
146, -4200.54, -4755.42, -4646.22, -3911.23, 0.000, 0.000, 0.000, 17:34:51.433
147, -4039.70, -4566.30, -4462.37, -3740.11, 0.000, 0.000, 0.000, 17:34:51.447
148, -3883.92, -4403.22, -4331.38, -3592.86, 0.000, 0.000, 0.000, 17:34:51.447
149, -4090.64, -4647.90, -4550.55, -3835.09, 0.000, 0.000, 0.000, 17:34:51.448
150, -4198.73, -4754.04, -4637.36, -3915.48, 0.000, 0.000, 0.000, 17:34:51.448
151, -4042.59, -4557.71, -4472.19, -3739.23, 0.000, 0.000, 0.000, 17:34:51.478
152, -3892.31, -4431.26, -4334.93, -3602.98, 0.000, 0.000, 0.000, 17:34:51.478
153, -4090.32, -4639.24, -4560.27, -3836.21, 0.000, 0.000, 0.000, 17:34:51.479
154, -4208.64, -4738.35, -4646.47, -3917.83, 0.000, 0.000, 0.000, 17:34:51.479
155, -4050.76, -4571.61, -4483.36, -3745.82, 0.000, 0.000, 0.000, 17:34:51.479
156, -3886.15, -4409.56, -4323.83, -3603.65, 0.000, 0.000, 0.000, 17:34:51.480
157, -4085.21, -4651.02, -4548.61, -3836.61, 0.000, 0.000, 0.000, 17:34:51.494
158, -4206.56, -4739.26, -4649.11, -3919.49, 0.000, 0.000, 0.000, 17:34:51.494
159, -4051.35, -4575.48, -4472.83, -3741.29, 0.000, 0.000, 0.000, 17:34:51.508
160, -3894.25, -4417.12, -4331.39, -3594.30, 0.000, 0.000, 0.000, 17:34:51.508
161, -4093.61, -4651.37, -4558.00, -3835.38, 0.000, 0.000, 0.000, 17:34:51.508
162, -4207.54, -4741.68, -4646.06, -3923.13, 0.000, 0.000, 0.000, 17:34:51.508
163, -4034.23, -4553.45, -4479.10, -3729.56, 0.000, 0.000, 0.000, 17:34:51.523
164, -3885.23, -4401.21, -4314.69, -3598.34, 0.000, 0.000, 0.000, 17:34:51.523
165, -4096.78, -4641.58, -4546.53, -3847.39, 0.000, 0.000, 0.000, 17:34:51.538
166, -4221.47, -4761.28, -4648.12, -3930.63, 0.000, 0.000, 0.000, 17:34:51.539
167, -4043.95, -4571.49, -4466.12, -3738.29, 0.000, 0.000, 0.000, 17:34:51.539
168, -3878.47, -4396.05, -4314.39, -3593.72, 0.000, 0.000, 0.000, 17:34:51.539
169, -4084.22, -4650.12, -4556.24, -3841.90, 0.000, 0.000, 0.000, 17:34:51.553
170, -4190.80, -4734.80, -4630.83, -3912.12, 0.000, 0.000, 0.000, 17:34:51.553
171, -4033.12, -4546.67, -4454.39, -3728.37, 0.000, 0.000, 0.000, 17:34:51.568
172, -3888.15, -4409.09, -4321.77, -3588.17, 0.000, 0.000, 0.000, 17:34:51.568
173, -4087.07, -4637.89, -4543.04, -3829.25, 0.000, 0.000, 0.000, 17:34:51.568
174, -4204.10, -4745.38, -4633.78, -3920.72, 0.000, 0.000, 0.000, 17:34:51.568
175, -4049.95, -4566.28, -4476.29, -3742.21, 0.000, 0.000, 0.000, 17:34:51.583
176, -3890.13, -4411.75, -4329.64, -3596.46, 0.000, 0.000, 0.000, 17:34:51.583
177, -4083.41, -4633.68, -4555.74, -3825.96, 0.000, 0.000, 0.000, 17:34:51.598
178, -4209.88, -4748.47, -4658.27, -3915.95, 0.000, 0.000, 0.000, 17:34:51.598
179, -4040.38, -4567.19, -4465.88, -3742.89, 0.000, 0.000, 0.000, 17:34:51.599
180, -3886.92, -4418.36, -4322.71, -3596.39, 0.000, 0.000, 0.000, 17:34:51.599
181, -4093.17, -4646.54, -4559.06, -3841.82, 0.000, 0.000, 0.000, 17:34:51.613
182, -4199.68, -4732.02, -4651.75, -3911.23, 0.000, 0.000, 0.000, 17:34:51.613
183, -4035.94, -4551.32, -4458.44, -3730.06, 0.000, 0.000, 0.000, 17:34:51.628
184, -3876.98, -4414.27, -4311.06, -3597.43, 0.000, 0.000, 0.000, 17:34:51.628
185, -4092.78, -4649.22, -4539.89, -3837.00, 0.000, 0.000, 0.000, 17:34:51.629
186, -4204.03, -4746.25, -4642.80, -3919.23, 0.000, 0.000, 0.000, 17:34:51.629
187, -4040.17, -4572.93, -4463.16, -3731.90, 0.000, 0.000, 0.000, 17:34:51.643
188, -3894.57, -4416.94, -4334.19, -3603.18, 0.000, 0.000, 0.000, 17:34:51.643
189, -4090.32, -4632.12, -4546.09, -3828.00, 0.000, 0.000, 0.000, 17:34:51.658
190, -4199.57, -4737.92, -4635.74, -3911.14, 0.000, 0.000, 0.000, 17:34:51.658
191, -4037.54, -4565.35, -4459.19, -3740.33, 0.000, 0.000, 0.000, 17:34:51.658
192, -3892.14, -4423.39, -4321.31, -3602.86, 0.000, 0.000, 0.000, 17:34:51.658
193, -4099.10, -4662.96, -4557.62, -3833.42, 0.000, 0.000, 0.000, 17:34:51.673
194, -4210.10, -4745.20, -4648.38, -3911.21, 0.000, 0.000, 0.000, 17:34:51.673
195, -4040.66, -4564.82, -4467.48, -3734.89, 0.000, 0.000, 0.000, 17:34:51.688
196, -3895.10, -4431.15, -4342.07, -3602.77, 0.000, 0.000, 0.000, 17:34:51.688
197, -4102.20, -4660.90, -4567.31, -3843.39, 0.000, 0.000, 0.000, 17:34:51.689
198, -4213.47, -4745.96, -4648.41, -3916.26, 0.000, 0.000, 0.000, 17:34:51.689
199, -4037.79, -4561.38, -4470.29, -3741.15, 0.000, 0.000, 0.000, 17:34:51.703
200, -3889.09, -4415.19, -4327.83, -3594.34, 0.000, 0.000, 0.000, 17:34:51.704
0, -4082.72, -4632.02, -4553.49, -3826.46, 0.000, 0.000, 0.000, 17:34:51.704
1, -4221.13, -4745.18, -4657.23, -3930.74, 0.000, 0.000, 0.000, 17:34:51.718
2, -4058.50, -4583.51, -4487.01, -3753.52, 0.000, 0.000, 0.000, 17:34:51.718
3, -3889.15, -4416.17, -4318.81, -3602.03, 0.000, 0.000, 0.000, 17:34:51.733
4, -4089.00, -4648.79, -4551.56, -3830.53, 0.000, 0.000, 0.000, 17:34:51.733
5, -4207.09, -4753.47, -4640.18, -3920.34, 0.000, 0.000, 0.000, 17:34:51.734
6, -4043.81, -4554.73, -4464.29, -3749.08, 0.000, 0.000, 0.000, 17:34:51.734
7, -3882.31, -4409.91, -4310.17, -3594.73, 0.000, 0.000, 0.000, 17:34:51.748
8, -4076.51, -4650.22, -4542.28, -3823.35, 0.000, 0.000, 0.000, 17:34:51.748
9, -4207.39, -4747.28, -4656.52, -3917.78, 0.000, 0.000, 0.000, 17:34:51.762
10, -4056.72, -4581.69, -4477.35, -3755.56, 0.000, 0.000, 0.000, 17:34:51.763
11, -3897.93, -4421.16, -4324.86, -3603.68, 0.000, 0.000, 0.000, 17:34:51.763
12, -4091.15, -4647.91, -4549.39, -3834.21, 0.000, 0.000, 0.000, 17:34:51.763
13, -4217.94, -4748.46, -4656.53, -3920.34, 0.000, 0.000, 0.000, 17:34:51.778
14, -4045.96, -4569.56, -4473.69, -3741.54, 0.000, 0.000, 0.000, 17:34:51.780
15, -3885.38, -4403.93, -4311.36, -3591.07, 0.000, 0.000, 0.000, 17:34:51.793
16, -4089.11, -4648.06, -4546.29, -3829.67, 0.000, 0.000, 0.000, 17:34:51.793
17, -4213.90, -4757.75, -4646.16, -3926.26, 0.000, 0.000, 0.000, 17:34:51.793
18, -4054.83, -4589.50, -4483.33, -3757.95, 0.000, 0.000, 0.000, 17:34:51.793
19, -3897.66, -4415.76, -4325.85, -3608.98, 0.000, 0.000, 0.000, 17:34:51.808
20, -4080.18, -4638.35, -4548.92, -3832.44, 0.000, 0.000, 0.000, 17:34:51.808
21, -4203.78, -4746.54, -4640.68, -3921.22, 0.000, 0.000, 0.000, 17:34:51.823
22, -4034.97, -4559.06, -4467.45, -3736.46, 0.000, 0.000, 0.000, 17:34:51.823
23, -3882.80, -4411.05, -4326.03, -3592.34, 0.000, 0.000, 0.000, 17:34:51.823
24, -4090.46, -4656.28, -4551.49, -3834.32, 0.000, 0.000, 0.000, 17:34:51.824
25, -4210.16, -4751.20, -4657.68, -3916.74, 0.000, 0.000, 0.000, 17:34:51.854
26, -4049.11, -4566.25, -4482.05, -3735.96, 0.000, 0.000, 0.000, 17:34:51.854
27, -3889.38, -4423.08, -4335.51, -3596.36, 0.000, 0.000, 0.000, 17:34:51.854
28, -4085.41, -4637.39, -4562.40, -3831.53, 0.000, 0.000, 0.000, 17:34:51.854
29, -4207.11, -4742.39, -4648.99, -3927.83, 0.000, 0.000, 0.000, 17:34:51.854
30, -4035.54, -4565.98, -4469.75, -3731.06, 0.000, 0.000, 0.000, 17:34:51.854
31, -3868.57, -4399.50, -4310.03, -3577.54, 0.000, 0.000, 0.000, 17:34:51.868
32, -4076.23, -4629.61, -4538.43, -3813.86, 0.000, 0.000, 0.000, 17:34:51.869
33, -4216.48, -4765.07, -4660.05, -3926.08, 0.000, 0.000, 0.000, 17:34:51.883
34, -4058.10, -4576.39, -4484.63, -3745.65, 0.000, 0.000, 0.000, 17:34:51.883
35, -3880.16, -4409.47, -4322.60, -3592.26, 0.000, 0.000, 0.000, 17:34:51.883
36, -4090.08, -4639.75, -4561.37, -3826.32, 0.000, 0.000, 0.000, 17:34:51.883
37, -4228.09, -4772.89, -4670.47, -3931.05, 0.000, 0.000, 0.000, 17:34:51.898
38, -4047.50, -4589.21, -4488.90, -3738.39, 0.000, 0.000, 0.000, 17:34:51.898
39, -3883.21, -4402.86, -4316.12, -3597.66, 0.000, 0.000, 0.000, 17:34:51.913
40, -4069.33, -4629.46, -4539.71, -3821.39, 0.000, 0.000, 0.000, 17:34:51.913
41, -4184.77, -4730.91, -4628.36, -3907.85, 0.000, 0.000, 0.000, 17:34:51.913
42, -4037.42, -4556.38, -4471.16, -3735.11, 0.000, 0.000, 0.000, 17:34:51.913
43, -3877.10, -4397.07, -4310.41, -3587.87, 0.000, 0.000, 0.000, 17:34:51.928
44, -4069.29, -4625.08, -4539.64, -3821.92, 0.000, 0.000, 0.000, 17:34:51.928
45, -4209.76, -4752.58, -4647.06, -3925.87, 0.000, 0.000, 0.000, 17:34:51.943
46, -4046.97, -4567.38, -4476.24, -3739.34, 0.000, 0.000, 0.000, 17:34:51.943
47, -3876.66, -4397.62, -4319.45, -3583.74, 0.000, 0.000, 0.000, 17:34:51.943
48, -4073.91, -4631.80, -4538.80, -3826.84, 0.000, 0.000, 0.000, 17:34:51.943
49, -4216.38, -4746.75, -4659.27, -3926.30, 0.000, 0.000, 0.000, 17:34:51.974
50, -4040.61, -4562.76, -4472.19, -3732.30, 0.000, 0.000, 0.000, 17:34:51.974
51, -3875.18, -4404.73, -4316.91, -3594.18, 0.000, 0.000, 0.000, 17:34:51.974
52, -4060.91, -4625.58, -4519.41, -3814.43, 0.000, 0.000, 0.000, 17:34:51.974
53, -4206.27, -4751.86, -4642.53, -3915.80, 0.000, 0.000, 0.000, 17:34:51.981
54, -4044.94, -4568.19, -4477.64, -3743.44, 0.000, 0.000, 0.000, 17:34:51.981
55, -3881.72, -4404.95, -4315.13, -3586.27, 0.000, 0.000, 0.000, 17:34:51.988
56, -4076.13, -4630.17, -4535.41, -3826.39, 0.000, 0.000, 0.000, 17:34:51.988
57, -4222.55, -4765.96, -4668.50, -3925.79, 0.000, 0.000, 0.000, 17:34:52.003
58, -4051.41, -4572.84, -4476.78, -3743.68, 0.000, 0.000, 0.000, 17:34:52.003
59, -3898.02, -4419.36, -4331.45, -3604.31, 0.000, 0.000, 0.000, 17:34:52.003
60, -4075.18, -4631.56, -4545.58, -3834.45, 0.000, 0.000, 0.000, 17:34:52.003
61, -4207.66, -4759.80, -4638.86, -3928.60, 0.000, 0.000, 0.000, 17:34:52.033
62, -4047.03, -4568.88, -4472.90, -3736.77, 0.000, 0.000, 0.000, 17:34:52.033
63, -3875.75, -4390.75, -4314.55, -3576.76, 0.000, 0.000, 0.000, 17:34:52.034
64, -4078.18, -4621.20, -4532.79, -3822.59, 0.000, 0.000, 0.000, 17:34:52.034
65, -4216.01, -4758.27, -4657.63, -3926.53, 0.000, 0.000, 0.000, 17:34:52.034
66, -4047.24, -4572.27, -4477.69, -3745.03, 0.000, 0.000, 0.000, 17:34:52.034
67, -3883.81, -4407.49, -4312.40, -3595.57, 0.000, 0.000, 0.000, 17:34:52.048
68, -4078.10, -4630.24, -4541.78, -3823.91, 0.000, 0.000, 0.000, 17:34:52.048
69, -4217.91, -4762.92, -4666.92, -3931.32, 0.000, 0.000, 0.000, 17:34:52.063
70, -4059.94, -4577.53, -4484.61, -3754.32, 0.000, 0.000, 0.000, 17:34:52.063
71, -3889.10, -4412.70, -4311.92, -3598.00, 0.000, 0.000, 0.000, 17:34:52.063
72, -4084.92, -4630.56, -4537.55, -3833.79, 0.000, 0.000, 0.000, 17:34:52.063
73, -4220.05, -4761.32, -4651.19, -3931.59, 0.000, 0.000, 0.000, 17:34:52.077
74, -4058.20, -4577.46, -4478.17, -3748.65, 0.000, 0.000, 0.000, 17:34:52.078
75, -3890.66, -4415.81, -4331.04, -3605.35, 0.000, 0.000, 0.000, 17:34:52.093
76, -4086.90, -4638.51, -4545.79, -3817.04, 0.000, 0.000, 0.000, 17:34:52.093
77, -4212.36, -4760.08, -4656.60, -3922.69, 0.000, 0.000, 0.000, 17:34:52.094
78, -4046.47, -4577.51, -4482.52, -3743.42, 0.000, 0.000, 0.000, 17:34:52.094
79, -3888.08, -4410.40, -4318.29, -3593.68, 0.000, 0.000, 0.000, 17:34:52.108
80, -4085.30, -4645.06, -4538.07, -3828.41, 0.000, 0.000, 0.000, 17:34:52.108
81, -4223.15, -4753.97, -4656.80, -3930.34, 0.000, 0.000, 0.000, 17:34:52.123
82, -4065.21, -4594.27, -4496.21, -3760.84, 0.000, 0.000, 0.000, 17:34:52.123
83, -3892.35, -4406.73, -4315.87, -3599.78, 0.000, 0.000, 0.000, 17:34:52.123
84, -4072.50, -4623.19, -4531.98, -3813.27, 0.000, 0.000, 0.000, 17:34:52.123
85, -4205.68, -4750.43, -4643.49, -3919.09, 0.000, 0.000, 0.000, 17:34:52.138
86, -4039.85, -4570.62, -4472.30, -3742.11, 0.000, 0.000, 0.000, 17:34:52.138
87, -3883.47, -4401.95, -4316.99, -3592.44, 0.000, 0.000, 0.000, 17:34:52.153
88, -4080.13, -4631.06, -4541.57, -3824.52, 0.000, 0.000, 0.000, 17:34:52.153
89, -4217.63, -4760.96, -4661.62, -3927.58, 0.000, 0.000, 0.000, 17:34:52.153
90, -4040.45, -4571.92, -4460.85, -3738.54, 0.000, 0.000, 0.000, 17:34:52.154
91, -3875.47, -4388.46, -4302.52, -3581.15, 0.000, 0.000, 0.000, 17:34:52.198
92, -4066.48, -4618.32, -4527.50, -3826.61, 0.000, 0.000, 0.000, 17:34:52.198
93, -4203.09, -4753.78, -4643.70, -3929.94, 0.000, 0.000, 0.000, 17:34:52.198
94, -4050.03, -4573.12, -4468.30, -3751.30, 0.000, 0.000, 0.000, 17:34:52.198
95, -3886.59, -4411.91, -4305.83, -3591.32, 0.000, 0.000, 0.000, 17:34:52.199
96, -4082.26, -4633.90, -4535.45, -3817.65, 0.000, 0.000, 0.000, 17:34:52.199
97, -4235.69, -4774.45, -4679.77, -3942.43, 0.000, 0.000, 0.000, 17:34:52.200
98, -4050.35, -4570.12, -4471.66, -3757.43, 0.000, 0.000, 0.000, 17:34:52.200
99, -3876.73, -4408.59, -4323.61, -3592.08, 0.000, 0.000, 0.000, 17:34:52.201
100, -4069.70, -4617.71, -4522.66, -3823.67, 0.000, 0.000, 0.000, 17:34:52.201
101, -4227.58, -4758.10, -4663.10, -3945.47, 0.000, 0.000, 0.000, 17:34:52.228
102, -4050.91, -4572.71, -4484.40, -3746.63, 0.000, 0.000, 0.000, 17:34:52.228
103, -3892.27, -4414.17, -4325.79, -3599.21, 0.000, 0.000, 0.000, 17:34:52.229
104, -4079.25, -4631.35, -4531.49, -3825.37, 0.000, 0.000, 0.000, 17:34:52.229
105, -4211.44, -4739.18, -4658.40, -3923.41, 0.000, 0.000, 0.000, 17:34:52.258
106, -4047.37, -4577.32, -4483.49, -3735.29, 0.000, 0.000, 0.000, 17:34:52.258
107, -3874.24, -4403.71, -4308.97, -3585.16, 0.000, 0.000, 0.000, 17:34:52.258
108, -4071.17, -4630.86, -4543.10, -3825.68, 0.000, 0.000, 0.000, 17:34:52.258
109, -4238.70, -4776.04, -4685.58, -3943.20, 0.000, 0.000, 0.000, 17:34:52.259
110, -4052.74, -4590.37, -4484.97, -3753.13, 0.000, 0.000, 0.000, 17:34:52.259
111, -3873.30, -4403.72, -4310.01, -3587.20, 0.000, 0.000, 0.000, 17:34:52.260
112, -4068.84, -4625.88, -4525.11, -3817.06, 0.000, 0.000, 0.000, 17:34:52.260
113, -4209.11, -4751.51, -4659.75, -3926.68, 0.000, 0.000, 0.000, 17:34:52.273
114, -4051.36, -4574.03, -4480.72, -3746.54, 0.000, 0.000, 0.000, 17:34:52.273
115, -3879.31, -4395.45, -4309.15, -3582.31, 0.000, 0.000, 0.000, 17:34:52.288
116, -4071.23, -4614.42, -4531.50, -3816.70, 0.000, 0.000, 0.000, 17:34:52.288
117, -4221.45, -4766.19, -4656.94, -3938.01, 0.000, 0.000, 0.000, 17:34:52.303
118, -4049.81, -4579.10, -4487.61, -3751.94, 0.000, 0.000, 0.000, 17:34:52.303
119, -3884.39, -4418.15, -4329.56, -3592.20, 0.000, 0.000, 0.000, 17:34:52.303
120, -4062.84, -4614.19, -4529.50, -3811.74, 0.000, 0.000, 0.000, 17:34:52.303
121, -4211.45, -4749.53, -4656.24, -3931.75, 0.000, 0.000, 0.000, 17:34:52.318
122, -4044.38, -4580.67, -4470.58, -3747.62, 0.000, 0.000, 0.000, 17:34:52.318
123, -3864.37, -4392.47, -4304.79, -3580.88, 0.000, 0.000, 0.000, 17:34:52.333
124, -4054.96, -4617.59, -4528.03, -3813.49, 0.000, 0.000, 0.000, 17:34:52.333
125, -4212.46, -4759.55, -4664.69, -3934.81, 0.000, 0.000, 0.000, 17:34:52.333
126, -4047.56, -4586.57, -4479.92, -3747.24, 0.000, 0.000, 0.000, 17:34:52.333
127, -3881.83, -4427.09, -4313.65, -3585.42, 0.000, 0.000, 0.000, 17:34:52.347
128, -4065.82, -4628.68, -4528.25, -3801.14, 0.000, 0.000, 0.000, 17:34:52.347
129, -4210.52, -4753.70, -4657.81, -3926.83, 0.000, 0.000, 0.000, 17:34:52.363
130, -4055.72, -4584.61, -4484.44, -3754.95, 0.000, 0.000, 0.000, 17:34:52.363
131, -3875.50, -4393.31, -4315.29, -3590.27, 0.000, 0.000, 0.000, 17:34:52.364
132, -4064.67, -4621.44, -4531.26, -3807.21, 0.000, 0.000, 0.000, 17:34:52.364
133, -4216.71, -4769.11, -4665.47, -3926.88, 0.000, 0.000, 0.000, 17:34:52.378
134, -4046.40, -4585.00, -4488.16, -3750.73, 0.000, 0.000, 0.000, 17:34:52.378
135, -3889.24, -4407.98, -4327.00, -3585.06, 0.000, 0.000, 0.000, 17:34:52.392
136, -4070.32, -4629.28, -4527.02, -3812.50, 0.000, 0.000, 0.000, 17:34:52.392
137, -4221.77, -4764.50, -4666.02, -3935.76, 0.000, 0.000, 0.000, 17:34:52.393
138, -4058.23, -4587.85, -4493.39, -3767.38, 0.000, 0.000, 0.000, 17:34:52.393
139, -3878.71, -4392.69, -4310.32, -3582.81, 0.000, 0.000, 0.000, 17:34:52.408
140, -4054.33, -4598.85, -4520.19, -3805.24, 0.000, 0.000, 0.000, 17:34:52.408
141, -4209.12, -4746.63, -4649.44, -3916.95, 0.000, 0.000, 0.000, 17:34:52.438
142, -4053.26, -4583.03, -4490.46, -3759.13, 0.000, 0.000, 0.000, 17:34:52.438
143, -3889.33, -4424.54, -4316.61, -3599.28, 0.000, 0.000, 0.000, 17:34:52.439
144, -4077.19, -4631.25, -4521.11, -3819.27, 0.000, 0.000, 0.000, 17:34:52.439
145, -4219.84, -4758.87, -4651.53, -3937.39, 0.000, 0.000, 0.000, 17:34:52.440
146, -4035.82, -4559.47, -4461.80, -3747.19, 0.000, 0.000, 0.000, 17:34:52.440
147, -3884.23, -4417.52, -4318.40, -3609.22, 0.000, 0.000, 0.000, 17:34:52.440
148, -4067.21, -4634.47, -4531.88, -3808.18, 0.000, 0.000, 0.000, 17:34:52.440
149, -4210.13, -4743.41, -4658.84, -3931.63, 0.000, 0.000, 0.000, 17:34:52.459
150, -4038.71, -4563.44, -4470.17, -3741.45, 0.000, 0.000, 0.000, 17:34:52.459
151, -3871.70, -4397.76, -4298.03, -3584.51, 0.000, 0.000, 0.000, 17:34:52.468
152, -4052.32, -4597.17, -4512.31, -3803.22, 0.000, 0.000, 0.000, 17:34:52.468
153, -4209.53, -4744.68, -4647.26, -3913.74, 0.000, 0.000, 0.000, 17:34:52.483
154, -4049.10, -4586.96, -4474.07, -3744.15, 0.000, 0.000, 0.000, 17:34:52.483
155, -3873.45, -4406.91, -4306.75, -3594.84, 0.000, 0.000, 0.000, 17:34:52.483
156, -4066.22, -4611.22, -4531.52, -3805.02, 0.000, 0.000, 0.000, 17:34:52.483
157, -4209.27, -4757.52, -4664.88, -3922.38, 0.000, 0.000, 0.000, 17:34:52.498
158, -4048.21, -4588.31, -4486.63, -3745.72, 0.000, 0.000, 0.000, 17:34:52.498
159, -3882.07, -4408.12, -4324.86, -3591.44, 0.000, 0.000, 0.000, 17:34:52.513
160, -4072.46, -4622.20, -4531.39, -3806.38, 0.000, 0.000, 0.000, 17:34:52.513
161, -4233.03, -4783.00, -4668.97, -3948.47, 0.000, 0.000, 0.000, 17:34:52.513
162, -4054.61, -4584.57, -4490.41, -3749.94, 0.000, 0.000, 0.000, 17:34:52.513
163, -3864.99, -4380.44, -4306.67, -3587.27, 0.000, 0.000, 0.000, 17:34:52.528
164, -4066.16, -4610.77, -4534.71, -3817.07, 0.000, 0.000, 0.000, 17:34:52.528
165, -4212.20, -4750.95, -4649.44, -3933.67, 0.000, 0.000, 0.000, 17:34:52.558
166, -4041.02, -4573.51, -4464.61, -3738.99, 0.000, 0.000, 0.000, 17:34:52.558
167, -3891.66, -4405.18, -4320.57, -3585.46, 0.000, 0.000, 0.000, 17:34:52.558
168, -4068.44, -4618.58, -4521.03, -3807.18, 0.000, 0.000, 0.000, 17:34:52.558
169, -4222.32, -4767.58, -4662.54, -3939.27, 0.000, 0.000, 0.000, 17:34:52.559
170, -4058.70, -4578.31, -4486.20, -3749.17, 0.000, 0.000, 0.000, 17:34:52.559
171, -3879.67, -4404.74, -4313.32, -3584.57, 0.000, 0.000, 0.000, 17:34:52.559
172, -4065.49, -4622.18, -4520.88, -3806.50, 0.000, 0.000, 0.000, 17:34:52.560
173, -4234.26, -4777.87, -4666.77, -3936.33, 0.000, 0.000, 0.000, 17:34:52.573
174, -4067.94, -4590.46, -4492.79, -3751.52, 0.000, 0.000, 0.000, 17:34:52.573
175, -3895.05, -4424.34, -4333.98, -3599.25, 0.000, 0.000, 0.000, 17:34:52.588
176, -4086.62, -4645.20, -4552.14, -3827.45, 0.000, 0.000, 0.000, 17:34:52.588
177, -4226.60, -4779.36, -4671.41, -3941.41, 0.000, 0.000, 0.000, 17:34:52.603
178, -4050.40, -4569.98, -4482.37, -3755.35, 0.000, 0.000, 0.000, 17:34:52.603
179, -3868.50, -4396.20, -4295.47, -3579.37, 0.000, 0.000, 0.000, 17:34:52.603
180, -4047.71, -4611.14, -4498.50, -3791.07, 0.000, 0.000, 0.000, 17:34:52.603
181, -4214.10, -4765.25, -4662.06, -3930.70, 0.000, 0.000, 0.000, 17:34:52.618
182, -4051.28, -4587.35, -4473.99, -3749.87, 0.000, 0.000, 0.000, 17:34:52.619
183, -3872.11, -4395.33, -4297.75, -3585.29, 0.000, 0.000, 0.000, 17:34:52.633
184, -4045.89, -4603.79, -4503.83, -3802.13, 0.000, 0.000, 0.000, 17:34:52.633
185, -4217.97, -4751.90, -4662.43, -3927.81, 0.000, 0.000, 0.000, 17:34:52.633
186, -4048.99, -4561.95, -4474.38, -3751.53, 0.000, 0.000, 0.000, 17:34:52.633
187, -3875.92, -4400.92, -4317.85, -3591.16, 0.000, 0.000, 0.000, 17:34:52.647
188, -4069.62, -4624.05, -4538.72, -3814.80, 0.000, 0.000, 0.000, 17:34:52.649
189, -4234.83, -4770.51, -4678.54, -3938.11, 0.000, 0.000, 0.000, 17:34:52.663
190, -4054.69, -4587.65, -4489.92, -3748.04, 0.000, 0.000, 0.000, 17:34:52.663
191, -3876.38, -4406.74, -4322.66, -3580.76, 0.000, 0.000, 0.000, 17:34:52.664
192, -4054.80, -4621.74, -4522.07, -3812.39, 0.000, 0.000, 0.000, 17:34:52.664
193, -4220.82, -4771.81, -4666.33, -3936.96, 0.000, 0.000, 0.000, 17:34:52.678
194, -4049.65, -4573.21, -4483.33, -3750.10, 0.000, 0.000, 0.000, 17:34:52.678
195, -3876.68, -4406.95, -4315.73, -3593.79, 0.000, 0.000, 0.000, 17:34:52.693
196, -4056.99, -4616.98, -4514.80, -3802.21, 0.000, 0.000, 0.000, 17:34:52.693
197, -4214.38, -4753.91, -4658.07, -3932.47, 0.000, 0.000, 0.000, 17:34:52.693
198, -4046.99, -4561.70, -4476.69, -3745.71, 0.000, 0.000, 0.000, 17:34:52.693
199, -3869.01, -4398.50, -4305.94, -3598.02, 0.000, 0.000, 0.000, 17:34:52.708
200, -4065.53, -4639.74, -4532.21, -3812.89, 0.000, 0.000, 0.000, 17:34:52.708
0, -4208.45, -4761.23, -4655.22, -3926.43, 0.000, 0.000, 0.000, 17:34:52.709
1, -4056.65, -4596.93, -4488.64, -3755.84, 0.000, 0.000, 0.000, 17:34:52.723
2, -3890.48, -4426.28, -4327.51, -3589.78, 0.000, 0.000, 0.000, 17:34:52.723
3, -4052.06, -4608.70, -4520.95, -3801.34, 0.000, 0.000, 0.000, 17:34:52.754
4, -4220.67, -4775.90, -4674.62, -3926.09, 0.000, 0.000, 0.000, 17:34:52.754
5, -4053.12, -4585.10, -4490.72, -3750.69, 0.000, 0.000, 0.000, 17:34:52.754
6, -3873.80, -4399.27, -4322.92, -3587.76, 0.000, 0.000, 0.000, 17:34:52.754
7, -4059.90, -4623.48, -4523.89, -3809.27, 0.000, 0.000, 0.000, 17:34:52.754
8, -4225.15, -4759.50, -4659.45, -3936.61, 0.000, 0.000, 0.000, 17:34:52.754
9, -4065.49, -4600.18, -4500.85, -3764.73, 0.000, 0.000, 0.000, 17:34:52.755
10, -3880.20, -4413.89, -4323.42, -3589.04, 0.000, 0.000, 0.000, 17:34:52.755
11, -4055.39, -4614.71, -4521.26, -3806.72, 0.000, 0.000, 0.000, 17:34:52.768
12, -4231.24, -4762.71, -4678.65, -3945.91, 0.000, 0.000, 0.000, 17:34:52.768
13, -4071.88, -4606.44, -4515.21, -3770.60, 0.000, 0.000, 0.000, 17:34:52.783
14, -3898.89, -4424.35, -4336.89, -3594.97, 0.000, 0.000, 0.000, 17:34:52.783
15, -4058.50, -4607.66, -4523.97, -3801.64, 0.000, 0.000, 0.000, 17:34:52.798
16, -4224.53, -4757.75, -4659.57, -3940.26, 0.000, 0.000, 0.000, 17:34:52.798
17, -4051.49, -4583.08, -4482.43, -3756.49, 0.000, 0.000, 0.000, 17:34:52.799
18, -3884.30, -4416.47, -4307.21, -3594.85, 0.000, 0.000, 0.000, 17:34:52.799
19, -4061.86, -4631.94, -4519.58, -3804.89, 0.000, 0.000, 0.000, 17:34:52.813
20, -4227.91, -4760.45, -4668.65, -3936.14, 0.000, 0.000, 0.000, 17:34:52.813
21, -4064.73, -4590.47, -4492.98, -3752.14, 0.000, 0.000, 0.000, 17:34:52.828
22, -3896.68, -4407.22, -4327.32, -3595.91, 0.000, 0.000, 0.000, 17:34:52.828
23, -4069.47, -4624.95, -4517.16, -3808.54, 0.000, 0.000, 0.000, 17:34:52.829
24, -4231.03, -4765.55, -4659.60, -3943.53, 0.000, 0.000, 0.000, 17:34:52.829
25, -4061.24, -4593.95, -4484.29, -3756.21, 0.000, 0.000, 0.000, 17:34:52.849
26, -3883.65, -4406.59, -4319.84, -3592.72, 0.000, 0.000, 0.000, 17:34:52.849
27, -4054.95, -4600.02, -4509.81, -3806.01, 0.000, 0.000, 0.000, 17:34:52.873
28, -4221.62, -4754.93, -4663.46, -3942.40, 0.000, 0.000, 0.000, 17:34:52.873
29, -4059.87, -4574.28, -4485.99, -3759.50, 0.000, 0.000, 0.000, 17:34:52.874
30, -3874.00, -4383.11, -4300.43, -3591.21, 0.000, 0.000, 0.000, 17:34:52.874
31, -4058.00, -4614.03, -4521.24, -3815.63, 0.000, 0.000, 0.000, 17:34:52.875
32, -4239.46, -4781.32, -4678.31, -3952.24, 0.000, 0.000, 0.000, 17:34:52.875
33, -4067.81, -4594.40, -4502.05, -3759.00, 0.000, 0.000, 0.000, 17:34:52.875
34, -3882.55, -4406.44, -4315.66, -3588.26, 0.000, 0.000, 0.000, 17:34:52.875
35, -4055.92, -4614.09, -4517.50, -3796.90, 0.000, 0.000, 0.000, 17:34:52.888
36, -4224.62, -4776.98, -4679.32, -3937.48, 0.000, 0.000, 0.000, 17:34:52.888
37, -4062.32, -4576.68, -4496.49, -3757.60, 0.000, 0.000, 0.000, 17:34:52.903
38, -3893.85, -4419.24, -4337.37, -3600.96, 0.000, 0.000, 0.000, 17:34:52.903
39, -4059.60, -4613.70, -4513.16, -3810.43, 0.000, 0.000, 0.000, 17:34:52.918
40, -4222.71, -4763.74, -4664.78, -3939.16, 0.000, 0.000, 0.000, 17:34:52.918
41, -4069.83, -4576.96, -4499.63, -3774.25, 0.000, 0.000, 0.000, 17:34:52.918
42, -3890.91, -4428.06, -4332.46, -3598.64, 0.000, 0.000, 0.000, 17:34:52.918
43, -4066.05, -4614.16, -4529.03, -3805.59, 0.000, 0.000, 0.000, 17:34:52.933
44, -4228.85, -4775.66, -4670.24, -3935.67, 0.000, 0.000, 0.000, 17:34:52.933
45, -4071.77, -4595.07, -4501.62, -3765.73, 0.000, 0.000, 0.000, 17:34:52.963
46, -3888.41, -4405.62, -4319.72, -3600.83, 0.000, 0.000, 0.000, 17:34:52.963
47, -4056.20, -4607.59, -4516.28, -3807.12, 0.000, 0.000, 0.000, 17:34:52.963
48, -4214.26, -4756.97, -4660.12, -3941.93, 0.000, 0.000, 0.000, 17:34:52.963
49, -4062.61, -4580.34, -4493.49, -3758.64, 0.000, 0.000, 0.000, 17:34:52.964
50, -3900.30, -4418.40, -4336.35, -3599.21, 0.000, 0.000, 0.000, 17:34:52.964
51, -4064.86, -4617.48, -4525.87, -3807.00, 0.000, 0.000, 0.000, 17:34:52.965
52, -4230.23, -4768.34, -4665.81, -3942.89, 0.000, 0.000, 0.000, 17:34:52.965
53, -4070.71, -4597.76, -4502.34, -3767.80, 0.000, 0.000, 0.000, 17:34:52.993
54, -3885.94, -4419.03, -4324.14, -3591.94, 0.000, 0.000, 0.000, 17:34:52.993
55, -4053.47, -4609.19, -4515.39, -3803.57, 0.000, 0.000, 0.000, 17:34:52.994
56, -4229.29, -4781.42, -4677.89, -3942.92, 0.000, 0.000, 0.000, 17:34:52.994
57, -4071.86, -4595.13, -4502.34, -3769.05, 0.000, 0.000, 0.000, 17:34:53.023
58, -3885.94, -4394.45, -4321.03, -3591.36, 0.000, 0.000, 0.000, 17:34:53.024
59, -4057.68, -4602.38, -4518.07, -3796.78, 0.000, 0.000, 0.000, 17:34:53.024
60, -4216.82, -4760.97, -4665.39, -3935.68, 0.000, 0.000, 0.000, 17:34:53.024
61, -4071.06, -4588.38, -4496.16, -3764.27, 0.000, 0.000, 0.000, 17:34:53.024
62, -3893.69, -4417.85, -4322.03, -3599.51, 0.000, 0.000, 0.000, 17:34:53.024
63, -4065.54, -4620.32, -4529.44, -3805.08, 0.000, 0.000, 0.000, 17:34:53.025
64, -4230.46, -4768.94, -4674.95, -3942.91, 0.000, 0.000, 0.000, 17:34:53.025
65, -4055.27, -4575.70, -4490.65, -3756.15, 0.000, 0.000, 0.000, 17:34:53.038
66, -3883.57, -4412.55, -4311.03, -3588.89, 0.000, 0.000, 0.000, 17:34:53.038
67, -4059.75, -4618.48, -4514.45, -3802.34, 0.000, 0.000, 0.000, 17:34:53.054
68, -4231.94, -4765.03, -4674.63, -3948.03, 0.000, 0.000, 0.000, 17:34:53.054
69, -4058.37, -4580.83, -4494.37, -3754.21, 0.000, 0.000, 0.000, 17:34:53.068
70, -3874.25, -4396.01, -4303.64, -3581.06, 0.000, 0.000, 0.000, 17:34:53.068
71, -4050.77, -4610.99, -4522.33, -3800.04, 0.000, 0.000, 0.000, 17:34:53.069
72, -4214.30, -4746.48, -4652.17, -3937.27, 0.000, 0.000, 0.000, 17:34:53.069
73, -4052.39, -4569.21, -4483.84, -3752.11, 0.000, 0.000, 0.000, 17:34:53.083
74, -3885.44, -4423.97, -4319.11, -3595.00, 0.000, 0.000, 0.000, 17:34:53.083
75, -4051.36, -4616.51, -4510.91, -3804.71, 0.000, 0.000, 0.000, 17:34:53.097
76, -4213.57, -4755.57, -4657.53, -3933.12, 0.000, 0.000, 0.000, 17:34:53.097
77, -4050.39, -4572.27, -4483.41, -3751.62, 0.000, 0.000, 0.000, 17:34:53.098
78, -3875.62, -4400.72, -4314.88, -3592.60, 0.000, 0.000, 0.000, 17:34:53.098
79, -4041.35, -4589.66, -4508.08, -3798.43, 0.000, 0.000, 0.000, 17:34:53.112
80, -4219.79, -4782.05, -4677.48, -3941.03, 0.000, 0.000, 0.000, 17:34:53.113
81, -4057.52, -4589.76, -4484.88, -3755.79, 0.000, 0.000, 0.000, 17:34:53.143
82, -3881.12, -4405.73, -4321.85, -3592.77, 0.000, 0.000, 0.000, 17:34:53.143
83, -4054.03, -4615.56, -4520.64, -3799.00, 0.000, 0.000, 0.000, 17:34:53.144
84, -4214.42, -4765.23, -4670.62, -3932.24, 0.000, 0.000, 0.000, 17:34:53.144
85, -4068.97, -4598.69, -4497.84, -3770.79, 0.000, 0.000, 0.000, 17:34:53.144
86, -3880.07, -4401.51, -4318.61, -3593.83, 0.000, 0.000, 0.000, 17:34:53.144
87, -4054.36, -4613.59, -4521.61, -3790.71, 0.000, 0.000, 0.000, 17:34:53.146
88, -4220.09, -4775.98, -4672.40, -3942.38, 0.000, 0.000, 0.000, 17:34:53.146
89, -4057.51, -4588.67, -4484.75, -3760.45, 0.000, 0.000, 0.000, 17:34:53.157
90, -3892.07, -4424.15, -4332.40, -3602.98, 0.000, 0.000, 0.000, 17:34:53.157
91, -4058.33, -4608.27, -4522.47, -3795.75, 0.000, 0.000, 0.000, 17:34:53.188
92, -4227.64, -4777.81, -4669.67, -3950.94, 0.000, 0.000, 0.000, 17:34:53.188
93, -4067.87, -4592.96, -4494.82, -3769.15, 0.000, 0.000, 0.000, 17:34:53.189
94, -3889.22, -4419.86, -4323.12, -3593.72, 0.000, 0.000, 0.000, 17:34:53.189
95, -4044.42, -4589.54, -4512.43, -3794.61, 0.000, 0.000, 0.000, 17:34:53.190
96, -4226.26, -4767.75, -4678.01, -3940.33, 0.000, 0.000, 0.000, 17:34:53.190
97, -4059.00, -4594.91, -4495.26, -3752.80, 0.000, 0.000, 0.000, 17:34:53.204
98, -3886.95, -4422.84, -4327.46, -3605.24, 0.000, 0.000, 0.000, 17:34:53.204
99, -4053.14, -4614.13, -4524.56, -3806.90, 0.000, 0.000, 0.000, 17:34:53.218
100, -4234.01, -4789.73, -4675.92, -3950.39, 0.000, 0.000, 0.000, 17:34:53.218
