%OpenBCI Raw EEG Data
%
%Sample Rate = 200.0 Hz
%First Column = SampleIndex
%Last Column = Timestamp 
%Other Columns = EEG data in microvolts followed by Accel Data (in G) interleaved with Aux Data
0, -15427.72, -6226.00, -5501.92, -5496.14, 0.000, 0.000, 0.000, 17:27:33.191
1, -15686.28, -6526.52, -5839.60, -6203.69, 0.000, 0.000, 0.000, 17:27:33.207
2, -15686.28, -6385.99, -5775.06, -5477.13, 0.000, 0.000, 0.000, 17:27:33.208
3, -15686.28, -5640.37, -4850.73, -5365.31, 0.000, 0.000, 0.000, 17:27:33.219
4, -15686.28, -6145.76, -5060.06, -6029.44, 0.000, 0.000, 0.000, 17:27:33.219
5, -15686.28, -6221.42, -5307.32, -6247.73, 0.000, 0.000, 0.000, 17:27:33.220
6, -15686.28, -5644.12, -5007.80, -5525.48, 0.000, 0.000, 0.000, 17:27:33.220
7, -15363.56, -4998.78, -4064.97, -4581.15, 0.000, 0.000, 0.000, 17:27:33.232
8, -15892.20, -5192.54, -4272.49, -5322.66, 0.000, 0.000, 0.000, 17:27:33.233
9, -16666.67, -5401.26, -4580.74, -5611.19, 0.000, 0.000, 0.000, 17:27:33.248
10, -16304.91, -4749.34, -4459.24, -4970.05, 0.000, 0.000, 0.000, 17:27:33.248
11, -16281.23, -4117.50, -4405.10, -4127.94, 0.000, 0.000, 0.000, 17:27:33.248
12, -16564.90, -4492.89, -4729.51, -4933.49, 0.000, 0.000, 0.000, 17:27:33.249
13, -16859.18, -4575.58, -5194.50, -5210.76, 0.000, 0.000, 0.000, 17:27:33.269
14, -16067.99, -4024.55, -4727.27, -4631.37, 0.000, 0.000, 0.000, 17:27:33.270
15, -15370.17, -3596.15, -4072.60, -3882.52, 0.000, 0.000, 0.000, 17:27:33.277
16, -15921.83, -3999.59, -4413.06, -4701.43, 0.000, 0.000, 0.000, 17:27:33.278
17, -16402.43, -4082.45, -4634.90, -4950.87, 0.000, 0.000, 0.000, 17:27:33.279
18, -15846.54, -3630.55, -3702.43, -4427.52, 0.000, 0.000, 0.000, 17:27:33.280
19, -15369.01, -3171.64, -2877.97, -3731.30, 0.000, 0.000, 0.000, 17:27:33.293
20, -16108.88, -3646.37, -3236.43, -4577.94, 0.000, 0.000, 0.000, 17:27:33.294
21, -16703.52, -3686.81, -3281.03, -4795.24, 0.000, 0.000, 0.000, 17:27:33.311
22, -16320.31, -3293.24, -2445.75, -4312.85, 0.000, 0.000, 0.000, 17:27:33.316
23, -15968.34, -2895.97, -1677.58, -3641.83, 0.000, 0.000, 0.000, 17:27:33.318
24, -16873.11, -3412.29, -2105.04, -4518.97, 0.000, 0.000, 0.000, 17:27:33.318
25, -17561.93, -3552.58, -2219.57, -4726.67, 0.000, 0.000, 0.000, 17:27:33.325
26, -17278.27, -3098.87, -1368.74, -4253.86, 0.000, 0.000, 0.000, 17:27:33.325
27, -17039.69, -2705.98, -709.02, -3618.05, 0.000, 0.000, 0.000, 17:27:33.339
28, -17047.42, -3275.43, -1045.18, -4499.82, 0.000, 0.000, 0.000, 17:27:33.339
29, -17795.76, -3313.28, -1284.19, -4678.03, 0.000, 0.000, 0.000, 17:27:33.340
30, -17574.80, -2948.06, -1239.82, -4195.81, 0.000, 0.000, 0.000, 17:27:33.340
31, -17409.14, -2562.41, -625.01, -3592.26, 0.000, 0.000, 0.000, 17:27:33.353
32, -17500.49, -3146.95, -935.72, -4488.04, 0.000, 0.000, 0.000, 17:27:33.354
33, -18262.95, -4099.07, -1027.58, -4658.67, 0.000, 0.000, 0.000, 17:27:33.369
34, -18096.81, -3741.57, -110.27, -4185.82, 0.000, 0.000, 0.000, 17:27:33.374
35, -17973.28, -3505.28, 364.93, -3583.01, 0.000, 0.000, 0.000, 17:27:33.375
36, -18099.39, -4085.81, -18.35, -4474.00, 0.000, 0.000, 0.000, 17:27:33.375
37, -18885.88, -4145.92, -165.53, -4625.21, 0.000, 0.000, 0.000, 17:27:33.383
38, -18743.15, -3809.58, -119.32, -4163.33, 0.000, 0.000, 0.000, 17:27:33.383
39, -18637.00, -3426.68, 441.57, -3561.24, 0.000, 0.000, 0.000, 17:27:33.398
40, -18811.00, -4010.79, 25.23, -4474.15, 0.000, 0.000, 0.000, 17:27:33.399
41, -19615.15, -4076.50, -289.16, -4613.75, 0.000, 0.000, 0.000, 17:27:33.399
42, -19493.17, -3745.61, -56.67, -4150.20, 0.000, 0.000, 0.000, 17:27:33.399
43, -19395.60, -3363.72, 555.77, -3548.18, 0.000, 0.000, 0.000, 17:27:33.413
44, -19582.32, -3954.67, 217.70, -4448.96, 0.000, 0.000, 0.000, 17:27:33.413
45, -20372.34, -3979.52, -64.56, -4575.04, 0.000, 0.000, 0.000, 17:27:33.428
46, -20267.85, -3590.93, -15.59, -4108.03, 0.000, 0.000, 0.000, 17:27:33.428
47, -20211.16, -3315.47, 572.79, -3522.58, 0.000, 0.000, 0.000, 17:27:33.430
48, -20427.53, -3905.92, 182.58, -4439.02, 0.000, 0.000, 0.000, 17:27:33.432
49, -21227.12, -3934.90, -170.04, -4550.36, 0.000, 0.000, 0.000, 17:27:33.442
50, -21128.64, -3564.79, -52.58, -4091.79, 0.000, 0.000, 0.000, 17:27:33.442
51, -21083.23, -3283.30, 611.74, -3508.53, 0.000, 0.000, 0.000, 17:27:33.457
52, -21317.15, -3900.53, 89.39, -4445.96, 0.000, 0.000, 0.000, 17:27:33.458
53, -22124.96, -3934.46, -882.12, -4544.88, 0.000, 0.000, 0.000, 17:27:33.459
54, -22033.78, -3569.55, 97.50, -4093.73, 0.000, 0.000, 0.000, 17:27:33.460
55, -21992.71, -3270.62, 609.70, -3515.20, 0.000, 0.000, 0.000, 17:27:33.473
56, -22243.06, -3883.92, 78.20, -4456.00, 0.000, 0.000, 0.000, 17:27:33.474
57, -23038.79, -4857.22, -164.40, -4546.65, 0.000, 0.000, 0.000, 17:27:33.489
58, -22946.99, -4563.93, -40.34, -4081.62, 0.000, 0.000, 0.000, 17:27:33.490
59, -22912.94, -4241.83, 590.61, -3507.45, 0.000, 0.000, 0.000, 17:27:33.492
60, -23174.13, -4851.26, 147.50, -4447.87, 0.000, 0.000, 0.000, 17:27:33.492
61, -23972.38, -4859.83, -2.23, -4525.91, 0.000, 0.000, 0.000, 17:27:33.502
62, -23878.64, -4520.75, 58.27, -4069.00, 0.000, 0.000, 0.000, 17:27:33.502
63, -23848.41, -4216.44, 606.83, -3498.56, 0.000, 0.000, 0.000, 17:27:33.518
64, -24130.17, -4860.31, 172.52, -4455.50, 0.000, 0.000, 0.000, 17:27:33.518
65, -24927.23, -4863.94, 12.09, -4540.71, 0.000, 0.000, 0.000, 17:27:33.518
66, -24830.56, -4491.95, 51.31, -4080.44, 0.000, 0.000, 0.000, 17:27:33.518
67, -24797.27, -4208.11, 620.30, -3497.58, 0.000, 0.000, 0.000, 17:27:33.532
68, -25083.83, -4873.73, 134.09, -4457.72, 0.000, 0.000, 0.000, 17:27:33.532
69, -25866.62, -5838.34, -9.27, -4531.25, 0.000, 0.000, 0.000, 17:27:33.548
70, -25768.82, -5495.54, 84.07, -4061.74, 0.000, 0.000, 0.000, 17:27:33.548
71, -25746.64, -5190.89, 618.51, -3490.18, 0.000, 0.000, 0.000, 17:27:33.548
72, -26059.78, -5862.93, 200.79, -4465.46, 0.000, 0.000, 0.000, 17:27:33.549
73, -26847.98, -6820.68, -115.03, -4543.30, 0.000, 0.000, 0.000, 17:27:33.563
74, -26738.41, -6464.51, 37.95, -4058.89, 0.000, 0.000, 0.000, 17:27:33.563
75, -26701.79, -6157.53, 653.73, -3480.57, 0.000, 0.000, 0.000, 17:27:33.579
76, -27018.89, -6785.42, 164.32, -4460.25, 0.000, 0.000, 0.000, 17:27:33.580
77, -27809.08, -6825.47, -19.00, -4535.14, 0.000, 0.000, 0.000, 17:27:33.582
78, -27703.21, -6443.26, 93.64, -4064.11, 0.000, 0.000, 0.000, 17:27:33.582
79, -27682.39, -6152.90, 604.25, -3487.49, 0.000, 0.000, 0.000, 17:27:33.593
80, -27997.08, -6845.01, 105.41, -3501.27, 0.000, 0.000, 0.000, 17:27:33.593
81, -28771.09, -7797.58, -0.09, -3566.65, 0.000, 0.000, 0.000, 17:27:33.607
82, -28672.66, -7401.84, 93.85, -3078.82, 0.000, 0.000, 0.000, 17:27:33.608
83, -28642.84, -7126.53, 616.18, -2504.54, 0.000, 0.000, 0.000, 17:27:33.615
84, -28965.46, -7833.02, 118.57, -2513.87, 0.000, 0.000, 0.000, 17:27:33.616
85, -29726.12, -8760.83, 20.91, -2558.70, 0.000, 0.000, 0.000, 17:27:33.622
86, -29628.76, -8442.01, 168.32, -2087.42, 0.000, 0.000, 0.000, 17:27:33.622
87, -29602.37, -8116.02, 601.98, -1523.29, 0.000, 0.000, 0.000, 17:27:33.639
88, -29947.80, -8810.47, 114.18, -1556.30, 0.000, 0.000, 0.000, 17:27:33.639
89, -30695.80, -9716.63, -14.56, -1573.82, 0.000, 0.000, 0.000, 17:27:33.639
90, -30586.14, -9325.98, 209.91, -1088.79, 0.000, 0.000, 0.000, 17:27:33.639
91, -30576.39, -9073.37, 659.24, -532.49, 0.000, 0.000, 0.000, 17:27:33.653
92, -30919.34, -9744.98, 47.91, -565.67, 0.000, 0.000, 0.000, 17:27:33.653
93, -31658.57, -10699.30, -127.20, -595.06, 0.000, 0.000, 0.000, 17:27:33.667
94, -31557.99, -10322.36, 29.40, -116.79, 0.000, 0.000, 0.000, 17:27:33.668
95, -31550.09, -10037.49, 643.13, 441.28, 0.000, 0.000, 0.000, 17:27:33.668
96, -31888.07, -10729.43, 122.42, 418.38, 0.000, 0.000, 0.000, 17:27:33.668
97, -32627.18, -11610.91, 105.16, 406.10, 0.000, 0.000, 0.000, 17:27:33.683
98, -32521.00, -11334.11, 1049.75, 872.49, 0.000, 0.000, 0.000, 17:27:33.683
99, -31541.36, -11036.61, 1638.64, 1425.06, 0.000, 0.000, 0.000, 17:27:33.697
100, -31910.25, -11759.53, 1098.66, 1377.30, 0.000, 0.000, 0.000, 17:27:33.697
101, -32624.81, -12641.72, 1019.20, 408.79, 0.000, 0.000, 0.000, 17:27:33.698
102, -32507.48, -12257.17, 1142.15, 899.97, 0.000, 0.000, 0.000, 17:27:33.698
103, -32489.51, -11982.90, 1654.22, 1442.55, 0.000, 0.000, 0.000, 17:27:33.712
104, -32888.93, -12746.13, 1069.07, 1382.09, 0.000, 0.000, 0.000, 17:27:33.713
105, -33616.59, -13680.44, 954.10, 1380.46, 0.000, 0.000, 0.000, 17:27:33.728
106, -33505.57, -13299.21, 1144.70, 1855.86, 0.000, 0.000, 0.000, 17:27:33.728
107, -33484.27, -12976.54, 1621.82, 2419.39, 0.000, 0.000, 0.000, 17:27:33.728
108, -33860.36, -13705.74, 1069.14, 2348.82, 0.000, 0.000, 0.000, 17:27:33.729
109, -34570.43, -14583.15, 91.89, 1397.54, 0.000, 0.000, 0.000, 17:27:33.757
110, -34476.10, -14226.08, 1001.93, 1855.52, 0.000, 0.000, 0.000, 17:27:33.758
111, -34466.56, -13956.99, 1617.53, 2405.48, 0.000, 0.000, 0.000, 17:27:33.761
112, -34870.64, -14727.77, 1015.83, 2322.98, 0.000, 0.000, 0.000, 17:27:33.762
113, -35577.20, -15611.07, 886.87, 1352.47, 0.000, 0.000, 0.000, 17:27:33.762
114, -35460.79, -15220.57, 1202.77, 1850.05, 0.000, 0.000, 0.000, 17:27:33.762
115, -35423.23, -14930.38, 1683.39, 2426.37, 0.000, 0.000, 0.000, 17:27:33.791
116, -35826.52, -15712.85, 1087.81, 2340.49, 0.000, 0.000, 0.000, 17:27:33.792
117, -36520.16, -16519.30, 137.87, 1398.02, 0.000, 0.000, 0.000, 17:27:33.793
118, -36404.52, -16189.94, 260.66, 1884.30, 0.000, 0.000, 0.000, 17:27:33.794
119, -36379.36, -15889.02, 682.04, 2442.68, 0.000, 0.000, 0.000, 17:27:33.795
120, -36798.06, -16668.90, 120.19, 2350.97, 0.000, 0.000, 0.000, 17:27:33.795
121, -37501.32, -17591.98, 24.84, 1397.13, 0.000, 0.000, 0.000, 17:27:33.802
122, -37372.43, -17124.17, 249.10, 1894.12, 0.000, 0.000, 0.000, 17:27:33.803
123, -37355.09, -16876.82, 674.33, 2446.34, 0.000, 0.000, 0.000, 17:27:33.817
124, -37810.61, -17681.95, 137.97, 2319.29, 0.000, 0.000, 0.000, 17:27:33.817
125, -38534.54, -18575.98, -147.65, 1354.54, 0.000, 0.000, 0.000, 17:27:33.817
126, -38398.04, -18179.39, -13.49, 1851.52, 0.000, 0.000, 0.000, 17:27:33.818
127, -38357.36, -17847.46, 637.70, 2423.20, 0.000, 0.000, 0.000, 17:27:33.833
128, -38808.74, -18707.78, 101.63, 2297.42, 0.000, 0.000, 0.000, 17:27:33.833
129, -39510.73, -19511.55, 26.69, 1347.56, 0.000, 0.000, 0.000, 17:27:33.847
130, -39365.09, -19174.45, 90.58, 1856.19, 0.000, 0.000, 0.000, 17:27:33.847
131, -39329.86, -18832.33, 647.20, 2426.12, 0.000, 0.000, 0.000, 17:27:33.848
132, -39794.53, -19682.28, 13.18, 2286.15, 0.000, 0.000, 0.000, 17:27:33.848
133, -40479.20, -20525.27, -947.20, 1357.74, 0.000, 0.000, 0.000, 17:27:33.862
134, -40322.41, -20127.02, -798.18, 1875.14, 0.000, 0.000, 0.000, 17:27:33.863
135, -40280.13, -19784.94, -285.94, 2453.71, 0.000, 0.000, 0.000, 17:27:33.877
136, -40767.93, -20644.58, -980.23, 2298.96, 0.000, 0.000, 0.000, 17:27:33.877
137, -41448.82, -21477.64, -1859.54, 1360.15, 0.000, 0.000, 0.000, 17:27:33.878
138, -41301.55, -21082.72, -890.46, 1887.57, 0.000, 0.000, 0.000, 17:27:33.878
139, -41257.34, -20758.21, -325.04, 2450.71, 0.000, 0.000, 0.000, 17:27:33.892
140, -41747.91, -21637.90, -974.39, 2293.51, 0.000, 0.000, 0.000, 17:27:33.893
141, -42429.05, -22446.39, -981.13, 1365.29, 0.000, 0.000, 0.000, 17:27:33.908
142, -42273.31, -22047.09, -811.53, 1888.11, 0.000, 0.000, 0.000, 17:27:33.908
143, -42236.63, -21752.83, -314.69, 2450.46, 0.000, 0.000, 0.000, 17:27:33.908
144, -42751.84, -22626.15, -960.79, 2280.60, 0.000, 0.000, 0.000, 17:27:33.908
145, -43413.63, -23478.66, -985.59, 1375.12, 0.000, 0.000, 0.000, 17:27:33.922
146, -43244.35, -23022.99, -885.55, 1897.69, 0.000, 0.000, 0.000, 17:27:33.923
147, -43206.16, -22722.54, -263.57, 2464.12, 0.000, 0.000, 0.000, 17:27:33.938
148, -43699.82, -23586.31, -903.77, 2301.60, 0.000, 0.000, 0.000, 17:27:33.938
149, -44379.11, -24419.34, -1016.31, 1382.61, 0.000, 0.000, 0.000, 17:27:33.938
150, -44230.64, -23995.05, -731.99, 1893.49, 0.000, 0.000, 0.000, 17:27:33.938
151, -44172.43, -23691.94, -275.40, 2466.93, 0.000, 0.000, 0.000, 17:27:33.952
152, -44689.59, -24563.20, -997.51, 2289.70, 0.000, 0.000, 0.000, 17:27:33.952
153, -45381.15, -25497.86, -1069.33, 1375.19, 0.000, 0.000, 0.000, 17:27:33.968
154, -45220.84, -25038.87, -880.80, 1899.10, 0.000, 0.000, 0.000, 17:27:33.969
155, -45147.12, -24673.98, -250.59, 2475.26, 0.000, 0.000, 0.000, 17:27:33.969
156, -45662.64, -25549.00, -939.64, 2284.36, 0.000, 0.000, 0.000, 17:27:33.969
157, -46317.62, -26362.27, -1902.16, 1395.16, 0.000, 0.000, 0.000, 17:27:33.997
158, -46168.87, -25957.27, -1774.92, 1904.69, 0.000, 0.000, 0.000, 17:27:33.997
159, -46123.20, -25636.04, -1249.29, 2471.14, 0.000, 0.000, 0.000, 17:27:33.998
160, -46649.56, -26546.83, -1912.76, 2284.28, 0.000, 0.000, 0.000, 17:27:33.998
161, -47304.88, -27327.68, -2006.42, 1406.44, 0.000, 0.000, 0.000, 17:27:34.005
162, -47153.39, -26918.71, -1788.27, 1906.83, 0.000, 0.000, 0.000, 17:27:34.005
163, -47094.87, -26618.08, -1226.08, 2460.27, 0.000, 0.000, 0.000, 17:27:34.012
164, -47639.42, -27557.11, -1915.18, 2265.17, 0.000, 0.000, 0.000, 17:27:34.012
165, -48301.09, -28359.74, -1946.10, 1387.71, 0.000, 0.000, 0.000, 17:27:34.028
166, -48144.74, -27899.43, -1817.97, 1916.61, 0.000, 0.000, 0.000, 17:27:34.028
167, -48077.75, -27602.26, -1220.16, 2470.34, 0.000, 0.000, 0.000, 17:27:34.028
168, -48620.02, -28502.09, -1889.51, 2277.85, 0.000, 0.000, 0.000, 17:27:34.028
169, -49257.08, -29345.71, -2866.17, 1423.27, 0.000, 0.000, 0.000, 17:27:34.042
170, -49094.50, -28882.62, -2715.22, 1936.93, 0.000, 0.000, 0.000, 17:27:34.042
171, -49048.31, -28564.09, -2209.66, 2491.13, 0.000, 0.000, 0.000, 17:27:34.057
172, -49591.19, -29481.03, -2886.94, 2273.03, 0.000, 0.000, 0.000, 17:27:34.057
173, -50232.05, -30288.25, -3842.51, 1411.68, 0.000, 0.000, 0.000, 17:27:34.058
174, -50062.29, -29814.73, -3741.83, 1935.01, 0.000, 0.000, 0.000, 17:27:34.058
175, -50022.43, -29520.14, -3172.89, 2488.90, 0.000, 0.000, 0.000, 17:27:34.088
176, -50582.40, -30497.09, -3906.98, 2275.73, 0.000, 0.000, 0.000, 17:27:34.088
177, -51229.73, -31252.70, -4820.86, 1423.53, 0.000, 0.000, 0.000, 17:27:34.089
178, -51055.29, -30829.37, -4741.21, 1937.59, 0.000, 0.000, 0.000, 17:27:34.089
179, -51004.59, -30526.27, -4177.93, 2474.93, 0.000, 0.000, 0.000, 17:27:34.090
180, -51566.91, -31451.64, -4860.82, 2259.65, 0.000, 0.000, 0.000, 17:27:34.090
181, -52174.08, -32197.38, -5778.17, 1423.02, 0.000, 0.000, 0.000, 17:27:34.102
182, -52028.33, -31756.25, -5733.83, 1930.89, 0.000, 0.000, 0.000, 17:27:34.103
183, -51976.66, -31501.77, -5184.17, 2473.68, 0.000, 0.000, 0.000, 17:27:34.117
184, -52556.37, -32440.73, -5818.12, 2248.28, 0.000, 0.000, 0.000, 17:27:34.118
185, -53174.62, -33226.27, -5922.77, 1416.63, 0.000, 0.000, 0.000, 17:27:34.118
186, -52997.32, -32763.56, -5702.73, 1956.46, 0.000, 0.000, 0.000, 17:27:34.119
187, -52973.07, -32503.19, -5175.66, 2483.37, 0.000, 0.000, 0.000, 17:27:34.132
188, -53539.67, -33455.63, -5884.27, 2241.77, 0.000, 0.000, 0.000, 17:27:34.133
189, -54138.60, -34198.38, -6790.31, 1432.49, 0.000, 0.000, 0.000, 17:27:34.147
190, -53985.55, -33745.54, -6668.40, 1938.27, 0.000, 0.000, 0.000, 17:27:34.147
191, -53940.15, -33473.48, -6136.45, 2477.06, 0.000, 0.000, 0.000, 17:27:34.148
192, -54521.18, -34409.32, -6872.06, 2249.75, 0.000, 0.000, 0.000, 17:27:34.148
193, -55132.95, -35164.48, -7758.90, 1421.92, 0.000, 0.000, 0.000, 17:27:34.164
194, -54959.86, -34745.36, -7602.21, 1941.04, 0.000, 0.000, 0.000, 17:27:34.164
195, -54921.47, -34443.25, -7107.83, 2486.81, 0.000, 0.000, 0.000, 17:27:34.178
196, -55517.98, -34455.50, -7849.57, 2222.65, 0.000, 0.000, 0.000, 17:27:34.178
197, -56114.71, -35171.94, -7906.49, 1416.31, 0.000, 0.000, 0.000, 17:27:34.178
198, -55932.07, -34725.00, -7641.25, 1945.24, 0.000, 0.000, 0.000, 17:27:34.178
199, -55890.29, -34428.92, -7087.19, 2484.52, 0.000, 0.000, 0.000, 17:27:34.193
200, -56512.20, -34473.58, -7887.27, 2221.76, 0.000, 0.000, 0.000, 17:27:34.193
0, -6127.92, -6808.66, -5693.31, -5446.99, 0.000, 0.000, 0.000, 17:27:34.193
1, -5924.29, -6298.19, -5687.02, -4919.96, 0.000, 0.000, 0.000, 17:27:34.213
2, -5886.31, -5997.63, -5125.68, -4385.90, 0.000, 0.000, 0.000, 17:27:34.213
3, -6496.95, -6027.37, -5884.78, -4657.79, 0.000, 0.000, 0.000, 17:27:34.225
4, -7079.89, -6719.44, -6859.36, -5440.58, 0.000, 0.000, 0.000, 17:27:34.226
5, -6898.98, -6273.60, -6684.74, -4915.95, 0.000, 0.000, 0.000, 17:27:34.226
6, -6856.96, -6003.26, -6091.56, -4374.79, 0.000, 0.000, 0.000, 17:27:34.226
7, -7488.63, -6033.89, -6932.96, -4653.41, 0.000, 0.000, 0.000, 17:27:34.244
8, -8067.85, -6765.32, -7720.50, -5440.14, 0.000, 0.000, 0.000, 17:27:34.244
9, -7890.50, -6300.08, -7696.34, -4910.06, 0.000, 0.000, 0.000, 17:27:34.259
10, -7837.08, -5990.54, -7070.88, -4366.84, 0.000, 0.000, 0.000, 17:27:34.259
11, -8463.01, -6033.56, -7860.85, -4650.09, 0.000, 0.000, 0.000, 17:27:34.259
12, -9034.33, -6733.13, -8804.90, -5427.23, 0.000, 0.000, 0.000, 17:27:34.260
13, -8859.33, -6287.06, -8614.02, -4908.14, 0.000, 0.000, 0.000, 17:27:34.273
14, -8825.57, -6009.20, -8098.63, -4375.65, 0.000, 0.000, 0.000, 17:27:34.273
15, -9472.46, -6030.41, -8904.02, -4662.34, 0.000, 0.000, 0.000, 17:27:34.282
16, -10021.63, -6669.76, -9754.53, -5419.94, 0.000, 0.000, 0.000, 17:27:34.282
17, -9830.53, -6288.95, -9552.76, -4893.57, 0.000, 0.000, 0.000, 17:27:34.284
18, -9799.73, -6024.55, -9079.98, -4367.83, 0.000, 0.000, 0.000, 17:27:34.284
19, -10460.96, -6046.01, -9882.69, -4675.66, 0.000, 0.000, 0.000, 17:27:34.298
20, -11001.38, -6822.13, -10636.83, -5428.42, 0.000, 0.000, 0.000, 17:27:34.298
21, -10816.90, -6299.63, -10587.30, -4896.23, 0.000, 0.000, 0.000, 17:27:34.312
22, -10779.30, -5992.31, -10033.17, -4368.24, 0.000, 0.000, 0.000, 17:27:34.313
23, -11449.25, -6070.61, -10815.55, -4680.57, 0.000, 0.000, 0.000, 17:27:34.320
24, -11985.43, -6751.33, -11694.76, -5426.97, 0.000, 0.000, 0.000, 17:27:34.322
25, -11784.54, -6310.17, -11537.02, -4886.77, 0.000, 0.000, 0.000, 17:27:34.328
26, -11748.33, -5955.08, -11021.72, -4366.29, 0.000, 0.000, 0.000, 17:27:34.328
27, -12428.42, -6121.54, -11822.60, -4680.93, 0.000, 0.000, 0.000, 17:27:34.343
28, -12952.86, -6711.19, -12793.63, -5415.97, 0.000, 0.000, 0.000, 17:27:34.344
29, -12757.76, -6253.37, -12497.61, -4885.72, 0.000, 0.000, 0.000, 17:27:34.344
30, -12727.59, -5975.42, -11982.70, -4373.76, 0.000, 0.000, 0.000, 17:27:34.344
31, -13424.79, -6100.14, -12836.02, -4692.20, 0.000, 0.000, 0.000, 17:27:34.358
32, -13926.70, -6663.17, -13563.84, -5413.76, 0.000, 0.000, 0.000, 17:27:34.358
33, -13741.48, -6276.76, -13493.33, -4890.22, 0.000, 0.000, 0.000, 17:27:34.372
34, -13703.25, -5980.58, -12964.13, -4357.65, 0.000, 0.000, 0.000, 17:27:34.373
35, -14394.45, -6073.80, -13840.61, -4694.71, 0.000, 0.000, 0.000, 17:27:34.373
36, -14909.63, -6732.98, -14737.73, -5421.29, 0.000, 0.000, 0.000, 17:27:34.373
37, -14695.51, -6253.27, -14525.80, -4875.66, 0.000, 0.000, 0.000, 17:27:34.388
38, -14679.75, -5981.45, -13926.66, -4361.34, 0.000, 0.000, 0.000, 17:27:34.388
39, -15371.87, -6057.96, -14781.06, -4689.05, 0.000, 0.000, 0.000, 17:27:34.412
40, -15883.14, -6717.09, -15577.39, -5405.32, 0.000, 0.000, 0.000, 17:27:34.412
41, -15695.91, -6265.52, -15490.83, -4873.50, 0.000, 0.000, 0.000, 17:27:34.412
42, -15672.10, -5976.80, -14937.32, -4364.20, 0.000, 0.000, 0.000, 17:27:34.413
43, -16369.47, -6072.46, -15752.48, -4699.31, 0.000, 0.000, 0.000, 17:27:34.418
44, -16880.68, -6693.93, -16585.14, -5415.27, 0.000, 0.000, 0.000, 17:27:34.422
45, -16674.80, -6271.38, -16325.58, -4875.84, 0.000, 0.000, 0.000, 17:27:34.438
46, -16637.87, -5962.27, -15885.31, -4359.39, 0.000, 0.000, 0.000, 17:27:34.438
47, -17345.32, -6076.45, -16690.00, -4694.37, 0.000, 0.000, 0.000, 17:27:34.439
48, -17846.92, -6701.63, -17407.13, -5418.07, 0.000, 0.000, 0.000, 17:27:34.440
49, -17645.54, -6258.36, -17273.24, -4865.34, 0.000, 0.000, 0.000, 17:27:34.455
50, -17606.04, -5966.08, -16865.52, -4340.79, 0.000, 0.000, 0.000, 17:27:34.455
51, -18333.90, -6066.68, -17775.74, -4707.02, 0.000, 0.000, 0.000, 17:27:34.463
52, -18838.64, -6717.91, -18519.37, -5407.89, 0.000, 0.000, 0.000, 17:27:34.464
53, -18627.92, -6233.76, -18304.25, -4880.50, 0.000, 0.000, 0.000, 17:27:34.466
54, -18597.27, -5964.48, -17865.90, -4356.60, 0.000, 0.000, 0.000, 17:27:34.466
55, -19324.59, -6090.16, -18698.25, -4721.19, 0.000, 0.000, 0.000, 17:27:34.477
56, -19808.66, -6734.33, -19376.14, -5402.13, 0.000, 0.000, 0.000, 17:27:34.477
57, -19601.69, -6207.45, -18439.84, -4862.74, 0.000, 0.000, 0.000, 17:27:34.492
58, -19575.75, -5974.98, -17903.17, -4364.40, 0.000, 0.000, 0.000, 17:27:34.492
59, -20313.39, -6109.51, -18743.41, -4731.19, 0.000, 0.000, 0.000, 17:27:34.493
60, -20782.20, -6750.71, -19572.26, -5406.98, 0.000, 0.000, 0.000, 17:27:34.493
61, -20571.81, -6236.62, -19301.77, -4857.37, 0.000, 0.000, 0.000, 17:27:34.522
62, -20556.43, -5974.29, -18882.89, -4360.98, 0.000, 0.000, 0.000, 17:27:34.523
63, -21313.87, -6158.00, -19714.55, -4733.97, 0.000, 0.000, 0.000, 17:27:34.523
64, -21780.56, -6699.46, -20491.47, -5404.58, 0.000, 0.000, 0.000, 17:27:34.523
65, -21553.52, -6263.40, -20469.93, -4855.64, 0.000, 0.000, 0.000, 17:27:34.524
66, -21530.29, -5969.60, -19816.32, -4354.72, 0.000, 0.000, 0.000, 17:27:34.524
67, -22267.97, -6078.35, -20664.29, -4727.79, 0.000, 0.000, 0.000, 17:27:34.552
68, -22731.10, -6624.65, -21445.45, -5393.08, 0.000, 0.000, 0.000, 17:27:34.552
69, -22524.60, -6247.87, -21200.82, -4854.38, 0.000, 0.000, 0.000, 17:27:34.553
70, -22519.62, -5986.29, -20847.78, -4357.72, 0.000, 0.000, 0.000, 17:27:34.553
71, -23269.23, -6173.93, -21759.41, -4741.52, 0.000, 0.000, 0.000, 17:27:34.554
72, -23717.01, -6668.51, -22463.53, -5381.50, 0.000, 0.000, 0.000, 17:27:34.554
73, -23493.19, -6211.17, -22333.19, -4836.29, 0.000, 0.000, 0.000, 17:27:34.567
74, -23474.33, -5942.33, -21782.93, -4349.37, 0.000, 0.000, 0.000, 17:27:34.567
75, -24242.20, -6157.79, -22645.39, -4747.30, 0.000, 0.000, 0.000, 17:27:34.582
76, -24691.51, -6628.93, -23350.53, -5382.07, 0.000, 0.000, 0.000, 17:27:34.583
77, -24478.77, -6204.70, -23344.60, -4840.80, 0.000, 0.000, 0.000, 17:27:34.583
78, -24474.95, -5975.42, -22767.35, -4355.68, 0.000, 0.000, 0.000, 17:27:34.583
79, -25249.45, -6136.21, -23716.54, -4760.80, 0.000, 0.000, 0.000, 17:27:34.598
80, -25692.19, -6724.91, -24467.97, -5402.22, 0.000, 0.000, 0.000, 17:27:34.598
81, -25462.89, -6247.76, -24203.76, -4838.10, 0.000, 0.000, 0.000, 17:27:34.613
82, -25447.90, -5953.48, -23751.35, -4346.75, 0.000, 0.000, 0.000, 17:27:34.613
83, -26229.86, -6202.84, -24631.41, -4759.45, 0.000, 0.000, 0.000, 17:27:34.613
84, -26654.38, -6742.94, -25365.25, -5376.10, 0.000, 0.000, 0.000, 17:27:34.613
85, -26436.08, -6199.63, -25248.41, -4832.92, 0.000, 0.000, 0.000, 17:27:34.642
86, -26411.50, -5957.86, -24730.14, -4350.42, 0.000, 0.000, 0.000, 17:27:34.642
87, -27213.76, -6114.86, -25675.32, -4769.96, 0.000, 0.000, 0.000, 17:27:34.643
88, -27646.90, -6765.38, -26516.85, -5404.89, 0.000, 0.000, 0.000, 17:27:34.643
89, -27422.99, -6118.97, -26298.81, -4832.54, 0.000, 0.000, 0.000, 17:27:34.644
90, -27409.31, -5949.43, -25699.05, -4349.12, 0.000, 0.000, 0.000, 17:27:34.644
91, -28222.48, -6222.11, -26597.15, -4785.97, 0.000, 0.000, 0.000, 17:27:34.673
92, -28624.13, -6596.56, -27464.98, -5401.78, 0.000, 0.000, 0.000, 17:27:34.673
93, -28396.70, -6256.77, -27246.07, -4838.37, 0.000, 0.000, 0.000, 17:27:34.674
94, -28383.47, -5955.74, -26645.95, -4361.29, 0.000, 0.000, 0.000, 17:27:34.674
95, -29204.59, -6222.02, -27497.07, -4789.51, 0.000, 0.000, 0.000, 17:27:34.674
96, -29609.13, -6714.42, -28347.30, -5390.84, 0.000, 0.000, 0.000, 17:27:34.674
97, -29358.91, -6138.29, -28078.35, -4826.69, 0.000, 0.000, 0.000, 17:27:34.688
98, -29356.54, -5974.68, -27659.70, -4358.57, 0.000, 0.000, 0.000, 17:27:34.688
99, -30179.16, -6220.32, -28634.68, -4797.25, 0.000, 0.000, 0.000, 17:27:34.702
100, -30580.54, -6764.62, -29264.02, -5389.09, 0.000, 0.000, 0.000, 17:27:34.703
101, -30338.48, -6228.59, -29154.46, -4820.60, 0.000, 0.000, 0.000, 17:27:34.704
102, -30334.25, -5902.38, -28655.94, -4346.82, 0.000, 0.000, 0.000, 17:27:34.704
103, -31169.13, -6213.08, -29630.50, -4802.25, 0.000, 0.000, 0.000, 17:27:34.717
104, -31565.88, -6761.12, -30308.99, -5402.75, 0.000, 0.000, 0.000, 17:27:34.718
105, -31313.43, -6180.66, -30033.33, -4819.24, 0.000, 0.000, 0.000, 17:27:34.732
106, -31299.59, -5935.19, -29585.05, -4341.05, 0.000, 0.000, 0.000, 17:27:34.732
107, -32148.08, -6250.78, -30561.98, -4802.11, 0.000, 0.000, 0.000, 17:27:34.733
108, -32542.34, -6797.50, -31241.81, -5385.44, 0.000, 0.000, 0.000, 17:27:34.733
109, -32294.16, -6142.92, -31094.34, -4815.93, 0.000, 0.000, 0.000, 17:27:34.747
110, -32282.21, -5911.28, -30585.95, -4339.71, 0.000, 0.000, 0.000, 17:27:34.747
111, -33133.45, -6177.76, -31522.18, -4810.93, 0.000, 0.000, 0.000, 17:27:34.762
112, -33518.93, -6696.93, -32216.73, -5384.50, 0.000, 0.000, 0.000, 17:27:34.762
113, -33280.77, -6146.73, -32144.85, -4821.15, 0.000, 0.000, 0.000, 17:27:34.763
114, -33276.91, -5943.45, -31599.40, -4351.87, 0.000, 0.000, 0.000, 17:27:34.763
115, -34117.56, -6190.55, -32480.93, -4800.63, 0.000, 0.000, 0.000, 17:27:34.777
116, -34478.50, -6563.88, -33140.38, -5368.50, 0.000, 0.000, 0.000, 17:27:34.777
117, -34245.16, -6182.25, -33010.80, -4801.52, 0.000, 0.000, 0.000, 17:27:34.792
118, -33265.24, -5926.37, -32538.59, -4342.83, 0.000, 0.000, 0.000, 17:27:34.792
119, -34128.82, -6226.24, -33438.41, -4812.54, 0.000, 0.000, 0.000, 17:27:34.792
120, -34489.52, -6711.13, -34289.13, -5375.58, 0.000, 0.000, 0.000, 17:27:34.793
121, -34239.64, -6201.70, -33961.39, -4802.64, 0.000, 0.000, 0.000, 17:27:34.807
122, -33260.36, -5947.77, -33511.52, -4342.44, 0.000, 0.000, 0.000, 17:27:34.807
123, -34121.65, -6233.70, -34415.75, -4815.71, 0.000, 0.000, 0.000, 17:27:34.822
124, -34487.25, -6723.40, -35201.29, -5375.88, 0.000, 0.000, 0.000, 17:27:34.823
125, -34235.38, -6178.69, -34962.84, -4804.10, 0.000, 0.000, 0.000, 17:27:34.823
126, -33264.13, -5957.97, -34515.70, -4341.73, 0.000, 0.000, 0.000, 17:27:34.823
127, -34117.52, -6147.74, -35461.74, -4815.03, 0.000, 0.000, 0.000, 17:27:34.844
128, -34475.92, -6725.92, -36142.08, -5353.69, 0.000, 0.000, 0.000, 17:27:34.844
129, -34228.05, -6161.46, -35961.48, -4798.47, 0.000, 0.000, 0.000, 17:27:34.854
130, -33262.29, -5928.25, -35502.25, -4344.85, 0.000, 0.000, 0.000, 17:27:34.854
131, -34138.39, -6185.00, -36458.74, -4814.74, 0.000, 0.000, 0.000, 17:27:34.854
132, -34489.39, -6696.96, -37209.16, -5370.09, 0.000, 0.000, 0.000, 17:27:34.854
133, -34225.44, -6135.55, -37054.94, -4790.97, 0.000, 0.000, 0.000, 17:27:34.867
134, -33258.55, -5942.33, -36496.34, -4333.87, 0.000, 0.000, 0.000, 17:27:34.867
135, -34143.29, -6246.70, -37356.39, -4829.34, 0.000, 0.000, 0.000, 17:27:34.883
136, -34485.56, -6721.76, -38051.83, -5367.62, 0.000, 0.000, 0.000, 17:27:34.883
137, -34237.55, -6155.89, -37940.55, -4800.72, 0.000, 0.000, 0.000, 17:27:34.883
138, -33264.93, -5953.61, -37448.42, -4344.52, 0.000, 0.000, 0.000, 17:27:34.883
139, -34146.25, -6222.15, -38353.27, -4835.53, 0.000, 0.000, 0.000, 17:27:34.899
140, -34485.28, -6702.92, -38952.55, -5360.29, 0.000, 0.000, 0.000, 17:27:34.899
141, -34233.74, -6140.65, -38040.63, -4793.73, 0.000, 0.000, 0.000, 17:27:34.913
142, -33264.44, -5914.16, -37502.09, -4343.84, 0.000, 0.000, 0.000, 17:27:34.913
143, -34148.92, -6191.57, -38409.86, -4846.62, 0.000, 0.000, 0.000, 17:27:34.918
144, -34496.12, -6660.93, -39229.65, -5363.31, 0.000, 0.000, 0.000, 17:27:34.918
145, -34228.58, -6155.83, -38885.93, -4792.99, 0.000, 0.000, 0.000, 17:27:34.928
146, -33261.72, -5928.19, -38409.35, -4340.15, 0.000, 0.000, 0.000, 17:27:34.928
147, -34154.95, -6230.56, -38414.45, -4841.69, 0.000, 0.000, 0.000, 17:27:34.943
148, -34485.61, -6747.27, -38983.00, -5362.60, 0.000, 0.000, 0.000, 17:27:34.943
149, -34224.78, -6144.16, -38843.14, -4791.02, 0.000, 0.000, 0.000, 17:27:34.943
150, -33260.56, -5924.51, -38463.04, -4338.98, 0.000, 0.000, 0.000, 17:27:34.944
151, -34157.23, -6278.59, -39418.30, -4839.61, 0.000, 0.000, 0.000, 17:27:34.958
152, -34477.43, -6726.18, -39968.31, -5350.16, 0.000, 0.000, 0.000, 17:27:34.958
153, -34216.11, -6186.73, -39891.11, -4783.74, 0.000, 0.000, 0.000, 17:27:34.972
154, -33260.23, -5921.17, -39443.67, -4350.26, 0.000, 0.000, 0.000, 17:27:34.972
155, -34161.71, -6273.39, -39509.59, -4853.89, 0.000, 0.000, 0.000, 17:27:34.973
156, -34463.04, -6557.40, -40222.96, -5357.10, 0.000, 0.000, 0.000, 17:27:34.973
157, -34201.36, -6073.07, -39802.31, -4774.40, 0.000, 0.000, 0.000, 17:27:34.988
158, -33252.26, -5939.03, -39422.30, -4338.27, 0.000, 0.000, 0.000, 17:27:34.988
159, -34180.00, -6273.86, -39429.79, -4860.44, 0.000, 0.000, 0.000, 17:27:35.003
160, -34482.27, -6711.57, -40207.46, -5352.65, 0.000, 0.000, 0.000, 17:27:35.003
161, -34217.82, -6134.42, -39919.01, -4780.90, 0.000, 0.000, 0.000, 17:27:35.003
162, -33245.36, -5897.99, -39401.76, -4329.65, 0.000, 0.000, 0.000, 17:27:35.003
163, -34178.22, -6225.87, -40365.67, -4865.32, 0.000, 0.000, 0.000, 17:27:35.017
164, -34480.56, -6765.08, -41070.90, -5367.15, 0.000, 0.000, 0.000, 17:27:35.018
165, -34216.47, -6160.43, -40850.04, -4788.71, 0.000, 0.000, 0.000, 17:27:35.032
166, -33242.55, -5925.80, -40414.44, -4348.62, 0.000, 0.000, 0.000, 17:27:35.033
167, -34177.50, -6316.02, -40461.45, -4874.48, 0.000, 0.000, 0.000, 17:27:35.033
168, -34436.78, -6584.77, -41048.55, -5347.32, 0.000, 0.000, 0.000, 17:27:35.033
169, -34157.64, -6122.43, -40882.50, -4770.49, 0.000, 0.000, 0.000, 17:27:35.047
170, -33216.77, -5980.73, -40354.90, -4356.06, 0.000, 0.000, 0.000, 17:27:35.047
171, -34141.46, -6251.04, -40392.22, -4886.48, 0.000, 0.000, 0.000, 17:27:35.063
172, -34403.95, -6622.19, -41025.70, -5352.12, 0.000, 0.000, 0.000, 17:27:35.063
173, -34143.62, -6190.23, -40804.02, -4796.98, 0.000, 0.000, 0.000, 17:27:35.063
174, -33166.66, -5952.21, -40316.99, -4356.36, 0.000, 0.000, 0.000, 17:27:35.063
175, -34114.77, -6375.31, -40368.70, -4895.35, 0.000, 0.000, 0.000, 17:27:35.077
176, -34384.59, -6708.23, -41029.20, -5346.73, 0.000, 0.000, 0.000, 17:27:35.077
177, -34088.84, -6160.38, -40849.92, -4756.51, 0.000, 0.000, 0.000, 17:27:35.092
178, -33146.67, -5962.29, -40313.12, -4355.24, 0.000, 0.000, 0.000, 17:27:35.093
179, -34125.04, -6390.90, -40427.46, -4900.46, 0.000, 0.000, 0.000, 17:27:35.093
180, -34366.32, -6730.10, -41123.35, -5333.55, 0.000, 0.000, 0.000, 17:27:35.093
181, -34105.86, -6161.83, -40853.73, -4764.18, 0.000, 0.000, 0.000, 17:27:35.108
182, -33163.34, -5970.60, -40309.16, -4317.85, 0.000, 0.000, 0.000, 17:27:35.108
183, -34136.41, -6318.75, -40404.66, -4883.00, 0.000, 0.000, 0.000, 17:27:35.123
184, -34409.48, -6712.19, -41049.88, -5325.32, 0.000, 0.000, 0.000, 17:27:35.123
185, -34131.08, -6165.85, -40837.94, -4735.95, 0.000, 0.000, 0.000, 17:27:35.123
186, -33214.71, -5953.07, -40366.79, -4317.41, 0.000, 0.000, 0.000, 17:27:35.123
187, -34188.98, -6331.85, -40436.59, -4872.32, 0.000, 0.000, 0.000, 17:27:35.137
188, -34471.09, -6715.84, -41131.77, -5323.74, 0.000, 0.000, 0.000, 17:27:35.138
189, -34202.81, -6165.77, -40859.16, -4738.46, 0.000, 0.000, 0.000, 17:27:35.152
190, -33245.11, -5893.33, -40393.98, -4316.77, 0.000, 0.000, 0.000, 17:27:35.153
191, -34224.26, -6246.58, -40512.98, -4889.42, 0.000, 0.000, 0.000, 17:27:35.153
192, -34478.64, -6555.40, -41066.21, -5319.34, 0.000, 0.000, 0.000, 17:27:35.153
193, -34219.30, -6092.60, -40729.30, -4752.62, 0.000, 0.000, 0.000, 17:27:35.168
194, -33276.39, -5930.87, -40374.55, -4338.66, 0.000, 0.000, 0.000, 17:27:35.168
195, -34247.21, -6362.89, -40486.68, -4905.16, 0.000, 0.000, 0.000, 17:27:35.182
196, -34501.84, -6676.87, -41187.73, -5331.00, 0.000, 0.000, 0.000, 17:27:35.182
197, -34222.23, -6115.16, -40768.87, -4754.09, 0.000, 0.000, 0.000, 17:27:35.183
198, -33272.98, -5902.81, -40382.59, -4335.64, 0.000, 0.000, 0.000, 17:27:35.183
199, -33279.46, -6295.58, -40389.35, -4913.85, 0.000, 0.000, 0.000, 17:27:35.198
200, -33520.38, -6659.02, -41018.54, -5347.08, 0.000, 0.000, 0.000, 17:27:35.198
0, -3832.45, -4154.90, -3582.55, -2800.92, 0.000, 0.000, 0.000, 17:27:35.198
1, -2890.16, -3941.04, -3142.00, -2380.72, 0.000, 0.000, 0.000, 17:27:35.221
2, -2893.13, -4358.76, -3214.92, -2957.57, 0.000, 0.000, 0.000, 17:27:35.221
3, -3142.66, -4709.62, -3625.84, -3387.23, 0.000, 0.000, 0.000, 17:27:35.244
4, -2845.86, -4147.26, -3591.53, -2798.90, 0.000, 0.000, 0.000, 17:27:35.245
5, -1910.04, -3940.23, -3140.97, -2386.97, 0.000, 0.000, 0.000, 17:27:35.248
6, -1920.73, -4397.33, -3221.53, -2970.17, 0.000, 0.000, 0.000, 17:27:35.248
7, -2161.59, -4699.15, -3884.47, -3379.05, 0.000, 0.000, 0.000, 17:27:35.255
8, -1865.56, -4141.96, -3636.41, -2794.46, 0.000, 0.000, 0.000, 17:27:35.261
9, -911.10, -3935.19, -3138.92, -2374.58, 0.000, 0.000, 0.000, 17:27:35.265
10, -941.37, -4386.22, -3149.31, -2968.61, 0.000, 0.000, 0.000, 17:27:35.265
11, -1168.65, -4785.58, -3839.17, -3381.69, 0.000, 0.000, 0.000, 17:27:35.265
12, -871.61, -4172.31, -3599.08, -2788.39, 0.000, 0.000, 0.000, 17:27:35.265
13, 76.58, -3914.24, -3115.19, -2373.67, 0.000, 0.000, 0.000, 17:27:35.284
14, 42.11, -4352.32, -3201.91, -2970.56, 0.000, 0.000, 0.000, 17:27:35.284
15, -172.52, -4646.98, -3875.94, -3375.47, 0.000, 0.000, 0.000, 17:27:35.289
16, 113.19, -4133.63, -3534.59, -2786.23, 0.000, 0.000, 0.000, 17:27:35.289
17, 1049.87, -3911.34, -3118.81, -2378.67, 0.000, 0.000, 0.000, 17:27:35.290
18, 1021.41, -4304.10, -3156.08, -2980.84, 0.000, 0.000, 0.000, 17:27:35.290
19, 815.21, -4569.85, -3688.49, -3359.72, 0.000, 0.000, 0.000, 17:27:35.302
20, 1090.23, -4158.13, -3647.79, -2785.40, 0.000, 0.000, 0.000, 17:27:35.302
21, 2040.87, -3947.69, -3112.18, -2378.80, 0.000, 0.000, 0.000, 17:27:35.317
22, 2004.85, -4334.63, -3141.07, -2975.64, 0.000, 0.000, 0.000, 17:27:35.318
23, 1799.77, -4659.45, -3852.84, -3359.43, 0.000, 0.000, 0.000, 17:27:35.318
24, 2082.56, -4163.64, -3541.67, -2781.40, 0.000, 0.000, 0.000, 17:27:35.318
25, 3023.57, -3923.63, -3117.32, -2379.71, 0.000, 0.000, 0.000, 17:27:35.333
26, 2984.20, -4422.29, -3244.38, -2980.85, 0.000, 0.000, 0.000, 17:27:35.333
27, 2790.91, -4602.00, -3747.23, -3370.90, 0.000, 0.000, 0.000, 17:27:35.347
28, 3076.89, -4133.68, -3504.66, -2774.36, 0.000, 0.000, 0.000, 17:27:35.348
29, 4021.16, -3922.72, -3145.34, -2366.85, 0.000, 0.000, 0.000, 17:27:35.348
30, 3971.41, -4454.12, -3288.35, -2981.69, 0.000, 0.000, 0.000, 17:27:35.348
31, 3749.62, -4772.81, -3908.29, -3369.75, 0.000, 0.000, 0.000, 17:27:35.363
32, 4054.67, -4111.69, -3511.13, -2779.46, 0.000, 0.000, 0.000, 17:27:35.363
33, 4997.13, -3915.19, -3132.55, -2367.59, 0.000, 0.000, 0.000, 17:27:35.377
34, 4949.44, -4435.80, -3154.39, -2981.93, 0.000, 0.000, 0.000, 17:27:35.377
35, 4747.46, -4621.32, -3834.13, -3353.81, 0.000, 0.000, 0.000, 17:27:35.378
36, 5039.27, -4190.97, -3483.04, -2767.89, 0.000, 0.000, 0.000, 17:27:35.378
37, 5985.29, -3941.60, -3142.98, -2366.00, 0.000, 0.000, 0.000, 17:27:35.392
38, 5923.08, -4413.28, -3330.70, -2990.39, 0.000, 0.000, 0.000, 17:27:35.392
39, 5743.70, -4657.44, -3911.05, -3353.94, 0.000, 0.000, 0.000, 17:27:35.408
40, 6039.18, -4108.29, -3640.55, -2764.69, 0.000, 0.000, 0.000, 17:27:35.408
41, 6973.25, -3916.57, -3100.82, -2365.15, 0.000, 0.000, 0.000, 17:27:35.408
42, 6913.38, -4362.01, -3186.51, -2991.59, 0.000, 0.000, 0.000, 17:27:35.408
43, 6720.47, -4640.99, -3870.70, -3343.04, 0.000, 0.000, 0.000, 17:27:35.423
44, 7023.55, -4066.72, -3624.30, -2754.15, 0.000, 0.000, 0.000, 17:27:35.423
45, 7951.89, -3951.85, -3113.23, -2373.03, 0.000, 0.000, 0.000, 17:27:35.438
46, 7875.23, -4412.63, -3255.40, -3002.73, 0.000, 0.000, 0.000, 17:27:35.438
47, 7706.17, -4749.81, -3697.67, -3357.06, 0.000, 0.000, 0.000, 17:27:35.438
48, 8006.39, -4145.04, -3415.86, -2753.84, 0.000, 0.000, 0.000, 17:27:35.438
49, 8936.92, -3938.43, -3099.87, -2366.35, 0.000, 0.000, 0.000, 17:27:35.453
50, 8860.22, -4443.62, -3204.46, -3011.29, 0.000, 0.000, 0.000, 17:27:35.453
51, 8694.50, -4621.87, -3714.03, -3351.52, 0.000, 0.000, 0.000, 17:27:35.467
52, 8984.10, -4170.55, -3544.26, -2759.34, 0.000, 0.000, 0.000, 17:27:35.468
53, 9908.18, -3921.72, -3134.23, -2365.41, 0.000, 0.000, 0.000, 17:27:35.468
54, 9824.23, -4439.72, -3289.73, -3015.17, 0.000, 0.000, 0.000, 17:27:35.468
55, 9671.32, -4649.17, -3769.82, -3356.04, 0.000, 0.000, 0.000, 17:27:35.482
56, 9964.35, -4095.28, -3480.99, -2757.15, 0.000, 0.000, 0.000, 17:27:35.483
57, 10888.96, -3948.13, -3106.73, -2377.06, 0.000, 0.000, 0.000, 17:27:35.497
58, 10798.11, -4459.91, -3271.40, -3011.54, 0.000, 0.000, 0.000, 17:27:35.497
59, 10647.73, -4703.07, -3723.20, -3349.59, 0.000, 0.000, 0.000, 17:27:35.499
60, 10940.59, -4100.65, -3490.12, -2753.04, 0.000, 0.000, 0.000, 17:27:35.500
61, 11867.38, -3951.06, -3112.02, -2377.15, 0.000, 0.000, 0.000, 17:27:35.513
62, 11778.92, -4449.95, -3282.98, -3018.54, 0.000, 0.000, 0.000, 17:27:35.513
63, 11630.25, -4673.26, -3703.03, -3335.64, 0.000, 0.000, 0.000, 17:27:35.527
64, 11920.51, -4154.08, -3572.12, -2761.66, 0.000, 0.000, 0.000, 17:27:35.528
65, 12862.59, -3932.34, -3112.69, -2365.76, 0.000, 0.000, 0.000, 17:27:35.528
66, 12768.84, -4443.22, -3171.07, -3011.27, 0.000, 0.000, 0.000, 17:27:35.528
67, 12610.44, -4730.21, -3731.98, -3351.46, 0.000, 0.000, 0.000, 17:27:35.542
68, 12906.05, -4146.52, -3601.01, -2755.50, 0.000, 0.000, 0.000, 17:27:35.543
69, 13865.48, -3900.06, -3101.86, -2346.76, 0.000, 0.000, 0.000, 17:27:35.557
70, 13750.07, -4415.80, -3335.11, -3015.36, 0.000, 0.000, 0.000, 17:27:35.557
71, 13566.46, -4707.73, -3696.91, -3370.12, 0.000, 0.000, 0.000, 17:27:35.558
72, 13887.35, -4135.51, -3555.01, -2758.88, 0.000, 0.000, 0.000, 17:27:35.558
73, 14857.17, -3897.07, -3085.01, -2328.45, 0.000, 0.000, 0.000, 17:27:35.573
74, 14738.42, -4400.00, -3321.63, -3012.93, 0.000, 0.000, 0.000, 17:27:35.573
75, 14548.38, -4681.18, -3675.80, -3381.19, 0.000, 0.000, 0.000, 17:27:35.588
76, 14858.63, -4109.89, -3552.30, -2767.45, 0.000, 0.000, 0.000, 17:27:35.588
77, 14884.68, -3877.21, -3081.46, -2302.13, 0.000, 0.000, 0.000, 17:27:35.588
78, 14764.43, -4432.19, -3246.73, -2999.41, 0.000, 0.000, 0.000, 17:27:35.588
79, 14524.88, -4759.80, -3908.81, -3405.46, 0.000, 0.000, 0.000, 17:27:35.609
80, 14850.46, -4110.42, -3501.25, -2772.47, 0.000, 0.000, 0.000, 17:27:35.609
81, 14893.23, -3872.25, -3064.35, -2297.60, 0.000, 0.000, 0.000, 17:27:35.618
82, 14755.88, -4427.57, -3245.57, -3006.63, 0.000, 0.000, 0.000, 17:27:35.618
83, 14504.29, -4814.93, -3785.44, -3421.00, 0.000, 0.000, 0.000, 17:27:35.618
84, 14835.45, -4182.29, -3587.47, -2773.45, 0.000, 0.000, 0.000, 17:27:35.618
85, 14899.58, -3909.57, -3081.52, -2295.79, 0.000, 0.000, 0.000, 17:27:35.633
86, 14770.78, -4478.39, -3310.42, -3014.20, 0.000, 0.000, 0.000, 17:27:35.633
87, 14557.33, -4798.39, -3802.57, -3426.38, 0.000, 0.000, 0.000, 17:27:35.647
88, 14934.58, -4165.61, -3523.31, -2770.17, 0.000, 0.000, 0.000, 17:27:35.648
89, 15036.50, -3799.82, -2946.92, -2271.03, 0.000, 0.000, 0.000, 17:27:35.648
90, 14890.60, -4403.96, -3083.24, -3012.92, 0.000, 0.000, 0.000, 17:27:35.648
91, 14652.56, -4770.80, -3557.60, -3433.77, 0.000, 0.000, 0.000, 17:27:35.662
92, 15010.08, -4138.70, -3481.24, -2783.65, 0.000, 0.000, 0.000, 17:27:35.662
93, 15104.68, -3822.02, -2926.66, -2285.70, 0.000, 0.000, 0.000, 17:27:35.677
94, 14916.16, -4470.11, -3226.38, -3050.21, 0.000, 0.000, 0.000, 17:27:35.677
95, 14678.53, -4740.00, -3768.06, -3464.18, 0.000, 0.000, 0.000, 17:27:35.678
96, 15019.31, -4141.50, -3478.60, -2796.42, 0.000, 0.000, 0.000, 17:27:35.678
97, 15075.41, -3809.42, -2894.19, -2300.42, 0.000, 0.000, 0.000, 17:27:35.693
98, 14859.78, -4406.02, -3124.02, -3079.06, 0.000, 0.000, 0.000, 17:27:35.693
99, 14588.86, -4717.10, -3733.89, -3490.04, 0.000, 0.000, 0.000, 17:27:35.708
100, 14933.27, -4134.79, -3436.53, -2805.66, 0.000, 0.000, 0.000, 17:27:35.708
101, 14991.91, -3763.96, -2898.28, -2309.80, 0.000, 0.000, 0.000, 17:27:35.708
102, 14768.62, -4384.14, -3228.07, -3084.97, 0.000, 0.000, 0.000, 17:27:35.708
103, 14506.55, -4793.10, -3693.45, -3500.38, 0.000, 0.000, 0.000, 17:27:35.722
104, 14862.84, -4088.36, -3473.37, -2807.93, 0.000, 0.000, 0.000, 17:27:35.722
105, 14927.05, -3751.12, -2920.57, -2302.34, 0.000, 0.000, 0.000, 17:27:35.738
106, 14693.01, -4402.81, -3207.86, -3098.82, 0.000, 0.000, 0.000, 17:27:35.738
107, 14470.29, -4718.77, -3808.55, -3477.00, 0.000, 0.000, 0.000, 17:27:35.738
108, 14826.80, -4056.36, -3433.30, -2782.35, 0.000, 0.000, 0.000, 17:27:35.738
109, 14914.30, -3732.44, -2937.13, -2283.88, 0.000, 0.000, 0.000, 17:27:35.753
110, 14669.54, -4399.74, -3234.55, -3087.74, 0.000, 0.000, 0.000, 17:27:35.753
111, 14443.63, -4724.68, -3807.58, -3462.66, 0.000, 0.000, 0.000, 17:27:35.768
112, 14812.57, -4058.98, -3506.23, -2789.56, 0.000, 0.000, 0.000, 17:27:35.768
113, 14883.45, -3728.16, -2964.93, -2283.20, 0.000, 0.000, 0.000, 17:27:35.768
114, 14645.20, -4371.19, -3265.29, -3073.82, 0.000, 0.000, 0.000, 17:27:35.768
115, 14427.93, -4738.69, -3715.39, -3463.61, 0.000, 0.000, 0.000, 17:27:35.797
116, 14799.81, -4051.76, -3581.13, -2778.58, 0.000, 0.000, 0.000, 17:27:35.798
117, 14877.23, -3752.80, -2997.47, -2273.01, 0.000, 0.000, 0.000, 17:27:35.798
118, 14643.80, -4423.40, -3190.62, -3076.80, 0.000, 0.000, 0.000, 17:27:35.798
119, 14411.86, -4719.69, -3893.11, -3454.74, 0.000, 0.000, 0.000, 17:27:35.799
120, 14811.14, -4070.90, -3572.81, -2761.58, 0.000, 0.000, 0.000, 17:27:35.799
121, 14888.64, -3739.11, -3000.74, -2262.47, 0.000, 0.000, 0.000, 17:27:35.812
122, 14650.30, -4432.17, -3213.34, -3076.05, 0.000, 0.000, 0.000, 17:27:35.812
123, 14440.68, -4694.57, -3827.88, -3437.95, 0.000, 0.000, 0.000, 17:27:35.827
124, 14807.26, -4110.31, -3555.13, -2767.38, 0.000, 0.000, 0.000, 17:27:35.827
125, 14883.17, -3786.21, -3021.34, -2275.93, 0.000, 0.000, 0.000, 17:27:35.828
126, 14665.14, -4482.24, -3328.80, -3075.41, 0.000, 0.000, 0.000, 17:27:35.828
127, 14465.54, -4685.87, -3790.36, -3432.36, 0.000, 0.000, 0.000, 17:27:35.843
128, 14829.61, -4072.11, -3567.02, -2755.22, 0.000, 0.000, 0.000, 17:27:35.843
129, 14895.39, -3811.95, -2980.08, -2276.13, 0.000, 0.000, 0.000, 17:27:35.857
130, 14662.97, -4421.67, -3329.00, -3079.04, 0.000, 0.000, 0.000, 17:27:35.857
131, 14473.33, -4729.56, -3707.78, -3431.10, 0.000, 0.000, 0.000, 17:27:35.857
132, 14829.28, -4144.46, -3611.16, -2766.56, 0.000, 0.000, 0.000, 17:27:35.857
133, 14879.51, -3810.83, -3029.58, -2285.28, 0.000, 0.000, 0.000, 17:27:35.872
134, 14672.23, -4449.69, -3236.70, -3067.10, 0.000, 0.000, 0.000, 17:27:35.872
135, 14487.96, -4728.33, -3687.85, -3423.02, 0.000, 0.000, 0.000, 17:27:35.887
136, 14824.37, -4183.72, -3597.22, -2767.03, 0.000, 0.000, 0.000, 17:27:35.887
137, 14877.57, -3817.07, -3044.67, -2301.61, 0.000, 0.000, 0.000, 17:27:35.887
138, 14671.14, -4413.40, -3273.48, -3066.94, 0.000, 0.000, 0.000, 17:27:35.888
139, 14501.68, -4727.76, -3729.95, -3402.85, 0.000, 0.000, 0.000, 17:27:35.903
140, 14845.86, -4113.80, -3594.19, -2754.95, 0.000, 0.000, 0.000, 17:27:35.903
141, 14879.29, -3820.58, -3031.13, -2302.53, 0.000, 0.000, 0.000, 17:27:35.918
142, 14673.45, -4489.25, -3334.01, -3080.23, 0.000, 0.000, 0.000, 17:27:35.918
143, 14514.87, -4689.48, -3938.39, -3404.45, 0.000, 0.000, 0.000, 17:27:35.918
144, 14861.36, -4092.96, -3511.43, -2749.79, 0.000, 0.000, 0.000, 17:27:35.918
145, 14871.60, -3857.81, -3040.47, -2308.75, 0.000, 0.000, 0.000, 17:27:35.933
146, 14689.71, -4451.87, -3320.42, -3065.70, 0.000, 0.000, 0.000, 17:27:35.933
147, 14533.53, -4711.22, -3738.73, -3387.08, 0.000, 0.000, 0.000, 17:27:35.948
148, 14861.16, -4102.57, -3550.34, -2746.06, 0.000, 0.000, 0.000, 17:27:35.948
149, 14880.60, -3853.63, -3051.22, -2307.31, 0.000, 0.000, 0.000, 17:27:35.949
150, 14690.34, -4487.45, -3362.56, -3068.60, 0.000, 0.000, 0.000, 17:27:35.949
151, 14542.24, -4769.93, -3907.30, -3386.10, 0.000, 0.000, 0.000, 17:27:35.979
152, 14868.00, -4074.47, -3533.51, -2752.85, 0.000, 0.000, 0.000, 17:27:35.979
153, 15848.24, -3847.91, -3069.90, -2311.27, 0.000, 0.000, 0.000, 17:27:35.979
154, 15677.47, -4469.39, -3231.67, -3050.24, 0.000, 0.000, 0.000, 17:27:35.979
155, 15539.33, -4594.51, -3807.54, -3369.23, 0.000, 0.000, 0.000, 17:27:35.979
156, 15858.37, -4052.07, -3535.19, -2744.88, 0.000, 0.000, 0.000, 17:27:35.980
157, 16829.15, -3887.43, -3042.33, -2313.82, 0.000, 0.000, 0.000, 17:27:36.002
158, 16645.75, -4537.00, -3324.56, -3057.12, 0.000, 0.000, 0.000, 17:27:36.002
159, 16511.32, -4791.35, -3735.97, -3375.69, 0.000, 0.000, 0.000, 17:27:36.008
160, 16820.51, -4157.23, -3617.89, -2753.56, 0.000, 0.000, 0.000, 17:27:36.009
161, 17788.86, -3900.39, -3084.81, -2343.70, 0.000, 0.000, 0.000, 17:27:36.009
162, 17639.02, -4401.89, -3244.63, -3047.98, 0.000, 0.000, 0.000, 17:27:36.009
163, 17515.16, -4723.74, -3755.05, -3352.04, 0.000, 0.000, 0.000, 17:27:36.023
164, 17808.94, -4155.16, -3622.93, -2750.84, 0.000, 0.000, 0.000, 17:27:36.023
165, 18751.92, -3928.20, -3102.12, -2346.46, 0.000, 0.000, 0.000, 17:27:36.038
166, 18617.00, -4398.01, -3315.48, -3048.40, 0.000, 0.000, 0.000, 17:27:36.038
167, 18516.52, -4669.58, -3685.73, -3339.62, 0.000, 0.000, 0.000, 17:27:36.038
168, 18796.17, -4177.21, -3535.62, -2745.82, 0.000, 0.000, 0.000, 17:27:36.038
169, 19714.13, -3931.20, -3120.86, -2363.95, 0.000, 0.000, 0.000, 17:27:36.053
170, 19602.97, -4447.87, -3262.74, -3047.47, 0.000, 0.000, 0.000, 17:27:36.053
171, 19501.11, -4636.42, -3860.68, -3342.39, 0.000, 0.000, 0.000, 17:27:36.068
172, 19767.67, -4132.78, -3522.17, -2755.68, 0.000, 0.000, 0.000, 17:27:36.068
173, 20679.37, -3944.69, -3112.81, -2380.83, 0.000, 0.000, 0.000, 17:27:36.069
174, 20590.04, -4480.61, -3186.82, -3046.38, 0.000, 0.000, 0.000, 17:27:36.069
175, 20501.79, -4641.97, -3617.02, -3322.77, 0.000, 0.000, 0.000, 17:27:36.083
176, 20764.46, -4081.98, -3605.60, -2749.30, 0.000, 0.000, 0.000, 17:27:36.083
177, 21643.33, -3948.16, -3128.17, -2385.41, 0.000, 0.000, 0.000, 17:27:36.098
178, 21561.95, -4473.70, -3303.68, -3034.69, 0.000, 0.000, 0.000, 17:27:36.098
179, 21486.38, -4701.88, -3757.33, -3320.88, 0.000, 0.000, 0.000, 17:27:36.099
180, 21744.80, -4085.62, -3498.73, -2756.02, 0.000, 0.000, 0.000, 17:27:36.099
181, 22619.67, -3975.33, -3138.09, -2396.59, 0.000, 0.000, 0.000, 17:27:36.113
182, 22539.72, -4511.61, -3266.57, -3034.94, 0.000, 0.000, 0.000, 17:27:36.113
183, 22497.12, -4611.71, -3639.74, -3297.07, 0.000, 0.000, 0.000, 17:27:36.127
184, 22722.55, -4044.29, -3581.21, -2749.22, 0.000, 0.000, 0.000, 17:27:36.127
185, 23576.44, -3984.77, -3142.73, -2419.71, 0.000, 0.000, 0.000, 17:27:36.128
186, 23530.08, -4465.50, -3299.86, -3033.54, 0.000, 0.000, 0.000, 17:27:36.128
187, 23485.40, -4572.69, -3615.75, -3288.37, 0.000, 0.000, 0.000, 17:27:36.143
188, 23708.95, -4110.73, -3596.03, -2759.12, 0.000, 0.000, 0.000, 17:27:36.143
189, 24548.72, -4012.13, -3166.96, -2422.95, 0.000, 0.000, 0.000, 17:27:36.157
190, 24514.77, -4467.04, -3340.11, -3024.49, 0.000, 0.000, 0.000, 17:27:36.157
191, 24480.79, -4683.69, -3765.76, -3273.13, 0.000, 0.000, 0.000, 17:27:36.158
192, 24693.57, -4166.25, -3513.55, -2750.58, 0.000, 0.000, 0.000, 17:27:36.158
193, 25515.01, -4005.90, -3182.62, -2442.54, 0.000, 0.000, 0.000, 17:27:36.172
194, 25495.57, -4491.83, -4157.88, -3025.24, 0.000, 0.000, 0.000, 17:27:36.172
195, 25481.93, -4602.73, -4557.94, -3259.81, 0.000, 0.000, 0.000, 17:27:36.188
196, 25680.93, -3989.33, -4476.69, -2751.27, 0.000, 0.000, 0.000, 17:27:36.188
197, 26476.59, -3042.75, -4176.95, -2454.84, 0.000, 0.000, 0.000, 17:27:36.188
198, 25498.38, -3379.80, -4237.25, -3022.87, 0.000, 0.000, 0.000, 17:27:36.188
199, 25487.51, -3609.95, -4654.63, -3256.06, 0.000, 0.000, 0.000, 17:27:36.217
200, 25650.37, -3210.19, -4607.99, -2775.07, 0.000, 0.000, 0.000, 17:27:36.217
0, -1003.36, -1120.18, -1279.71, -513.18, 0.000, 0.000, 0.000, 17:27:36.217
1, -1003.58, -1597.08, -2237.27, -1073.81, 0.000, 0.000, 0.000, 17:27:36.219
2, -1961.28, -2574.45, -2730.47, -1291.96, 0.000, 0.000, 0.000, 17:27:36.219
3, -1782.91, -2135.02, -2574.74, -804.52, 0.000, 0.000, 0.000, 17:27:36.219
4, -999.92, -2091.18, -2272.18, -520.97, 0.000, 0.000, 0.000, 17:27:36.220
5, -1956.47, -2468.52, -2366.66, -1058.19, 0.000, 0.000, 0.000, 17:27:36.233
6, -2914.64, -2586.39, -2777.65, -1262.51, 0.000, 0.000, 0.000, 17:27:36.233
7, -2753.47, -2099.53, -2444.23, -789.09, 0.000, 0.000, 0.000, 17:27:36.248
8, -1999.92, -1135.50, -2202.88, -536.40, 0.000, 0.000, 0.000, 17:27:36.248
9, -2943.92, -1544.27, -2231.61, -1062.65, 0.000, 0.000, 0.000, 17:27:36.263
10, -3885.60, -1619.70, -2591.45, -1284.06, 0.000, 0.000, 0.000, 17:27:36.263
11, -3758.96, -1148.29, -2578.77, -838.47, 0.000, 0.000, 0.000, 17:27:36.263
12, -3012.39, -182.25, -2279.68, -537.06, 0.000, 0.000, 0.000, 17:27:36.264
13, -3943.17, -492.53, -3193.87, -1048.31, 0.000, 0.000, 0.000, 17:27:36.277
14, -4876.41, -1397.55, -3665.79, -1216.55, 0.000, 0.000, 0.000, 17:27:36.277
15, -4736.08, -1146.92, -3661.21, -780.61, 0.000, 0.000, 0.000, 17:27:36.292
16, -4027.03, -182.96, -3303.76, -537.51, 0.000, 0.000, 0.000, 17:27:36.292
17, -4946.97, -455.17, -3358.32, -1030.10, 0.000, 0.000, 0.000, 17:27:36.293
18, -5881.28, -629.57, -3631.77, -1221.62, 0.000, 0.000, 0.000, 17:27:36.293
19, -5749.10, -128.21, -3570.98, -773.92, 0.000, 0.000, 0.000, 17:27:36.314
20, -5041.91, 814.70, -3295.17, -546.25, 0.000, 0.000, 0.000, 17:27:36.314
21, -5917.09, 440.58, -3303.59, -1012.54, 0.000, 0.000, 0.000, 17:27:36.323
22, -6830.45, 435.95, -3676.62, -1208.15, 0.000, 0.000, 0.000, 17:27:36.323
23, -6721.36, 913.27, -3551.65, -789.85, 0.000, 0.000, 0.000, 17:27:36.323
24, -6032.52, 1736.61, -3353.90, -576.29, 0.000, 0.000, 0.000, 17:27:36.323
25, -6896.03, 1477.89, -4256.00, -1030.61, 0.000, 0.000, 0.000, 17:27:36.338
26, -7769.27, 1470.44, -4521.51, -1190.74, 0.000, 0.000, 0.000, 17:27:36.338
27, -7683.27, 1817.86, -3637.77, -794.62, 0.000, 0.000, 0.000, 17:27:36.353
28, -7020.42, 2686.30, -3360.34, -606.62, 0.000, 0.000, 0.000, 17:27:36.353
29, -7866.35, 2355.73, -4292.54, -1039.35, 0.000, 0.000, 0.000, 17:27:36.355
30, -8740.54, 1461.52, -4485.11, -1187.14, 0.000, 0.000, 0.000, 17:27:36.355
31, -8667.48, 1755.10, -3637.24, -804.70, 0.000, 0.000, 0.000, 17:27:36.367
32, -8004.78, 2672.56, -3311.84, -623.42, 0.000, 0.000, 0.000, 17:27:36.367
33, -8848.32, 2343.67, -4276.47, -1043.60, 0.000, 0.000, 0.000, 17:27:36.383
34, -9705.83, 1465.48, -4630.16, -1182.02, 0.000, 0.000, 0.000, 17:27:36.383
35, -9629.74, 1791.38, -4431.37, -798.35, 0.000, 0.000, 0.000, 17:27:36.383
36, -8999.60, 2686.03, -4283.12, -641.96, 0.000, 0.000, 0.000, 17:27:36.383
37, -9818.91, 2344.90, -5164.55, -1041.01, 0.000, 0.000, 0.000, 17:27:36.398
38, -10652.69, 1567.85, -5498.13, -1171.06, 0.000, 0.000, 0.000, 17:27:36.398
39, -10603.27, 1743.62, -4586.02, -801.58, 0.000, 0.000, 0.000, 17:27:36.412
40, -9973.02, 2648.29, -4365.25, -652.34, 0.000, 0.000, 0.000, 17:27:36.413
41, -10791.30, 2457.77, -5307.56, -1031.11, 0.000, 0.000, 0.000, 17:27:36.413
42, -11626.38, 2440.65, -5539.96, -1157.55, 0.000, 0.000, 0.000, 17:27:36.413
43, -11585.32, 2804.93, -5533.51, -814.14, 0.000, 0.000, 0.000, 17:27:36.428
44, -10980.56, 3617.02, -5345.64, -681.54, 0.000, 0.000, 0.000, 17:27:36.428
45, -11758.84, 3364.17, -6212.78, -1017.81, 0.000, 0.000, 0.000, 17:27:36.443
46, -12561.26, 2472.92, -6436.34, -1104.61, 0.000, 0.000, 0.000, 17:27:36.443
47, -12541.25, 2814.17, -6414.83, -792.94, 0.000, 0.000, 0.000, 17:27:36.443
48, -11970.15, 3595.71, -6327.13, -687.01, 0.000, 0.000, 0.000, 17:27:36.443
49, -12726.75, 3383.75, -7103.65, -1022.10, 0.000, 0.000, 0.000, 17:27:36.457
50, -13537.83, 2474.18, -7444.81, -1117.73, 0.000, 0.000, 0.000, 17:27:36.457
51, -13532.21, 2722.40, -7434.23, -807.73, 0.000, 0.000, 0.000, 17:27:36.472
52, -12944.13, 3610.67, -7312.56, -697.92, 0.000, 0.000, 0.000, 17:27:36.473
53, -13710.35, 3504.76, -8130.08, -1021.47, 0.000, 0.000, 0.000, 17:27:36.473
54, -14522.89, 2537.75, -8402.18, -1128.91, 0.000, 0.000, 0.000, 17:27:36.473
55, -14512.54, 2746.22, -7480.72, -799.03, 0.000, 0.000, 0.000, 17:27:36.488
56, -13927.13, 3599.43, -7307.49, -684.94, 0.000, 0.000, 0.000, 17:27:36.488
57, -14707.60, 3360.22, -8201.76, -1029.46, 0.000, 0.000, 0.000, 17:27:36.517
58, -15518.60, 2412.13, -8571.46, -1130.31, 0.000, 0.000, 0.000, 17:27:36.517
59, -15487.60, 2829.19, -8444.89, -798.67, 0.000, 0.000, 0.000, 17:27:36.518
60, -14888.23, 3664.21, -8258.77, -670.04, 0.000, 0.000, 0.000, 17:27:36.518
61, -15689.06, 3431.15, -9142.71, -1035.34, 0.000, 0.000, 0.000, 17:27:36.519
62, -16489.28, 2498.16, -9422.02, -1130.69, 0.000, 0.000, 0.000, 17:27:36.519
63, -16455.87, 2818.34, -9309.90, -800.66, 0.000, 0.000, 0.000, 17:27:36.520
64, -15799.32, 3727.45, -9176.56, -602.23, 0.000, 0.000, 0.000, 17:27:36.520
65, -16161.45, 2887.69, -9399.49, -1475.62, 0.000, 0.000, 0.000, 17:27:36.548
66, -16561.70, 2582.78, -10178.00, -1813.83, 0.000, 0.000, 0.000, 17:27:36.549
67, -15632.73, 2614.35, -9340.58, -1619.13, 0.000, 0.000, 0.000, 17:27:36.549
68, -14940.28, 3544.53, -8584.72, -842.37, 0.000, 0.000, 0.000, 17:27:36.549
69, -15742.52, 3395.40, -9325.15, -1301.41, 0.000, 0.000, 0.000, 17:27:36.562
70, -16370.15, 2739.39, -10046.91, -1761.42, 0.000, 0.000, 0.000, 17:27:36.562
71, -15512.91, 2772.03, -9293.53, -1605.36, 0.000, 0.000, 0.000, 17:27:36.563
72, -14864.07, 3584.12, -8553.18, -846.94, 0.000, 0.000, 0.000, 17:27:36.563
73, -15730.37, 3356.05, -9171.40, -1335.74, 0.000, 0.000, 0.000, 17:27:36.579
74, -16360.24, 2737.22, -10001.25, -1766.16, 0.000, 0.000, 0.000, 17:27:36.579
75, -15497.18, 3700.11, -9375.30, -1591.22, 0.000, 0.000, 0.000, 17:27:36.594
76, -14842.63, 4582.18, -8553.47, -845.73, 0.000, 0.000, 0.000, 17:27:36.595
77, -15743.00, 4205.30, -9259.33, -1352.54, 0.000, 0.000, 0.000, 17:27:36.596
78, -16374.66, 3585.09, -9890.29, -1778.17, 0.000, 0.000, 0.000, 17:27:36.596
79, -15490.28, 3705.26, -9376.64, -1593.91, 0.000, 0.000, 0.000, 17:27:36.608
80, -14827.30, 4607.25, -8525.36, -838.56, 0.000, 0.000, 0.000, 17:27:36.608
81, -15772.44, 4184.28, -9356.06, -1371.45, 0.000, 0.000, 0.000, 17:27:36.622
82, -16410.72, 3591.61, -10139.53, -1800.12, 0.000, 0.000, 0.000, 17:27:36.622
83, -15495.93, 3790.56, -9345.36, -1593.34, 0.000, 0.000, 0.000, 17:27:36.625
84, -14807.92, 4652.40, -8515.03, -821.52, 0.000, 0.000, 0.000, 17:27:36.625
85, -14808.91, 4263.52, -9202.43, -1388.14, 0.000, 0.000, 0.000, 17:27:36.638
86, -15434.86, 3593.03, -9922.40, -1805.29, 0.000, 0.000, 0.000, 17:27:36.639
87, -14510.42, 3755.26, -9418.35, -1584.89, 0.000, 0.000, 0.000, 17:27:36.652
88, -13834.70, 4630.58, -8545.78, -823.04, 0.000, 0.000, 0.000, 17:27:36.652
89, -13854.75, 4152.88, -9400.81, -1407.49, 0.000, 0.000, 0.000, 17:27:36.654
90, -14453.07, 3643.80, -10090.43, -1799.86, 0.000, 0.000, 0.000, 17:27:36.654
91, -13506.01, 3769.71, -9377.65, -1569.70, 0.000, 0.000, 0.000, 17:27:36.667
92, -12863.25, 4619.52, -8514.20, -847.68, 0.000, 0.000, 0.000, 17:27:36.667
93, -12890.96, 4157.72, -9343.15, -1423.00, 0.000, 0.000, 0.000, 17:27:36.683
94, -13473.65, 3653.01, -10012.60, -1793.26, 0.000, 0.000, 0.000, 17:27:36.683
95, -12522.35, 3818.23, -9253.87, -1558.95, 0.000, 0.000, 0.000, 17:27:36.684
96, -11885.20, 4616.73, -8546.11, -847.03, 0.000, 0.000, 0.000, 17:27:36.684
97, -11924.19, 4191.85, -9234.56, -1416.15, 0.000, 0.000, 0.000, 17:27:36.697
98, -12455.52, 3694.32, -10062.43, -1747.56, 0.000, 0.000, 0.000, 17:27:36.698
99, -11510.59, 3805.57, -9388.90, -1543.29, 0.000, 0.000, 0.000, 17:27:36.712
100, -10985.57, 4516.67, -8624.91, -932.00, 0.000, 0.000, 0.000, 17:27:36.712
101, -11942.15, 4101.61, -9372.68, -1424.56, 0.000, 0.000, 0.000, 17:27:36.713
102, -12287.52, 3874.49, -9831.46, -1608.21, 0.000, 0.000, 0.000, 17:27:36.713
103, -11459.05, 3899.09, -9255.89, -1526.84, 0.000, 0.000, 0.000, 17:27:36.728
104, -11188.44, 4318.11, -8779.05, -1111.03, 0.000, 0.000, 0.000, 17:27:36.728
105, -11967.10, 4151.12, -9262.30, -1423.13, 0.000, 0.000, 0.000, 17:27:36.742
106, -12121.79, 3990.61, -9535.76, -1452.58, 0.000, 0.000, 0.000, 17:27:36.742
107, -11450.92, 4870.64, -9325.10, -549.31, 0.000, 0.000, 0.000, 17:27:36.742
108, -11366.04, 5181.03, -8903.94, -288.47, 0.000, 0.000, 0.000, 17:27:36.743
109, -11987.63, 5123.92, -9294.49, -409.51, 0.000, 0.000, 0.000, 17:27:36.758
110, -12035.65, 5100.60, -9496.57, -1358.00, 0.000, 0.000, 0.000, 17:27:36.758
111, -11443.62, 5914.02, -9203.42, -557.41, 0.000, 0.000, 0.000, 17:27:36.772
112, -10512.40, 6020.10, -9018.44, -402.49, 0.000, 0.000, 0.000, 17:27:36.773
113, -11000.48, 5095.31, -9288.72, -1354.48, 0.000, 0.000, 0.000, 17:27:36.780
114, -11909.47, 4282.81, -9422.28, -2246.73, 0.000, 0.000, 0.000, 17:27:36.780
115, -11418.34, 4891.01, -9330.47, -1544.73, 0.000, 0.000, 0.000, 17:27:36.787
116, -10627.99, 4894.13, -9102.78, -1485.77, 0.000, 0.000, 0.000, 17:27:36.787
117, -10990.30, 4146.17, -9387.15, -2302.34, 0.000, 0.000, 0.000, 17:27:36.803
118, -11793.80, 3340.15, -9389.46, -3125.35, 0.000, 0.000, 0.000, 17:27:36.803
119, -11425.48, 3913.66, -9259.39, -2553.73, 0.000, 0.000, 0.000, 17:27:36.804
120, -10792.63, 4726.91, -9249.40, -1618.10, 0.000, 0.000, 0.000, 17:27:36.804
121, -10825.88, 4331.21, -10161.31, -2133.72, 0.000, 0.000, 0.000, 17:27:36.834
122, -11584.56, 3506.42, -10163.86, -3010.97, 0.000, 0.000, 0.000, 17:27:36.834
123, -10645.65, 3710.79, -9505.39, -2774.52, 0.000, 0.000, 0.000, 17:27:36.834
124, -10498.47, 4058.64, -8766.50, -2123.83, 0.000, 0.000, 0.000, 17:27:36.834
125, -10612.08, 3534.74, -8990.87, -2742.09, 0.000, 0.000, 0.000, 17:27:36.834
126, -11554.55, 2570.89, -9603.70, -3251.90, 0.000, 0.000, 0.000, 17:27:36.835
127, -11312.81, 3037.88, -9260.16, -2752.48, 0.000, 0.000, 0.000, 17:27:36.850
128, -11037.39, 3480.87, -9174.75, -2657.83, 0.000, 0.000, 0.000, 17:27:36.850
129, -11868.01, 3228.51, -10086.66, -2849.49, 0.000, 0.000, 0.000, 17:27:36.863
130, -12582.72, 2481.36, -10529.32, -3204.09, 0.000, 0.000, 0.000, 17:27:36.863
131, -12351.10, 2980.26, -10277.12, -2789.92, 0.000, 0.000, 0.000, 17:27:36.863
132, -12158.60, 3362.51, -9324.13, -2760.21, 0.000, 0.000, 0.000, 17:27:36.863
133, -12835.06, 3319.00, -10140.09, -2803.32, 0.000, 0.000, 0.000, 17:27:36.878
134, -13489.37, 2526.96, -10431.34, -3138.69, 0.000, 0.000, 0.000, 17:27:36.878
135, -12570.92, 2784.25, -10401.21, -2942.12, 0.000, 0.000, 0.000, 17:27:36.892
136, -11936.49, 3617.42, -10085.38, -2554.69, 0.000, 0.000, 0.000, 17:27:36.892
137, -12624.86, 3454.66, -10960.24, -2732.18, 0.000, 0.000, 0.000, 17:27:36.893
138, -13058.21, 3048.30, -11844.90, -3583.24, 0.000, 0.000, 0.000, 17:27:36.893
139, -12550.33, 3796.45, -11397.78, -2796.15, 0.000, 0.000, 0.000, 17:27:36.907
140, -12439.98, 4030.27, -10783.37, -2183.75, 0.000, 0.000, 0.000, 17:27:36.907
141, -12761.80, 3300.84, -11036.79, -2934.29, 0.000, 0.000, 0.000, 17:27:36.922
142, -13188.57, 2898.58, -11967.69, -3642.48, 0.000, 0.000, 0.000, 17:27:36.922
143, -12406.80, 3874.69, -11286.42, -2672.51, 0.000, 0.000, 0.000, 17:27:36.922
144, -12376.93, 4102.92, -10766.56, -2186.23, 0.000, 0.000, 0.000, 17:27:36.923
145, -12825.46, 3287.43, -11079.49, -3008.34, 0.000, 0.000, 0.000, 17:27:36.937
146, -13150.88, 2975.46, -11894.74, -3584.72, 0.000, 0.000, 0.000, 17:27:36.937
147, -12390.72, 3952.73, -11246.88, -2660.94, 0.000, 0.000, 0.000, 17:27:36.953
148, -11458.88, 4011.95, -10824.03, -2253.99, 0.000, 0.000, 0.000, 17:27:36.954
149, -11847.06, 3330.59, -11045.22, -2999.43, 0.000, 0.000, 0.000, 17:27:36.954
150, -12115.51, 3021.80, -11876.82, -3543.45, 0.000, 0.000, 0.000, 17:27:36.954
151, -11402.00, 3947.54, -11285.19, -2666.49, 0.000, 0.000, 0.000, 17:27:36.969
152, -10544.05, 3962.72, -10900.00, -2311.24, 0.000, 0.000, 0.000, 17:27:36.969
153, -10857.62, 3322.35, -11090.46, -2964.80, 0.000, 0.000, 0.000, 17:27:36.983
154, -11064.81, 3128.60, -11790.61, -3476.24, 0.000, 0.000, 0.000, 17:27:36.983
155, -10418.40, 3926.41, -11273.58, -2665.54, 0.000, 0.000, 0.000, 17:27:36.983
156, -9639.93, 4832.80, -10924.79, -2379.91, 0.000, 0.000, 0.000, 17:27:36.983
157, -9860.30, 4300.60, -10996.81, -2932.56, 0.000, 0.000, 0.000, 17:27:36.998
158, -10019.69, 4095.25, -11603.35, -3432.53, 0.000, 0.000, 0.000, 17:27:36.998
159, -9431.19, 4921.73, -11270.20, -2673.98, 0.000, 0.000, 0.000, 17:27:37.012
160, -8749.20, 5747.79, -11061.58, -2459.06, 0.000, 0.000, 0.000, 17:27:37.012
161, -8829.20, 5350.56, -12005.68, -2879.75, 0.000, 0.000, 0.000, 17:27:37.013
162, -8913.33, 5276.24, -12722.18, -3313.18, 0.000, 0.000, 0.000, 17:27:37.013
163, -8481.76, 5859.72, -12366.36, -2718.53, 0.000, 0.000, 0.000, 17:27:37.028
164, -7926.28, 6553.41, -12110.44, -2593.26, 0.000, 0.000, 0.000, 17:27:37.028
165, -8820.49, 6319.96, -12843.33, -2861.23, 0.000, 0.000, 0.000, 17:27:37.042
166, -8848.52, 6263.24, -13414.20, -3263.12, 0.000, 0.000, 0.000, 17:27:37.043
167, -8481.67, 6826.87, -13197.15, -2715.71, 0.000, 0.000, 0.000, 17:27:37.043
168, -7988.66, 7480.40, -13177.89, -2636.72, 0.000, 0.000, 0.000, 17:27:37.043
169, -8745.13, 7370.05, -13884.67, -2768.52, 0.000, 0.000, 0.000, 17:27:37.057
170, -8796.95, 7253.76, -14500.45, -3223.76, 0.000, 0.000, 0.000, 17:27:37.057
171, -8569.91, 7760.21, -14289.79, -2806.28, 0.000, 0.000, 0.000, 17:27:37.072
172, -8130.96, 8264.34, -13329.84, -2769.99, 0.000, 0.000, 0.000, 17:27:37.072
173, -8772.87, 7367.28, -13857.49, -2779.00, 0.000, 0.000, 0.000, 17:27:37.073
174, -9727.52, 6417.83, -14422.04, -3204.87, 0.000, 0.000, 0.000, 17:27:37.073
175, -9594.35, 6694.20, -14390.29, -2907.09, 0.000, 0.000, 0.000, 17:27:37.087
176, -9193.51, 7179.87, -13422.60, -2894.27, 0.000, 0.000, 0.000, 17:27:37.087
177, -9624.14, 6469.64, -13811.94, -3655.54, 0.000, 0.000, 0.000, 17:27:37.102
178, -9634.00, 5552.83, -14225.61, -4111.84, 0.000, 0.000, 0.000, 17:27:37.103
179, -9581.56, 5733.05, -13370.89, -3896.52, 0.000, 0.000, 0.000, 17:27:37.104
180, -9237.18, 6173.01, -13334.78, -2935.39, 0.000, 0.000, 0.000, 17:27:37.104
181, -9582.75, 5540.53, -13683.42, -3598.42, 0.000, 0.000, 0.000, 17:27:37.118
182, -10536.46, 4588.40, -14314.18, -4054.61, 0.000, 0.000, 0.000, 17:27:37.118
183, -9667.27, 4673.91, -13491.35, -3990.81, 0.000, 0.000, 0.000, 17:27:37.132
184, -9666.57, 4742.30, -12717.16, -3264.28, 0.000, 0.000, 0.000, 17:27:37.133
185, -10560.54, 4600.39, -13624.31, -3413.39, 0.000, 0.000, 0.000, 17:27:37.133
186, -10935.00, 4239.20, -13863.73, -3571.21, 0.000, 0.000, 0.000, 17:27:37.133
187, -10394.09, 4909.62, -13289.97, -2922.16, 0.000, 0.000, 0.000, 17:27:37.147
188, -9825.81, 5568.44, -12788.60, -2466.19, 0.000, 0.000, 0.000, 17:27:37.147
189, -10593.20, 5532.33, -13730.96, -3392.36, 0.000, 0.000, 0.000, 17:27:37.162
190, -10960.79, 5238.77, -13920.47, -3556.94, 0.000, 0.000, 0.000, 17:27:37.162
191, -10482.89, 5807.64, -13362.61, -2973.80, 0.000, 0.000, 0.000, 17:27:37.163
192, -9926.46, 6425.13, -12971.37, -2548.98, 0.000, 0.000, 0.000, 17:27:37.163
193, -10659.86, 5510.21, -13804.05, -3444.43, 0.000, 0.000, 0.000, 17:27:37.178
194, -10989.48, 5200.31, -13938.06, -3568.54, 0.000, 0.000, 0.000, 17:27:37.178
195, -10464.95, 5792.41, -13467.21, -2983.28, 0.000, 0.000, 0.000, 17:27:37.192
196, -9919.93, 6427.47, -12874.29, -2574.30, 0.000, 0.000, 0.000, 17:27:37.192
197, -10644.22, 5498.89, -13686.61, -3428.86, 0.000, 0.000, 0.000, 17:27:37.193
198, -10972.56, 5208.43, -13980.65, -3560.47, 0.000, 0.000, 0.000, 17:27:37.193
199, -10470.15, 5805.24, -13471.55, -2986.20, 0.000, 0.000, 0.000, 17:27:37.207
200, -9929.71, 6419.92, -12875.54, -2566.00, 0.000, 0.000, 0.000, 17:27:37.207
0, -3758.12, -4218.59, -3824.07, -3402.86, 0.000, 0.000, 0.000, 17:27:37.208
1, -4063.20, -4557.55, -4101.06, -3514.41, 0.000, 0.000, 0.000, 17:27:37.222
2, -3575.54, -3940.10, -3545.02, -2950.51, 0.000, 0.000, 0.000, 17:27:37.222
3, -3066.73, -3400.04, -3088.22, -2568.27, 0.000, 0.000, 0.000, 17:27:37.237
4, -3756.48, -4235.05, -3923.09, -3376.47, 0.000, 0.000, 0.000, 17:27:37.237
5, -4066.19, -4519.90, -4024.55, -3507.39, 0.000, 0.000, 0.000, 17:27:37.240
6, -3588.40, -3977.97, -3459.38, -2964.34, 0.000, 0.000, 0.000, 17:27:37.240
7, -3092.09, -3412.84, -3129.52, -2604.80, 0.000, 0.000, 0.000, 17:27:37.253
8, -3785.13, -4274.78, -3861.64, -3401.97, 0.000, 0.000, 0.000, 17:27:37.253
9, -4089.96, -4547.82, -4148.72, -3514.06, 0.000, 0.000, 0.000, 17:27:37.267
10, -3601.58, -3946.57, -3535.88, -2979.20, 0.000, 0.000, 0.000, 17:27:37.267
11, -3112.79, -3443.60, -3151.80, -2619.05, 0.000, 0.000, 0.000, 17:27:37.268
12, -3771.97, -4235.61, -3823.43, -3382.48, 0.000, 0.000, 0.000, 17:27:37.268
13, -4064.40, -4542.17, -3953.03, -3493.89, 0.000, 0.000, 0.000, 17:27:37.283
14, -3602.77, -3956.23, -3600.50, -2976.62, 0.000, 0.000, 0.000, 17:27:37.283
15, -3121.29, -3470.75, -3147.24, -2630.62, 0.000, 0.000, 0.000, 17:27:37.297
16, -3749.49, -4201.83, -3923.58, -3373.54, 0.000, 0.000, 0.000, 17:27:37.298
17, -4036.88, -4468.00, -3936.41, -3479.79, 0.000, 0.000, 0.000, 17:27:37.298
18, -3594.18, -3965.41, -3536.05, -2988.75, 0.000, 0.000, 0.000, 17:27:37.298
19, -3138.92, -3490.37, -3233.78, -2654.94, 0.000, 0.000, 0.000, 17:27:37.312
20, -3751.78, -4197.08, -3783.52, -3373.61, 0.000, 0.000, 0.000, 17:27:37.312
21, -4045.67, -4531.75, -4083.83, -3485.86, 0.000, 0.000, 0.000, 17:27:37.327
22, -3608.64, -4017.78, -3563.77, -3001.14, 0.000, 0.000, 0.000, 17:27:37.328
23, -3148.32, -3523.34, -3185.49, -2674.72, 0.000, 0.000, 0.000, 17:27:37.328
24, -3752.28, -4235.30, -3776.05, -3377.64, 0.000, 0.000, 0.000, 17:27:37.328
25, -4033.43, -4469.34, -3951.91, -3480.21, 0.000, 0.000, 0.000, 17:27:37.342
26, -3595.16, -3985.71, -3707.21, -2993.17, 0.000, 0.000, 0.000, 17:27:37.342
27, -3158.01, -3531.54, -3380.56, -2672.65, 0.000, 0.000, 0.000, 17:27:37.357
28, -3751.67, -4210.92, -3872.78, -3353.87, 0.000, 0.000, 0.000, 17:27:37.357
29, -4024.66, -4453.16, -4036.71, -3455.91, 0.000, 0.000, 0.000, 17:27:37.365
30, -3608.44, -3977.69, -3686.04, -2984.50, 0.000, 0.000, 0.000, 17:27:37.366
31, -3170.46, -3540.18, -3262.24, -2674.19, 0.000, 0.000, 0.000, 17:27:37.373
32, -3753.55, -4219.67, -3945.36, -3338.64, 0.000, 0.000, 0.000, 17:27:37.373
33, -4021.62, -4488.61, -4030.37, -3435.34, 0.000, 0.000, 0.000, 17:27:37.387
34, -3606.71, -3974.58, -3566.42, -2997.66, 0.000, 0.000, 0.000, 17:27:37.387
35, -3177.59, -3523.86, -3336.51, -2683.21, 0.000, 0.000, 0.000, 17:27:37.388
36, -3736.62, -4169.94, -3849.84, -3328.21, 0.000, 0.000, 0.000, 17:27:37.388
37, -4000.74, -4463.34, -4050.52, -3420.02, 0.000, 0.000, 0.000, 17:27:37.403
38, -3609.41, -4018.24, -3583.21, -2991.14, 0.000, 0.000, 0.000, 17:27:37.403
39, -3184.04, -3556.76, -3204.84, -2694.35, 0.000, 0.000, 0.000, 17:27:37.417
40, -3760.46, -4199.43, -3706.41, -3334.57, 0.000, 0.000, 0.000, 17:27:37.418
41, -4175.42, -4597.26, -4076.40, -3537.65, 0.000, 0.000, 0.000, 17:27:37.418
42, -3718.37, -4093.89, -3682.75, -3013.35, 0.000, 0.000, 0.000, 17:27:37.418
43, -2992.96, -3327.95, -3058.54, -2508.50, 0.000, 0.000, 0.000, 17:27:37.432
44, -3680.93, -4135.01, -3802.02, -3319.89, 0.000, 0.000, 0.000, 17:27:37.433
45, -4287.51, -4680.40, -4223.43, -3647.42, 0.000, 0.000, 0.000, 17:27:37.448
46, -3800.19, -4134.83, -3745.80, -3111.46, 0.000, 0.000, 0.000, 17:27:37.448
47, -3066.65, -3450.55, -3269.81, -2607.09, 0.000, 0.000, 0.000, 17:27:37.448
48, -3705.64, -4146.31, -3892.71, -3352.24, 0.000, 0.000, 0.000, 17:27:37.448
49, -4138.99, -4561.17, -4124.86, -3557.77, 0.000, 0.000, 0.000, 17:27:37.462
50, -3699.76, -4068.85, -3658.43, -3074.44, 0.000, 0.000, 0.000, 17:27:37.463
51, -3160.73, -3538.71, -3296.13, -2675.39, 0.000, 0.000, 0.000, 17:27:37.477
52, -3704.37, -4130.55, -3812.40, -3318.16, 0.000, 0.000, 0.000, 17:27:37.477
53, -4228.21, -4649.79, -4074.54, -3597.03, 0.000, 0.000, 0.000, 17:27:37.478
54, -3744.91, -4134.18, -3683.83, -3059.45, 0.000, 0.000, 0.000, 17:27:37.478
55, -3040.09, -3411.66, -3172.53, -2572.79, 0.000, 0.000, 0.000, 17:27:37.493
56, -3686.41, -4115.00, -3768.60, -3344.75, 0.000, 0.000, 0.000, 17:27:37.493
57, -4211.43, -4623.65, -3990.23, -3598.70, 0.000, 0.000, 0.000, 17:27:37.507
58, -3708.00, -4092.47, -3566.30, -3035.40, 0.000, 0.000, 0.000, 17:27:37.507
59, -3018.62, -3387.29, -3123.53, -2576.27, 0.000, 0.000, 0.000, 17:27:37.508
60, -3658.75, -4107.04, -3801.94, -3327.33, 0.000, 0.000, 0.000, 17:27:37.508
61, -4157.52, -4546.11, -3997.07, -3567.34, 0.000, 0.000, 0.000, 17:27:37.522
62, -3670.90, -4036.75, -3657.79, -3019.96, 0.000, 0.000, 0.000, 17:27:37.522
63, -2976.97, -3380.39, -3152.08, -2558.70, 0.000, 0.000, 0.000, 17:27:37.537
64, -3644.97, -4094.18, -3692.17, -3312.01, 0.000, 0.000, 0.000, 17:27:37.537
65, -4160.25, -4534.15, -4070.51, -3564.85, 0.000, 0.000, 0.000, 17:27:37.538
66, -3639.92, -4015.46, -3655.09, -2992.38, 0.000, 0.000, 0.000, 17:27:37.538
67, -2983.78, -3350.74, -3178.36, -2563.37, 0.000, 0.000, 0.000, 17:27:37.553
68, -3663.38, -4092.54, -3810.46, -3325.01, 0.000, 0.000, 0.000, 17:27:37.553
69, -4143.34, -4569.34, -4123.25, -3539.45, 0.000, 0.000, 0.000, 17:27:37.567
70, -3643.39, -4018.12, -3679.40, -3002.28, 0.000, 0.000, 0.000, 17:27:37.567
71, -2994.23, -3368.21, -3181.33, -2580.99, 0.000, 0.000, 0.000, 17:27:37.568
72, -3644.67, -4093.23, -3743.83, -3308.91, 0.000, 0.000, 0.000, 17:27:37.568
73, -4128.23, -4538.71, -4000.70, -3537.32, 0.000, 0.000, 0.000, 17:27:37.583
74, -3640.51, -4031.23, -3585.89, -3007.63, 0.000, 0.000, 0.000, 17:27:37.583
75, -3024.00, -3395.15, -3213.82, -2598.23, 0.000, 0.000, 0.000, 17:27:37.597
76, -3602.08, -4035.92, -3725.78, -3272.18, 0.000, 0.000, 0.000, 17:27:37.597
77, -4128.18, -4560.77, -4081.69, -3544.05, 0.000, 0.000, 0.000, 17:27:37.598
78, -3684.75, -4081.07, -3618.79, -3032.51, 0.000, 0.000, 0.000, 17:27:37.598
79, -3001.71, -3385.15, -3243.14, -2562.43, 0.000, 0.000, 0.000, 17:27:37.612
80, -3598.72, -4062.63, -3707.73, -3259.34, 0.000, 0.000, 0.000, 17:27:37.612
81, -4157.43, -4585.56, -4030.48, -3558.52, 0.000, 0.000, 0.000, 17:27:37.627
82, -3699.54, -4070.92, -3729.19, -3035.15, 0.000, 0.000, 0.000, 17:27:37.627
83, -2997.92, -3404.17, -3243.44, -2559.43, 0.000, 0.000, 0.000, 17:27:37.635
84, -3617.52, -4041.99, -3727.72, -3287.47, 0.000, 0.000, 0.000, 17:27:37.635
85, -4171.53, -4572.04, -4128.71, -3565.99, 0.000, 0.000, 0.000, 17:27:37.642
86, -3712.89, -4101.68, -3666.60, -3049.79, 0.000, 0.000, 0.000, 17:27:37.642
87, -3010.22, -3379.76, -3154.21, -2571.20, 0.000, 0.000, 0.000, 17:27:37.657
88, -3604.52, -4075.06, -3683.65, -3259.77, 0.000, 0.000, 0.000, 17:27:37.657
89, -4174.24, -4591.17, -4032.33, -3569.60, 0.000, 0.000, 0.000, 17:27:37.658
90, -3733.70, -4118.06, -3662.22, -3067.83, 0.000, 0.000, 0.000, 17:27:37.658
91, -3045.68, -3441.14, -3211.02, -2608.77, 0.000, 0.000, 0.000, 17:27:37.672
92, -3604.90, -4048.51, -3707.56, -3263.37, 0.000, 0.000, 0.000, 17:27:37.672
93, -4154.45, -4582.70, -4042.68, -3550.54, 0.000, 0.000, 0.000, 17:27:37.687
94, -4137.98, -4559.36, -4004.06, -3425.97, 0.000, 0.000, 0.000, 17:27:37.687
95, -4396.83, -4784.13, -4172.14, -3580.67, 0.000, 0.000, 0.000, 17:27:37.688
96, -5058.65, -5475.71, -4595.24, -4084.75, 0.000, 0.000, 0.000, 17:27:37.688
97, -5446.89, -5815.26, -4965.75, -4178.73, 0.000, 0.000, 0.000, 17:27:37.703
98, -5277.41, -5633.46, -4633.34, -3894.97, 0.000, 0.000, 0.000, 17:27:37.704
99, -4687.21, -5051.56, -4279.65, -3400.10, 0.000, 0.000, 0.000, 17:27:37.717
100, -4673.94, -5116.57, -4472.45, -3568.57, 0.000, 0.000, 0.000, 17:27:37.717
101, -4667.70, -5100.32, -4470.95, -3560.84, 0.000, 0.000, 0.000, 17:27:37.718
102, -4085.60, -4464.53, -3995.49, -3085.32, 0.000, 0.000, 0.000, 17:27:37.718
103, -3346.01, -3753.53, -3403.26, -2639.54, 0.000, 0.000, 0.000, 17:27:37.733
104, -3483.51, -3940.72, -3628.74, -2999.84, 0.000, 0.000, 0.000, 17:27:37.733
105, -3697.66, -4133.12, -3820.82, -3138.34, 0.000, 0.000, 0.000, 17:27:37.747
106, -3217.20, -3605.04, -3303.34, -2718.47, 0.000, 0.000, 0.000, 17:27:37.749
107, -2689.19, -3092.55, -2955.68, -2447.60, 0.000, 0.000, 0.000, 17:27:37.749
108, -3302.03, -3772.95, -3516.55, -3129.25, 0.000, 0.000, 0.000, 17:27:37.749
109, -3445.31, -3870.82, -3590.54, -3146.74, 0.000, 0.000, 0.000, 17:27:37.762
110, -3309.48, -3714.27, -3443.30, -2996.90, 0.000, 0.000, 0.000, 17:27:37.763
111, -3173.39, -3563.11, -3359.93, -2924.26, 0.000, 0.000, 0.000, 17:27:37.777
112, -3475.39, -3909.84, -3699.77, -3260.44, 0.000, 0.000, 0.000, 17:27:37.777
113, -3675.88, -4151.61, -3755.10, -3372.67, 0.000, 0.000, 0.000, 17:27:37.778
114, -3574.53, -3982.65, -3628.70, -3234.34, 0.000, 0.000, 0.000, 17:27:37.778
115, -3470.28, -3864.35, -3720.47, -3174.28, 0.000, 0.000, 0.000, 17:27:37.793
116, -3718.96, -4151.34, -3893.11, -3444.40, 0.000, 0.000, 0.000, 17:27:37.793
117, -3854.78, -4305.91, -4055.30, -3507.03, 0.000, 0.000, 0.000, 17:27:37.807
118, -3749.27, -4132.93, -3926.87, -3351.70, 0.000, 0.000, 0.000, 17:27:37.807
119, -3602.48, -4037.60, -3707.03, -3240.58, 0.000, 0.000, 0.000, 17:27:37.808
120, -3814.00, -4217.05, -4006.09, -3479.73, 0.000, 0.000, 0.000, 17:27:37.808
121, -4022.98, -4441.22, -4094.40, -3587.13, 0.000, 0.000, 0.000, 17:27:37.822
122, -3839.67, -4240.37, -3895.98, -3322.91, 0.000, 0.000, 0.000, 17:27:37.822
123, -3297.34, -3660.34, -3450.52, -2929.27, 0.000, 0.000, 0.000, 17:27:37.838
124, -3784.66, -4210.23, -3906.33, -3498.20, 0.000, 0.000, 0.000, 17:27:37.838
125, -4194.41, -4603.54, -4207.91, -3690.12, 0.000, 0.000, 0.000, 17:27:37.838
126, -3693.19, -4069.71, -3755.62, -3156.87, 0.000, 0.000, 0.000, 17:27:37.838
127, -3222.54, -3613.39, -3440.67, -2862.71, 0.000, 0.000, 0.000, 17:27:37.854
128, -3694.48, -4165.00, -3837.21, -3390.13, 0.000, 0.000, 0.000, 17:27:37.854
129, -4030.35, -4497.51, -4069.06, -3518.66, 0.000, 0.000, 0.000, 17:27:37.867
130, -3636.97, -4052.54, -3738.30, -3093.91, 0.000, 0.000, 0.000, 17:27:37.867
131, -3111.20, -3516.95, -3248.18, -2745.76, 0.000, 0.000, 0.000, 17:27:37.868
132, -3580.58, -3980.21, -3566.61, -3285.61, 0.000, 0.000, 0.000, 17:27:37.868
133, -3959.60, -4403.92, -3973.81, -3450.51, 0.000, 0.000, 0.000, 17:27:37.883
134, -3569.80, -3966.75, -3526.22, -3027.77, 0.000, 0.000, 0.000, 17:27:37.883
135, -3053.75, -3440.30, -3292.22, -2692.14, 0.000, 0.000, 0.000, 17:27:37.897
136, -3517.88, -3957.74, -3629.60, -3214.30, 0.000, 0.000, 0.000, 17:27:37.898
137, -3930.73, -4354.80, -3828.78, -3401.33, 0.000, 0.000, 0.000, 17:27:37.898
138, -3580.83, -3974.18, -3564.24, -2998.16, 0.000, 0.000, 0.000, 17:27:37.898
139, -3016.10, -3409.69, -3198.04, -2616.51, 0.000, 0.000, 0.000, 17:27:37.928
140, -3523.38, -3970.36, -3621.37, -3173.07, 0.000, 0.000, 0.000, 17:27:37.928
141, -3920.41, -4352.82, -3855.49, -3341.80, 0.000, 0.000, 0.000, 17:27:37.928
142, -3490.42, -3894.25, -3486.86, -2879.56, 0.000, 0.000, 0.000, 17:27:37.928
143, -2941.86, -3345.07, -3137.71, -2520.26, 0.000, 0.000, 0.000, 17:27:37.929
144, -3489.12, -3947.81, -3600.72, -3123.71, 0.000, 0.000, 0.000, 17:27:37.929
145, -3878.76, -4311.46, -3799.52, -3299.26, 0.000, 0.000, 0.000, 17:27:37.942
146, -3472.90, -3872.79, -3448.55, -2853.37, 0.000, 0.000, 0.000, 17:27:37.942
147, -2899.40, -3263.24, -3036.41, -2489.35, 0.000, 0.000, 0.000, 17:27:37.957
148, -3472.53, -3925.81, -3577.16, -3126.72, 0.000, 0.000, 0.000, 17:27:37.958
149, -3823.24, -4236.72, -3702.23, -3251.79, 0.000, 0.000, 0.000, 17:27:37.965
150, -3523.42, -3923.73, -3560.27, -2930.56, 0.000, 0.000, 0.000, 17:27:37.965
151, -3408.73, -3807.71, -3452.18, -2877.12, 0.000, 0.000, 0.000, 17:27:37.972
152, -3628.96, -4051.88, -3627.88, -3098.65, 0.000, 0.000, 0.000, 17:27:37.972
153, -3539.36, -3917.31, -3499.72, -2996.27, 0.000, 0.000, 0.000, 17:27:37.988
154, -3493.54, -3899.66, -3464.55, -2951.45, 0.000, 0.000, 0.000, 17:27:37.988
155, -3456.31, -3856.09, -3482.75, -2929.40, 0.000, 0.000, 0.000, 17:27:37.988
156, -3491.91, -3918.82, -3572.39, -3006.69, 0.000, 0.000, 0.000, 17:27:37.988
157, -3510.93, -3883.42, -3656.42, -3003.76, 0.000, 0.000, 0.000, 17:27:38.003
158, -3492.76, -3942.60, -3583.98, -2964.13, 0.000, 0.000, 0.000, 17:27:38.003
159, -3485.76, -3865.92, -3604.25, -2964.24, 0.000, 0.000, 0.000, 17:27:38.018
160, -3519.42, -3923.67, -3648.58, -3017.30, 0.000, 0.000, 0.000, 17:27:38.018
161, -3540.35, -3939.89, -3542.07, -3019.34, 0.000, 0.000, 0.000, 17:27:38.018
162, -3523.72, -3930.58, -3539.46, -2981.38, 0.000, 0.000, 0.000, 17:27:38.018
163, -3512.67, -3902.29, -3532.28, -2980.99, 0.000, 0.000, 0.000, 17:27:38.032
164, -3562.05, -4005.27, -3632.58, -3058.42, 0.000, 0.000, 0.000, 17:27:38.033
165, -3569.27, -3988.13, -3668.52, -3038.25, 0.000, 0.000, 0.000, 17:27:38.048
166, -3543.95, -3917.35, -3641.15, -3001.28, 0.000, 0.000, 0.000, 17:27:38.048
167, -3540.11, -3946.62, -3550.00, -3008.49, 0.000, 0.000, 0.000, 17:27:38.048
168, -3572.81, -3992.01, -3583.57, -3069.88, 0.000, 0.000, 0.000, 17:27:38.048
169, -3593.17, -4019.85, -3645.91, -3080.89, 0.000, 0.000, 0.000, 17:27:38.063
170, -3567.08, -3966.42, -3609.64, -3043.79, 0.000, 0.000, 0.000, 17:27:38.063
171, -3555.40, -3938.71, -3489.21, -3031.10, 0.000, 0.000, 0.000, 17:27:38.077
172, -3588.68, -4010.20, -3581.61, -3097.99, 0.000, 0.000, 0.000, 17:27:38.077
173, -3608.20, -3996.44, -3695.45, -3084.37, 0.000, 0.000, 0.000, 17:27:38.077
174, -3579.72, -3998.70, -3683.45, -3039.34, 0.000, 0.000, 0.000, 17:27:38.078
175, -3549.98, -3906.16, -3562.81, -3015.61, 0.000, 0.000, 0.000, 17:27:38.092
176, -3594.36, -4040.36, -3542.32, -3097.94, 0.000, 0.000, 0.000, 17:27:38.092
177, -3626.21, -4051.86, -3676.46, -3117.49, 0.000, 0.000, 0.000, 17:27:38.107
178, -3630.94, -3998.22, -3653.68, -3090.51, 0.000, 0.000, 0.000, 17:27:38.108
179, -3614.49, -3992.65, -3674.55, -3080.63, 0.000, 0.000, 0.000, 17:27:38.108
180, -3625.76, -4060.78, -3672.28, -3121.03, 0.000, 0.000, 0.000, 17:27:38.108
181, -3637.57, -4082.08, -3677.10, -3110.00, 0.000, 0.000, 0.000, 17:27:38.122
182, -3638.12, -4021.88, -3603.75, -3080.38, 0.000, 0.000, 0.000, 17:27:38.122
183, -3610.82, -3938.37, -3559.35, -3069.46, 0.000, 0.000, 0.000, 17:27:38.137
184, -3640.37, -4099.23, -3650.46, -3121.27, 0.000, 0.000, 0.000, 17:27:38.137
185, -3648.34, -4040.90, -3734.47, -3117.22, 0.000, 0.000, 0.000, 17:27:38.138
186, -3629.89, -4007.81, -3663.87, -3080.91, 0.000, 0.000, 0.000, 17:27:38.138
187, -3631.66, -4043.71, -3705.95, -3091.94, 0.000, 0.000, 0.000, 17:27:38.153
188, -3658.43, -4091.37, -3728.38, -3147.82, 0.000, 0.000, 0.000, 17:27:38.154
189, -3680.92, -4036.65, -3766.83, -3151.81, 0.000, 0.000, 0.000, 17:27:38.168
190, -3655.68, -4085.49, -3649.53, -3111.41, 0.000, 0.000, 0.000, 17:27:38.168
191, -3860.33, -4284.17, -3749.68, -3288.51, 0.000, 0.000, 0.000, 17:27:38.168
192, -4249.64, -4597.35, -4102.62, -3567.06, 0.000, 0.000, 0.000, 17:27:38.168
193, -4348.33, -4770.21, -4103.02, -3538.50, 0.000, 0.000, 0.000, 17:27:38.183
194, -4272.72, -4665.02, -4076.17, -3407.88, 0.000, 0.000, 0.000, 17:27:38.183
195, -4166.64, -4507.05, -4085.72, -3316.46, 0.000, 0.000, 0.000, 17:27:38.198
196, -4110.52, -4520.11, -3972.13, -3320.35, 0.000, 0.000, 0.000, 17:27:38.198
197, -3835.68, -4285.14, -3788.35, -3101.35, 0.000, 0.000, 0.000, 17:27:38.200
198, -3572.29, -3957.92, -3686.40, -2949.57, 0.000, 0.000, 0.000, 17:27:38.200
199, -3475.99, -3931.48, -3600.70, -2935.81, 0.000, 0.000, 0.000, 17:27:38.214
200, -3474.42, -3906.06, -3653.41, -3011.18, 0.000, 0.000, 0.000, 17:27:38.214
0, -3481.51, -3866.84, -3526.83, -3032.08, 0.000, 0.000, 0.000, 17:27:38.215
1, -3452.75, -3872.32, -3485.46, -3005.20, 0.000, 0.000, 0.000, 17:27:38.227
2, -3425.54, -3820.81, -3476.39, -2991.24, 0.000, 0.000, 0.000, 17:27:38.227
3, -3471.13, -3843.72, -3590.92, -3078.54, 0.000, 0.000, 0.000, 17:27:38.242
4, -3503.32, -3943.74, -3614.10, -3065.56, 0.000, 0.000, 0.000, 17:27:38.242
5, -3476.34, -3873.37, -3549.95, -2996.39, 0.000, 0.000, 0.000, 17:27:38.243
6, -3472.15, -3872.69, -3553.95, -2995.01, 0.000, 0.000, 0.000, 17:27:38.243
7, -3501.53, -3929.49, -3606.81, -3050.09, 0.000, 0.000, 0.000, 17:27:38.257
8, -3700.84, -4120.21, -3858.98, -3203.08, 0.000, 0.000, 0.000, 17:27:38.257
9, -4030.46, -4395.92, -4021.52, -3378.38, 0.000, 0.000, 0.000, 17:27:38.272
10, -4179.45, -4500.69, -3988.14, -3405.22, 0.000, 0.000, 0.000, 17:27:38.272
11, -4374.04, -4778.73, -4187.04, -3537.25, 0.000, 0.000, 0.000, 17:27:38.273
12, -4900.70, -5322.04, -4514.03, -3875.53, 0.000, 0.000, 0.000, 17:27:38.273
13, -5147.58, -5483.28, -4583.05, -3902.90, 0.000, 0.000, 0.000, 17:27:38.287
14, -5185.59, -5500.72, -4673.38, -3836.97, 0.000, 0.000, 0.000, 17:27:38.287
15, -5142.14, -5576.09, -4686.86, -3799.78, 0.000, 0.000, 0.000, 17:27:38.303
16, -5023.00, -5367.38, -4571.04, -3675.60, 0.000, 0.000, 0.000, 17:27:38.303
17, -4964.27, -5327.60, -4505.37, -3616.95, 0.000, 0.000, 0.000, 17:27:38.304
18, -5014.73, -5402.41, -4707.05, -3690.60, 0.000, 0.000, 0.000, 17:27:38.304
19, -5087.26, -5434.94, -4744.84, -3786.43, 0.000, 0.000, 0.000, 17:27:38.318
20, -5010.45, -5386.70, -4671.63, -3701.11, 0.000, 0.000, 0.000, 17:27:38.318
21, -4866.36, -5198.27, -4528.13, -3570.59, 0.000, 0.000, 0.000, 17:27:38.333
22, -4521.49, -4873.62, -4242.44, -3332.14, 0.000, 0.000, 0.000, 17:27:38.333
23, -4428.25, -4821.97, -4263.86, -3372.96, 0.000, 0.000, 0.000, 17:27:38.333
24, -4378.57, -4799.46, -4281.68, -3361.44, 0.000, 0.000, 0.000, 17:27:38.333
25, -4285.68, -4656.98, -4179.81, -3308.67, 0.000, 0.000, 0.000, 17:27:38.348
26, -4206.02, -4633.61, -4061.23, -3271.77, 0.000, 0.000, 0.000, 17:27:38.349
27, -4222.77, -4691.81, -4049.41, -3353.20, 0.000, 0.000, 0.000, 17:27:38.363
28, -4652.40, -5052.19, -4490.27, -3721.99, 0.000, 0.000, 0.000, 17:27:38.363
29, -5003.35, -5329.08, -4616.78, -3863.00, 0.000, 0.000, 0.000, 17:27:38.364
30, -5006.38, -5357.82, -4522.23, -3768.12, 0.000, 0.000, 0.000, 17:27:38.364
31, -4922.91, -5350.24, -4531.67, -3713.72, 0.000, 0.000, 0.000, 17:27:38.377
32, -4723.33, -5171.92, -4442.69, -3536.77, 0.000, 0.000, 0.000, 17:27:38.377
33, -4125.97, -4533.80, -3971.71, -3062.24, 0.000, 0.000, 0.000, 17:27:38.392
34, -3174.56, -3595.70, -3293.05, -2447.78, 0.000, 0.000, 0.000, 17:27:38.392
35, -2472.69, -2966.27, -2927.46, -2208.27, 0.000, 0.000, 0.000, 17:27:38.392
36, -2227.90, -2741.78, -2787.87, -2231.41, 0.000, 0.000, 0.000, 17:27:38.393
37, -2143.15, -2547.08, -2697.66, -2263.55, 0.000, 0.000, 0.000, 17:27:38.407
38, -2118.97, -2559.00, -2667.58, -2316.68, 0.000, 0.000, 0.000, 17:27:38.407
39, -2194.77, -2646.10, -2785.75, -2448.93, 0.000, 0.000, 0.000, 17:27:38.423
40, -2242.49, -2716.51, -2778.31, -2483.98, 0.000, 0.000, 0.000, 17:27:38.424
41, -2310.11, -2752.45, -2795.52, -2512.49, 0.000, 0.000, 0.000, 17:27:38.424
42, -2372.69, -2793.73, -2829.52, -2552.29, 0.000, 0.000, 0.000, 17:27:38.424
43, -2496.88, -2984.24, -2961.00, -2681.18, 0.000, 0.000, 0.000, 17:27:38.437
44, -2580.15, -3037.74, -2995.09, -2691.21, 0.000, 0.000, 0.000, 17:27:38.438
45, -2645.12, -3087.71, -2975.92, -2681.15, 0.000, 0.000, 0.000, 17:27:38.452
46, -2722.45, -3084.04, -3052.91, -2711.37, 0.000, 0.000, 0.000, 17:27:38.453
47, -3029.51, -3438.19, -3335.62, -2987.53, 0.000, 0.000, 0.000, 17:27:38.467
48, -3421.14, -3765.84, -3544.34, -3174.59, 0.000, 0.000, 0.000, 17:27:38.468
49, -3621.83, -3976.60, -3604.15, -3210.30, 0.000, 0.000, 0.000, 17:27:38.468
50, -3832.44, -4141.57, -3816.40, -3285.83, 0.000, 0.000, 0.000, 17:27:38.468
51, -4027.51, -4396.34, -3988.48, -3415.38, 0.000, 0.000, 0.000, 17:27:38.482
52, -4144.94, -4531.21, -4001.49, -3432.72, 0.000, 0.000, 0.000, 17:27:38.483
53, -4268.86, -4601.39, -4078.12, -3464.07, 0.000, 0.000, 0.000, 17:27:38.483
54, -4973.04, -5246.60, -4480.74, -3985.09, 0.000, 0.000, 0.000, 17:27:38.483
55, -5854.15, -6220.32, -5190.35, -4539.64, 0.000, 0.000, 0.000, 17:27:38.497
56, -6373.85, -6681.13, -5415.09, -4703.14, 0.000, 0.000, 0.000, 17:27:38.498
57, -6683.90, -6954.34, -5728.30, -4730.53, 0.000, 0.000, 0.000, 17:27:38.528
58, -6908.84, -7204.25, -5757.73, -4781.43, 0.000, 0.000, 0.000, 17:27:38.528
59, -7705.16, -8072.55, -6579.90, -5370.85, 0.000, 0.000, 0.000, 17:27:38.528
60, -8340.31, -8714.38, -6893.11, -5628.51, 0.000, 0.000, 0.000, 17:27:38.528
61, -8426.52, -8574.95, -6923.41, -5475.82, 0.000, 0.000, 0.000, 17:27:38.529
62, -8378.19, -8741.97, -6938.89, -5338.05, 0.000, 0.000, 0.000, 17:27:38.529
63, -8493.79, -8805.57, -7041.38, -5441.75, 0.000, 0.000, 0.000, 17:27:38.530
64, -8449.40, -8744.17, -6640.18, -5328.28, 0.000, 0.000, 0.000, 17:27:38.530
65, -8129.95, -8423.79, -6527.39, -5041.21, 0.000, 0.000, 0.000, 17:27:38.542
66, -7816.94, -7998.42, -6300.40, -4831.55, 0.000, 0.000, 0.000, 17:27:38.542
67, -7800.64, -8108.69, -6312.11, -4941.03, 0.000, 0.000, 0.000, 17:27:38.558
68, -8547.55, -8872.51, -6671.46, -5455.43, 0.000, 0.000, 0.000, 17:27:38.558
69, -8763.22, -9765.66, -7519.88, -5796.38, 0.000, 0.000, 0.000, 17:27:38.572
70, -8823.51, -9803.90, -7843.13, -5882.33, 0.000, 0.000, 0.000, 17:27:38.572
71, -8823.51, -9803.90, -7843.13, -5882.33, 0.000, 0.000, 0.000, 17:27:38.573
72, -8823.51, -9803.90, -7843.13, -5882.33, 0.000, 0.000, 0.000, 17:27:38.573
73, -8823.51, -9803.90, -7843.13, -5882.33, 0.000, 0.000, 0.000, 17:27:38.587
74, -8823.51, -9803.90, -7843.13, -5882.33, 0.000, 0.000, 0.000, 17:27:38.587
75, -8823.51, -9803.90, -7843.13, -5882.33, 0.000, 0.000, 0.000, 17:27:38.603
76, -8823.51, -9803.90, -7843.13, -5882.33, 0.000, 0.000, 0.000, 17:27:38.604
77, -8823.51, -9803.90, -7843.13, -4999.06, 0.000, 0.000, 0.000, 17:27:38.605
78, -8823.51, -9803.90, -7843.13, -4638.90, 0.000, 0.000, 0.000, 17:27:38.605
79, -8823.51, -9803.90, -7843.13, -5020.39, 0.000, 0.000, 0.000, 17:27:38.619
80, -8823.51, -9803.90, -7843.13, -5087.07, 0.000, 0.000, 0.000, 17:27:38.619
81, -8823.51, -9803.90, -7843.13, -5356.18, 0.000, 0.000, 0.000, 17:27:38.634
82, -8823.51, -9803.90, -7843.13, -6165.60, 0.000, 0.000, 0.000, 17:27:38.634
83, -8823.51, -9803.90, -7843.13, -6565.82, 0.000, 0.000, 0.000, 17:27:38.635
84, -8823.51, -9803.90, -7843.13, -6862.72, 0.000, 0.000, 0.000, 17:27:38.635
85, -8823.51, -9803.90, -7843.13, -6862.72, 0.000, 0.000, 0.000, 17:27:38.647
86, -8823.51, -9803.90, -7843.13, -6862.72, 0.000, 0.000, 0.000, 17:27:38.648
87, -8823.51, -9803.90, -7843.13, -6862.72, 0.000, 0.000, 0.000, 17:27:38.662
88, -8823.51, -9803.90, -7843.13, -6405.95, 0.000, 0.000, 0.000, 17:27:38.662
89, -8823.51, -9803.90, -7843.13, -6038.51, 0.000, 0.000, 0.000, 17:27:38.663
90, -8823.51, -9803.90, -7843.13, -5869.67, 0.000, 0.000, 0.000, 17:27:38.663
91, -8823.51, -9803.90, -7843.13, -5723.60, 0.000, 0.000, 0.000, 17:27:38.677
92, -8823.51, -9803.90, -7582.39, -4958.28, 0.000, 0.000, 0.000, 17:27:38.677
93, -8823.51, -9803.90, -7068.21, -4696.90, 0.000, 0.000, 0.000, 17:27:38.693
94, -8823.51, -9803.90, -6768.44, -3979.39, 0.000, 0.000, 0.000, 17:27:38.693
95, -8823.51, -9803.90, -5921.71, -3668.86, 0.000, 0.000, 0.000, 17:27:38.693
96, -8823.51, -9803.90, -5770.31, -3221.02, 0.000, 0.000, 0.000, 17:27:38.693
97, -8544.95, -9724.09, -4983.12, -2302.03, 0.000, 0.000, 0.000, 17:27:38.722
98, -8327.86, -9292.59, -4063.66, -1669.28, 0.000, 0.000, 0.000, 17:27:38.722
99, -7359.41, -8466.59, -3548.76, -959.27, 0.000, 0.000, 0.000, 17:27:38.723
100, -7321.92, -7574.50, -2919.30, -37.89, 0.000, 0.000, 0.000, 17:27:38.723
101, -6811.54, -7022.46, -2225.46, 364.06, 0.000, 0.000, 0.000, 17:27:38.723
102, -6786.14, -6146.34, -2215.72, 384.00, 0.000, 0.000, 0.000, 17:27:38.724
103, -6142.48, -5807.87, -1282.62, 613.69, 0.000, 0.000, 0.000, 17:27:38.754
104, -5882.34, -4901.95, -1027.43, -350.04, 0.000, 0.000, 0.000, 17:27:38.754
105, -5882.34, -4901.95, -864.20, -379.59, 0.000, 0.000, 0.000, 17:27:38.754
106, -5882.34, -4901.95, -695.09, -1337.03, 0.000, 0.000, 0.000, 17:27:38.754
107, -5882.34, -4901.95, -1562.05, -1444.69, 0.000, 0.000, 0.000, 17:27:38.755
108, -5882.34, -4901.95, -2383.86, -2156.99, 0.000, 0.000, 0.000, 17:27:38.755
109, -5882.34, -4901.95, -2738.87, -2640.65, 0.000, 0.000, 0.000, 17:27:38.771
110, -5882.34, -5048.53, -3337.18, -3069.73, 0.000, 0.000, 0.000, 17:27:38.771
111, -5904.34, -5711.30, -3850.93, -3666.98, 0.000, 0.000, 0.000, 17:27:38.784
112, -6299.24, -6361.11, -4407.06, -3962.29, 0.000, 0.000, 0.000, 17:27:38.784
113, -6907.66, -6829.27, -4884.99, -4261.70, 0.000, 0.000, 0.000, 17:27:38.784
114, -7375.72, -7199.49, -5191.12, -4436.15, 0.000, 0.000, 0.000, 17:27:38.784
115, -6947.73, -6927.11, -4910.86, -3979.14, 0.000, 0.000, 0.000, 17:27:38.812
116, -6724.04, -6399.27, -4816.68, -3928.73, 0.000, 0.000, 0.000, 17:27:38.812
117, -6979.06, -6534.35, -5156.87, -4184.88, 0.000, 0.000, 0.000, 17:27:38.812
118, -7583.97, -7184.37, -5538.41, -4651.76, 0.000, 0.000, 0.000, 17:27:38.813
119, -8490.71, -8157.44, -6422.03, -5249.18, 0.000, 0.000, 0.000, 17:27:38.813
120, -9412.29, -9034.17, -6945.64, -5757.77, 0.000, 0.000, 0.000, 17:27:38.813
121, -10304.73, -9832.56, -7511.50, -6181.49, 0.000, 0.000, 0.000, 17:27:38.827
122, -11187.33, -10593.50, -8198.21, -6592.22, 0.000, 0.000, 0.000, 17:27:38.827
123, -12116.73, -11528.43, -8910.98, -7072.56, 0.000, 0.000, 0.000, 17:27:38.842
124, -12952.71, -12369.01, -9266.86, -7428.66, 0.000, 0.000, 0.000, 17:27:38.843
125, -13736.21, -13123.27, -9858.48, -7751.26, 0.000, 0.000, 0.000, 17:27:38.843
126, -14477.72, -13891.04, -10467.28, -8064.81, 0.000, 0.000, 0.000, 17:27:38.843
127, -15235.90, -14629.72, -10927.30, -8456.13, 0.000, 0.000, 0.000, 17:27:38.857
128, -15914.23, -15253.10, -11410.37, -8728.00, 0.000, 0.000, 0.000, 17:27:38.858
129, -16500.40, -15793.41, -11967.08, -8942.17, 0.000, 0.000, 0.000, 17:27:38.872
130, -17079.19, -16373.86, -12326.55, -9191.44, 0.000, 0.000, 0.000, 17:27:38.872
131, -17708.14, -16976.66, -12751.88, -9521.75, 0.000, 0.000, 0.000, 17:27:38.873
132, -18528.69, -17818.85, -13350.87, -10019.82, 0.000, 0.000, 0.000, 17:27:38.873
133, -19148.09, -18416.95, -13510.79, -10977.54, 0.000, 0.000, 0.000, 17:27:38.906
134, -19902.30, -19136.55, -13960.48, -11118.44, 0.000, 0.000, 0.000, 17:27:38.906
135, -20445.42, -19686.33, -14368.37, -11290.47, 0.000, 0.000, 0.000, 17:27:38.907
136, -20798.22, -20017.90, -14592.99, -11331.39, 0.000, 0.000, 0.000, 17:27:38.907
137, -20955.43, -20172.37, -14684.46, -11282.05, 0.000, 0.000, 0.000, 17:27:38.909
138, -21083.33, -20293.23, -14810.27, -11290.03, 0.000, 0.000, 0.000, 17:27:38.909
139, -21369.28, -20615.58, -15065.79, -11481.43, 0.000, 0.000, 0.000, 17:27:38.937
140, -21527.31, -20786.02, -15214.77, -11512.27, 0.000, 0.000, 0.000, 17:27:38.938
141, -21514.92, -20753.81, -15222.14, -11432.14, 0.000, 0.000, 0.000, 17:27:38.938
142, -21553.55, -20795.10, -15270.31, -11449.64, 0.000, 0.000, 0.000, 17:27:38.938
143, -21787.73, -21062.64, -15498.16, -11663.17, 0.000, 0.000, 0.000, 17:27:38.938
144, -21943.96, -21221.27, -15556.15, -11722.65, 0.000, 0.000, 0.000, 17:27:38.939
145, -22027.78, -21285.50, -15645.08, -11729.67, 0.000, 0.000, 0.000, 17:27:38.947
146, -22102.62, -21375.41, -15698.46, -11763.62, 0.000, 0.000, 0.000, 17:27:38.948
147, -22336.34, -21639.15, -15923.13, -11950.80, 0.000, 0.000, 0.000, 17:27:38.970
148, -22516.28, -21834.09, -16036.00, -12035.67, 0.000, 0.000, 0.000, 17:27:38.971
149, -22170.96, -21485.87, -15151.33, -11760.51, 0.000, 0.000, 0.000, 17:27:38.971
150, -21685.67, -20987.68, -14233.58, -11171.92, 0.000, 0.000, 0.000, 17:27:38.971
151, -20740.00, -20873.57, -13599.94, -11069.40, 0.000, 0.000, 0.000, 17:27:38.978
152, -20588.20, -20588.19, -13157.02, -11140.94, 0.000, 0.000, 0.000, 17:27:38.979
153, -20588.20, -20588.19, -12673.14, -11869.84, 0.000, 0.000, 0.000, 17:27:38.992
154, -20588.20, -20588.19, -12990.69, -12013.26, 0.000, 0.000, 0.000, 17:27:38.993
155, -20588.20, -20588.19, -13855.32, -12906.66, 0.000, 0.000, 0.000, 17:27:38.993
156, -20588.20, -20588.19, -14229.98, -13484.39, 0.000, 0.000, 0.000, 17:27:38.993
157, -20588.20, -20588.58, -14725.21, -13984.43, 0.000, 0.000, 0.000, 17:27:39.007
158, -21106.32, -20678.04, -15045.57, -14140.06, 0.000, 0.000, 0.000, 17:27:39.008
159, -22055.66, -21643.70, -15874.06, -14208.16, 0.000, 0.000, 0.000, 17:27:39.022
160, -22770.47, -22365.18, -16570.29, -14507.73, 0.000, 0.000, 0.000, 17:27:39.022
161, -22819.37, -23319.82, -16881.94, -15223.38, 0.000, 0.000, 0.000, 17:27:39.023
162, -23499.29, -23913.78, -16924.55, -15822.14, 0.000, 0.000, 0.000, 17:27:39.023
163, -24223.75, -24593.69, -17685.24, -16341.24, 0.000, 0.000, 0.000, 17:27:39.037
164, -25135.22, -25410.21, -17875.43, -16959.90, 0.000, 0.000, 0.000, 17:27:39.038
165, -25324.74, -25542.78, -18591.70, -17152.76, 0.000, 0.000, 0.000, 17:27:39.083
166, -26229.47, -26437.16, -19155.62, -17335.56, 0.000, 0.000, 0.000, 17:27:39.083
167, -27103.81, -27306.38, -19727.91, -17652.19, 0.000, 0.000, 0.000, 17:27:39.083
168, -27340.31, -27541.50, -20652.28, -18297.34, 0.000, 0.000, 0.000, 17:27:39.083
169, -27500.66, -27643.38, -21097.21, -18544.36, 0.000, 0.000, 0.000, 17:27:39.084
170, -27889.56, -28000.63, -21830.84, -18948.90, 0.000, 0.000, 0.000, 17:27:39.084
171, -28258.05, -28307.44, -22061.07, -18763.68, 0.000, 0.000, 0.000, 17:27:39.084
172, -27917.30, -28008.85, -21920.93, -18199.52, 0.000, 0.000, 0.000, 17:27:39.084
173, -27867.85, -27964.65, -21211.13, -17311.48, 0.000, 0.000, 0.000, 17:27:39.085
174, -27821.45, -27032.90, -20554.76, -16667.57, 0.000, 0.000, 0.000, 17:27:39.085
175, -27538.02, -26838.15, -20411.56, -16715.68, 0.000, 0.000, 0.000, 17:27:39.098
176, -26890.51, -26147.66, -20014.88, -16290.29, 0.000, 0.000, 0.000, 17:27:39.098
177, -26676.97, -25973.56, -19241.46, -15539.07, 0.000, 0.000, 0.000, 17:27:39.112
178, -25774.44, -25164.39, -18608.17, -15148.42, 0.000, 0.000, 0.000, 17:27:39.113
179, -25192.29, -24622.88, -18307.09, -15014.49, 0.000, 0.000, 0.000, 17:27:39.113
180, -24533.16, -23993.29, -17889.14, -14736.30, 0.000, 0.000, 0.000, 17:27:39.114
181, -23896.00, -23375.06, -17467.41, -14455.95, 0.000, 0.000, 0.000, 17:27:39.127
182, -23215.62, -22805.68, -17255.22, -14195.33, 0.000, 0.000, 0.000, 17:27:39.128
183, -22507.28, -22072.93, -17181.14, -13294.25, 0.000, 0.000, 0.000, 17:27:39.144
184, -23451.23, -22414.87, -17851.18, -14207.54, 0.000, 0.000, 0.000, 17:27:39.144
185, -24065.24, -23046.91, -18539.20, -14773.32, 0.000, 0.000, 0.000, 17:27:39.144
186, -24509.76, -23529.36, -18656.54, -14817.40, 0.000, 0.000, 0.000, 17:27:39.144
187, -24509.76, -23529.36, -19105.47, -14177.44, 0.000, 0.000, 0.000, 17:27:39.157
188, -24509.76, -23529.36, -18983.95, -14129.78, 0.000, 0.000, 0.000, 17:27:39.158
189, -24509.76, -23529.36, -18416.04, -13813.56, 0.000, 0.000, 0.000, 17:27:39.172
190, -24509.76, -23529.36, -18216.39, -13708.89, 0.000, 0.000, 0.000, 17:27:39.172
191, -24509.76, -23529.36, -17517.07, -13239.26, 0.000, 0.000, 0.000, 17:27:39.173
192, -24509.76, -23529.36, -17069.87, -12654.56, 0.000, 0.000, 0.000, 17:27:39.173
193, -24321.29, -23331.46, -16352.37, -11833.61, 0.000, 0.000, 0.000, 17:27:39.187
194, -24092.29, -23235.34, -15554.59, -11042.25, 0.000, 0.000, 0.000, 17:27:39.187
195, -23406.85, -22753.21, -15184.28, -10894.13, 0.000, 0.000, 0.000, 17:27:39.203
196, -22618.06, -21866.30, -14491.21, -10490.43, 0.000, 0.000, 0.000, 17:27:39.203
197, -22024.78, -21470.84, -13553.63, -10416.01, 0.000, 0.000, 0.000, 17:27:39.204
198, -21364.49, -20811.02, -13415.60, -9552.54, 0.000, 0.000, 0.000, 17:27:39.204
199, -20761.82, -20195.36, -12962.33, -9599.83, 0.000, 0.000, 0.000, 17:27:39.233
200, -20623.39, -20074.60, -12211.30, -8919.87, 0.000, 0.000, 0.000, 17:27:39.233
0, -5792.06, -6270.22, -4864.84, -2715.36, 0.000, 0.000, 0.000, 17:27:39.233
1, -5418.00, -5952.90, -4113.60, -2344.38, 0.000, 0.000, 0.000, 17:27:39.234
2, -6271.42, -6824.47, -4548.46, -3307.86, 0.000, 0.000, 0.000, 17:27:39.234
3, -7102.56, -7597.36, -5161.50, -3688.38, 0.000, 0.000, 0.000, 17:27:39.234
4, -6372.07, -6839.03, -4432.46, -2931.22, 0.000, 0.000, 0.000, 17:27:39.234
5, -5690.64, -6200.38, -3978.48, -2559.37, 0.000, 0.000, 0.000, 17:27:39.254
6, -5791.82, -6271.66, -4815.75, -2653.62, 0.000, 0.000, 0.000, 17:27:39.255
7, -6111.46, -6637.26, -4889.91, -2674.81, 0.000, 0.000, 0.000, 17:27:39.263
8, -5963.76, -6428.28, -4176.86, -2648.09, 0.000, 0.000, 0.000, 17:27:39.264
9, -5437.00, -5893.64, -3255.01, -1712.69, 0.000, 0.000, 0.000, 17:27:39.293
10, -5820.73, -6304.59, -3669.33, -2456.65, 0.000, 0.000, 0.000, 17:27:39.293
11, -5632.43, -6142.67, -3303.96, -2251.00, 0.000, 0.000, 0.000, 17:27:39.293
12, -5100.95, -5623.90, -3265.19, -2098.44, 0.000, 0.000, 0.000, 17:27:39.293
13, -4727.07, -5284.84, -2385.27, -1478.74, 0.000, 0.000, 0.000, 17:27:39.294
14, -5291.23, -5887.42, -2697.56, -2199.67, 0.000, 0.000, 0.000, 17:27:39.294
15, -5977.58, -6537.63, -2962.66, -2418.57, 0.000, 0.000, 0.000, 17:27:39.343
16, -5762.46, -6274.58, -2113.43, -2285.26, 0.000, 0.000, 0.000, 17:27:39.344
17, -5583.84, -6115.30, -1370.88, -1661.55, 0.000, 0.000, 0.000, 17:27:39.344
18, -6295.91, -6867.42, -1626.13, -2371.17, 0.000, 0.000, 0.000, 17:27:39.344
19, -7044.11, -7548.37, -1989.76, -2574.58, 0.000, 0.000, 0.000, 17:27:39.344
20, -6865.25, -7327.99, -1199.66, -2431.62, 0.000, 0.000, 0.000, 17:27:39.344
21, -6703.08, -7182.43, -487.57, -1780.64, 0.000, 0.000, 0.000, 17:27:39.344
22, -7442.25, -7958.64, -763.87, -2493.43, 0.000, 0.000, 0.000, 17:27:39.344
23, -8169.11, -8609.75, -1170.04, -2668.94, 0.000, 0.000, 0.000, 17:27:39.344
24, -8000.36, -8454.87, -284.53, -2517.79, 0.000, 0.000, 0.000, 17:27:39.345
25, -7865.68, -8330.86, 415.02, -1889.98, 0.000, 0.000, 0.000, 17:27:39.353
26, -8591.46, -9052.07, 102.18, -2579.07, 0.000, 0.000, 0.000, 17:27:39.353
27, -9285.30, -9708.77, -299.98, -2745.22, 0.000, 0.000, 0.000, 17:27:39.367
28, -8492.43, -8903.56, 361.44, -1959.11, 0.000, 0.000, 0.000, 17:27:39.367
29, -8686.08, -9101.43, -274.48, -2852.87, 0.000, 0.000, 0.000, 17:27:39.367
30, -9622.03, -9976.45, -1219.18, -3728.10, 0.000, 0.000, 0.000, 17:27:39.368
31, -9918.34, -10221.95, -1940.36, -3956.71, 0.000, 0.000, 0.000, 17:27:39.382
32, -9801.30, -10086.03, -1702.79, -3379.49, 0.000, 0.000, 0.000, 17:27:39.382
33, -10194.52, -10505.39, -2139.59, -3574.12, 0.000, 0.000, 0.000, 17:27:39.398
34, -10901.99, -11074.98, -2243.40, -3998.55, 0.000, 0.000, 0.000, 17:27:39.398
35, -11764.70, -11764.71, -2728.69, -4505.56, 0.000, 0.000, 0.000, 17:27:39.398
36, -11132.33, -11294.94, -2710.56, -3549.40, 0.000, 0.000, 0.000, 17:27:39.399
37, -10751.23, -11007.11, -2208.33, -3255.58, 0.000, 0.000, 0.000, 17:27:39.428
38, -9927.86, -10261.59, -1267.06, -2533.02, 0.000, 0.000, 0.000, 17:27:39.428
39, -9586.53, -10001.93, -373.39, -2011.54, 0.000, 0.000, 0.000, 17:27:39.428
40, -9550.67, -9932.14, 314.13, -1680.45, 0.000, 0.000, 0.000, 17:27:39.428
41, -8845.19, -9365.10, 760.62, -1493.90, 0.000, 0.000, 0.000, 17:27:39.429
42, -8474.34, -8971.23, 803.32, -1517.66, 0.000, 0.000, 0.000, 17:27:39.429
43, -8009.18, -8511.42, 1156.75, -1325.41, 0.000, 0.000, 0.000, 17:27:39.442
44, -7240.88, -7747.11, 1809.99, -904.04, 0.000, 0.000, 0.000, 17:27:39.442
45, -6941.81, -7448.58, 1928.16, -955.90, 0.000, 0.000, 0.000, 17:27:39.457
46, -7062.68, -7612.40, 1125.73, -1009.25, 0.000, 0.000, 0.000, 17:27:39.457
47, -7758.56, -8257.19, 688.51, -1350.79, 0.000, 0.000, 0.000, 17:27:39.472
48, -7931.01, -8343.24, 672.51, -1304.47, 0.000, 0.000, 0.000, 17:27:39.473
49, -7883.01, -8267.52, 673.41, -1195.79, 0.000, 0.000, 0.000, 17:27:39.473
50, -8186.23, -8596.21, 390.36, -1434.56, 0.000, 0.000, 0.000, 17:27:39.473
51, -8267.71, -8717.27, 365.80, -1429.20, 0.000, 0.000, 0.000, 17:27:39.488
52, -8235.92, -8670.43, 490.55, -1341.90, 0.000, 0.000, 0.000, 17:27:39.488
53, -8203.71, -8611.73, 463.11, -1313.75, 0.000, 0.000, 0.000, 17:27:39.488
54, -8423.71, -8831.61, 287.27, -1513.87, 0.000, 0.000, 0.000, 17:27:39.488
55, -8475.97, -8892.81, 192.96, -1505.62, 0.000, 0.000, 0.000, 17:27:39.503
56, -8298.38, -8663.37, 449.84, -1306.52, 0.000, 0.000, 0.000, 17:27:39.503
57, -8347.36, -8776.14, 372.76, -1417.19, 0.000, 0.000, 0.000, 17:27:39.518
58, -8984.87, -9390.57, -204.99, -1945.94, 0.000, 0.000, 0.000, 17:27:39.518
59, -9398.63, -9775.89, -291.83, -2111.98, 0.000, 0.000, 0.000, 17:27:39.518
60, -9453.41, -9875.91, -348.21, -2021.26, 0.000, 0.000, 0.000, 17:27:39.518
61, -9424.92, -9783.26, -492.86, -1961.85, 0.000, 0.000, 0.000, 17:27:39.548
62, -9432.62, -9863.38, -394.02, -1960.15, 0.000, 0.000, 0.000, 17:27:39.548
63, -9155.11, -9487.13, -221.04, -1703.31, 0.000, 0.000, 0.000, 17:27:39.549
64, -8451.84, -8789.17, 427.11, -1178.07, 0.000, 0.000, 0.000, 17:27:39.549
65, -7897.61, -8298.38, 733.75, -915.64, 0.000, 0.000, 0.000, 17:27:39.549
66, -7950.27, -8424.78, 638.20, -1128.71, 0.000, 0.000, 0.000, 17:27:39.549
67, -7683.91, -8105.42, 842.22, -951.50, 0.000, 0.000, 0.000, 17:27:39.562
68, -7526.27, -8038.54, 936.52, -916.97, 0.000, 0.000, 0.000, 17:27:39.564
69, -7435.08, -7827.81, 987.83, -888.18, 0.000, 0.000, 0.000, 17:27:39.577
70, -7660.41, -8095.13, 749.03, -1145.40, 0.000, 0.000, 0.000, 17:27:39.577
71, -7768.73, -8244.25, 713.01, -1185.82, 0.000, 0.000, 0.000, 17:27:39.578
72, -7458.83, -7830.79, 980.81, -887.23, 0.000, 0.000, 0.000, 17:27:39.578
73, -6658.88, -7146.65, 1483.93, -317.70, 0.000, 0.000, 0.000, 17:27:39.593
74, -6316.98, -6749.83, 1653.40, -269.65, 0.000, 0.000, 0.000, 17:27:39.593
75, -5812.37, -6331.12, 2060.97, 21.85, 0.000, 0.000, 0.000, 17:27:39.607
76, -5039.93, -5526.88, 2583.72, 500.40, 0.000, 0.000, 0.000, 17:27:39.607
77, -4347.26, -4814.36, 3080.72, 804.08, 0.000, 0.000, 0.000, 17:27:39.608
78, -4885.11, -5401.53, 2580.25, 135.73, 0.000, 0.000, 0.000, 17:27:39.608
79, -4142.69, -4616.09, 2941.75, 685.53, 0.000, 0.000, 0.000, 17:27:39.622
80, -3515.33, -4015.58, 3694.93, 1328.43, 0.000, 0.000, 0.000, 17:27:39.622
81, -2584.55, -3145.05, 3883.13, 2094.03, 0.000, 0.000, 0.000, 17:27:39.638
82, -3405.54, -4012.99, 3132.13, 1703.58, 0.000, 0.000, 0.000, 17:27:39.638
83, -4106.97, -4701.57, 2753.53, 1232.54, 0.000, 0.000, 0.000, 17:27:39.638
84, -3247.30, -3784.72, 3454.35, 2042.41, 0.000, 0.000, 0.000, 17:27:39.638
85, -2980.99, -3502.08, 4275.81, 2805.13, 0.000, 0.000, 0.000, 17:27:39.653
86, -3799.25, -4365.18, 3606.22, 2731.99, 0.000, 0.000, 0.000, 17:27:39.653
87, -3894.15, -4434.02, 3666.95, 2864.87, 0.000, 0.000, 0.000, 17:27:39.668
88, -2968.50, -3506.26, 4061.62, 3422.65, 0.000, 0.000, 0.000, 17:27:39.668
89, -3690.22, -4212.60, 3642.05, 3355.77, 0.000, 0.000, 0.000, 17:27:39.668
90, -3845.78, -4385.12, 2824.00, 3009.82, 0.000, 0.000, 0.000, 17:27:39.668
91, -4310.13, -4558.21, 2483.60, 2438.68, 0.000, 0.000, 0.000, 17:27:39.683
92, -4835.78, -4850.03, 1778.82, 2342.96, 0.000, 0.000, 0.000, 17:27:39.683
93, -4901.96, -4901.95, 1198.62, 2771.43, 0.000, 0.000, 0.000, 17:27:39.699
94, -4901.96, -4901.95, 1149.14, 2434.14, 0.000, 0.000, 0.000, 17:27:39.699
95, -4901.96, -4901.95, 447.04, 2103.17, 0.000, 0.000, 0.000, 17:27:39.699
96, -4901.96, -4901.95, 1284.30, 2519.58, 0.000, 0.000, 0.000, 17:27:39.699
97, -4901.96, -4901.95, 1939.92, 3260.21, 0.000, 0.000, 0.000, 17:27:39.713
98, -4901.96, -4901.95, 1496.55, 2848.03, 0.000, 0.000, 0.000, 17:27:39.713
99, -4901.96, -4901.95, 814.16, 2207.35, 0.000, 0.000, 0.000, 17:27:39.727
100, -4504.25, -4548.02, 977.32, 2776.60, 0.000, 0.000, 0.000, 17:27:39.727
101, -3917.25, -4188.42, 1165.36, 2849.24, 0.000, 0.000, 0.000, 17:27:39.728
102, -2979.05, -3324.05, 1651.62, 2854.46, 0.000, 0.000, 0.000, 17:27:39.728
103, -2671.27, -3043.08, 2199.33, 3275.04, 0.000, 0.000, 0.000, 17:27:39.743
104, -2173.12, -2601.64, 2949.35, 3936.55, 0.000, 0.000, 0.000, 17:27:39.743
105, -1206.82, -1753.68, 3055.63, 4129.44, 0.000, 0.000, 0.000, 17:27:39.757
106, -971.77, -1655.96, 3472.66, 3528.59, 0.000, 0.000, 0.000, 17:27:39.757
107, -337.71, -1068.65, 3829.42, 3135.06, 0.000, 0.000, 0.000, 17:27:39.758
108, 76.54, -655.77, 4226.11, 3021.78, 0.000, 0.000, 0.000, 17:27:39.758
109, 44.99, -608.03, 4271.84, 2769.55, 0.000, 0.000, 0.000, 17:27:39.773
110, -759.32, -1439.60, 3599.36, 1965.08, 0.000, 0.000, 0.000, 17:27:39.773
111, -1043.96, -1712.73, 3458.62, 1759.60, 0.000, 0.000, 0.000, 17:27:39.788
112, -910.82, -1496.04, 3702.33, 1941.92, 0.000, 0.000, 0.000, 17:27:39.788
113, -1167.71, -1747.73, 3546.56, 1699.87, 0.000, 0.000, 0.000, 17:27:39.788
114, -1718.02, -2315.42, 3106.01, 1399.76, 0.000, 0.000, 0.000, 17:27:39.788
115, -1936.55, -2513.42, 2997.49, 1354.92, 0.000, 0.000, 0.000, 17:27:39.803
116, -2080.00, -2606.76, 2984.95, 1313.35, 0.000, 0.000, 0.000, 17:27:39.803
117, -2021.02, -2512.05, 3080.07, 1463.31, 0.000, 0.000, 0.000, 17:27:39.818
118, -1956.77, -2473.11, 3022.58, 1485.77, 0.000, 0.000, 0.000, 17:27:39.818
119, -1825.33, -2329.69, 3104.08, 1552.64, 0.000, 0.000, 0.000, 17:27:39.818
120, -1203.68, -1678.87, 3610.76, 2044.05, 0.000, 0.000, 0.000, 17:27:39.818
121, -501.24, -952.07, 4057.69, 2465.67, 0.000, 0.000, 0.000, 17:27:39.832
122, -278.66, -821.44, 4150.05, 2398.71, 0.000, 0.000, 0.000, 17:27:39.832
123, -294.45, -827.26, 4136.35, 2267.61, 0.000, 0.000, 0.000, 17:27:39.848
124, -465.08, -977.94, 4076.79, 2123.33, 0.000, 0.000, 0.000, 17:27:39.848
125, -802.32, -1234.59, 3852.94, 1879.14, 0.000, 0.000, 0.000, 17:27:39.849
126, -1310.45, -1793.42, 3441.10, 1512.37, 0.000, 0.000, 0.000, 17:27:39.849
127, -1691.90, -2150.18, 3218.23, 1341.78, 0.000, 0.000, 0.000, 17:27:39.863
128, -1982.35, -2387.82, 3074.07, 1256.86, 0.000, 0.000, 0.000, 17:27:39.863
129, -2321.78, -2709.76, 2873.43, 1103.91, 0.000, 0.000, 0.000, 17:27:39.877
130, -2814.94, -3238.06, 2479.67, 792.67, 0.000, 0.000, 0.000, 17:27:39.877
131, -3130.36, -3534.51, 2300.95, 676.95, 0.000, 0.000, 0.000, 17:27:39.878
132, -3356.10, -3729.43, 2196.57, 643.21, 0.000, 0.000, 0.000, 17:27:39.878
133, -3626.21, -3974.86, 2023.35, 537.99, 0.000, 0.000, 0.000, 17:27:39.892
134, -4041.97, -4447.39, 1682.88, 266.51, 0.000, 0.000, 0.000, 17:27:39.893
135, -4286.41, -4678.66, 1525.81, 191.66, 0.000, 0.000, 0.000, 17:27:39.908
136, -4446.04, -4791.01, 1470.40, 185.37, 0.000, 0.000, 0.000, 17:27:39.908
137, -4645.97, -4976.72, 1336.88, 107.16, 0.000, 0.000, 0.000, 17:27:39.908
138, -5007.42, -5377.30, 1028.95, -140.88, 0.000, 0.000, 0.000, 17:27:39.908
139, -5174.64, -5519.56, 932.60, -181.95, 0.000, 0.000, 0.000, 17:27:39.922
140, -5273.20, -5608.28, 902.89, -162.42, 0.000, 0.000, 0.000, 17:27:39.922
141, -5422.85, -5728.48, 818.41, -225.45, 0.000, 0.000, 0.000, 17:27:39.938
142, -5709.69, -6031.42, 521.96, -422.00, 0.000, 0.000, 0.000, 17:27:39.939
143, -5831.11, -6218.44, 471.51, -435.13, 0.000, 0.000, 0.000, 17:27:39.939
144, -5883.31, -6138.16, 497.55, -391.95, 0.000, 0.000, 0.000, 17:27:39.939
145, -5967.74, -6277.62, 446.88, -419.64, 0.000, 0.000, 0.000, 17:27:39.953
146, -6214.89, -6581.58, 211.41, -619.60, 0.000, 0.000, 0.000, 17:27:39.953
147, -6298.10, -6581.13, 161.63, -619.54, 0.000, 0.000, 0.000, 17:27:39.967
148, -6303.89, -6616.96, 207.42, -564.86, 0.000, 0.000, 0.000, 17:27:39.967
149, -6365.77, -6715.26, 172.73, -586.76, 0.000, 0.000, 0.000, 17:27:39.968
150, -6561.11, -6956.53, -43.85, -764.60, 0.000, 0.000, 0.000, 17:27:39.968
151, -6633.47, -7029.78, -60.76, -764.20, 0.000, 0.000, 0.000, 17:27:39.982
152, -6606.37, -6940.84, -6.40, -686.86, 0.000, 0.000, 0.000, 17:27:39.982
153, -6637.66, -6903.88, -29.40, -689.28, 0.000, 0.000, 0.000, 17:27:39.997
154, -6840.19, -7179.37, -248.97, -882.92, 0.000, 0.000, 0.000, 17:27:39.998
155, -6873.81, -7259.91, -242.84, -870.29, 0.000, 0.000, 0.000, 17:27:39.998
156, -6833.37, -7152.75, -214.19, -791.36, 0.000, 0.000, 0.000, 17:27:39.998
157, -6840.40, -7211.13, -201.12, -788.30, 0.000, 0.000, 0.000, 17:27:40.013
158, -7019.87, -7368.53, -325.42, -970.16, 0.000, 0.000, 0.000, 17:27:40.013
159, -7042.92, -7478.33, -361.90, -948.94, 0.000, 0.000, 0.000, 17:27:40.027
160, -6998.37, -7405.16, -291.66, -872.21, 0.000, 0.000, 0.000, 17:27:40.027
161, -6996.59, -7355.58, -292.33, -862.77, 0.000, 0.000, 0.000, 17:27:40.028
162, -7175.97, -7556.38, -474.80, -1050.75, 0.000, 0.000, 0.000, 17:27:40.028
163, -7188.28, -7464.06, -476.85, -1019.71, 0.000, 0.000, 0.000, 17:27:40.043
164, -7123.41, -7533.45, -409.71, -933.70, 0.000, 0.000, 0.000, 17:27:40.043
165, -7114.55, -7469.47, -386.55, -923.25, 0.000, 0.000, 0.000, 17:27:40.057
166, -7258.50, -7617.32, -553.82, -1078.26, 0.000, 0.000, 0.000, 17:27:40.057
167, -7278.56, -7623.64, -540.80, -1056.41, 0.000, 0.000, 0.000, 17:27:40.058
168, -7217.38, -7559.02, -469.45, -964.03, 0.000, 0.000, 0.000, 17:27:40.058
169, -7205.42, -7601.18, -449.09, -954.05, 0.000, 0.000, 0.000, 17:27:40.079
170, -7335.22, -7687.44, -606.93, -1116.87, 0.000, 0.000, 0.000, 17:27:40.079
171, -7337.17, -7800.44, -600.90, -1077.05, 0.000, 0.000, 0.000, 17:27:40.087
172, -7261.66, -7639.16, -512.36, -990.30, 0.000, 0.000, 0.000, 17:27:40.087
173, -7239.92, -7641.86, -488.65, -970.43, 0.000, 0.000, 0.000, 17:27:40.088
174, -7401.75, -7861.46, -667.15, -1140.96, 0.000, 0.000, 0.000, 17:27:40.088
175, -7409.57, -7765.52, -630.21, -1117.71, 0.000, 0.000, 0.000, 17:27:40.103
176, -7333.05, -7678.35, -564.12, -1019.95, 0.000, 0.000, 0.000, 17:27:40.103
177, -7309.49, -7708.42, -531.56, -999.22, 0.000, 0.000, 0.000, 17:27:40.117
178, -7450.32, -7904.30, -710.47, -1166.62, 0.000, 0.000, 0.000, 17:27:40.117
179, -7442.95, -7875.36, -650.49, -1131.10, 0.000, 0.000, 0.000, 17:27:40.118
180, -7366.68, -7713.06, -577.64, -1036.93, 0.000, 0.000, 0.000, 17:27:40.118
181, -7321.11, -7659.83, -514.77, -1001.10, 0.000, 0.000, 0.000, 17:27:40.132
182, -7464.14, -7878.52, -713.31, -1176.63, 0.000, 0.000, 0.000, 17:27:40.132
183, -7475.46, -7933.49, -715.19, -1148.19, 0.000, 0.000, 0.000, 17:27:40.147
184, -7389.82, -7784.03, -593.83, -1051.93, 0.000, 0.000, 0.000, 17:27:40.147
185, -7355.01, -7769.61, -614.16, -1023.70, 0.000, 0.000, 0.000, 17:27:40.149
186, -7504.13, -7984.03, -742.13, -1196.23, 0.000, 0.000, 0.000, 17:27:40.149
187, -7492.37, -7932.71, -706.91, -1159.64, 0.000, 0.000, 0.000, 17:27:40.163
188, -7393.11, -7709.39, -587.78, -1043.31, 0.000, 0.000, 0.000, 17:27:40.163
189, -7365.71, -7664.34, -581.04, -1020.83, 0.000, 0.000, 0.000, 17:27:40.193
190, -7522.38, -7856.60, -759.10, -1201.28, 0.000, 0.000, 0.000, 17:27:40.193
191, -7510.46, -7830.84, -702.76, -1159.14, 0.000, 0.000, 0.000, 17:27:40.193
192, -7422.97, -7805.56, -624.70, -1053.14, 0.000, 0.000, 0.000, 17:27:40.193
193, -7384.00, -7830.80, -563.03, -1034.06, 0.000, 0.000, 0.000, 17:27:40.194
194, -7524.62, -7953.75, -719.93, -1197.16, 0.000, 0.000, 0.000, 17:27:40.194
195, -7514.20, -7961.92, -739.49, -1161.49, 0.000, 0.000, 0.000, 17:27:40.195
196, -7428.14, -7792.75, -619.36, -1057.13, 0.000, 0.000, 0.000, 17:27:40.195
197, -7389.62, -7747.16, -618.28, -1030.53, 0.000, 0.000, 0.000, 17:27:40.208
198, -7545.43, -7986.35, -758.35, -1218.55, 0.000, 0.000, 0.000, 17:27:40.208
199, -7524.44, -7880.56, -768.09, -1165.61, 0.000, 0.000, 0.000, 17:27:40.222
200, -7438.19, -7822.73, -631.31, -1061.43, 0.000, 0.000, 0.000, 17:27:40.222
0, -3498.50, -3935.37, -3512.80, -3006.51, 0.000, 0.000, 0.000, 17:27:40.223
1, -3624.36, -4115.83, -3698.41, -3163.36, 0.000, 0.000, 0.000, 17:27:40.237
2, -3607.03, -4065.15, -3661.31, -3131.50, 0.000, 0.000, 0.000, 17:27:40.237
3, -3496.68, -3798.88, -3542.28, -3014.01, 0.000, 0.000, 0.000, 17:27:40.253
4, -3462.57, -3850.83, -3552.37, -3007.47, 0.000, 0.000, 0.000, 17:27:40.253
5, -3636.45, -4072.17, -3694.50, -3202.23, 0.000, 0.000, 0.000, 17:27:40.253
6, -3630.27, -4050.72, -3643.55, -3160.31, 0.000, 0.000, 0.000, 17:27:40.253
7, -3513.13, -3954.87, -3598.92, -3033.82, 0.000, 0.000, 0.000, 17:27:40.267
8, -3470.57, -3847.48, -3506.86, -2996.69, 0.000, 0.000, 0.000, 17:27:40.268
9, -3640.07, -4076.27, -3719.95, -3190.08, 0.000, 0.000, 0.000, 17:27:40.282
10, -3630.41, -4059.72, -3698.71, -3140.04, 0.000, 0.000, 0.000, 17:27:40.282
11, -3525.15, -3891.26, -3579.71, -3025.66, 0.000, 0.000, 0.000, 17:27:40.283
12, -3476.45, -3879.29, -3536.61, -2992.14, 0.000, 0.000, 0.000, 17:27:40.283
13, -3660.34, -4048.79, -3734.40, -3199.08, 0.000, 0.000, 0.000, 17:27:40.298
14, -3653.00, -4135.67, -3666.96, -3167.96, 0.000, 0.000, 0.000, 17:27:40.298
15, -3539.96, -3980.72, -3610.67, -3039.65, 0.000, 0.000, 0.000, 17:27:40.313
16, -3501.70, -3913.46, -3569.03, -3010.53, 0.000, 0.000, 0.000, 17:27:40.313
17, -3683.23, -4073.49, -3737.73, -3207.71, 0.000, 0.000, 0.000, 17:27:40.314
18, -3652.81, -4050.20, -3707.90, -3155.84, 0.000, 0.000, 0.000, 17:27:40.314
19, -3526.67, -3963.93, -3582.53, -3022.36, 0.000, 0.000, 0.000, 17:27:40.328
20, -3484.27, -3929.94, -3523.56, -3009.19, 0.000, 0.000, 0.000, 17:27:40.328
21, -3674.31, -4085.81, -3750.33, -3213.43, 0.000, 0.000, 0.000, 17:27:40.342
22, -3650.60, -3942.72, -3707.39, -3166.68, 0.000, 0.000, 0.000, 17:27:40.342
23, -3546.09, -3860.77, -3581.81, -3039.20, 0.000, 0.000, 0.000, 17:27:40.343
24, -3517.25, -3880.68, -3573.80, -3029.74, 0.000, 0.000, 0.000, 17:27:40.343
25, -3706.83, -4140.61, -3787.62, -3230.49, 0.000, 0.000, 0.000, 17:27:40.364
26, -3695.08, -4136.48, -3744.26, -3183.64, 0.000, 0.000, 0.000, 17:27:40.364
27, -3567.55, -3964.59, -3584.28, -3044.26, 0.000, 0.000, 0.000, 17:27:40.372
28, -3516.32, -3934.41, -3577.59, -3009.43, 0.000, 0.000, 0.000, 17:27:40.372
29, -3689.65, -4105.97, -3778.06, -3207.76, 0.000, 0.000, 0.000, 17:27:40.373
30, -3667.73, -4043.39, -3695.94, -3159.50, 0.000, 0.000, 0.000, 17:27:40.373
31, -3553.05, -3941.34, -3595.44, -3023.29, 0.000, 0.000, 0.000, 17:27:40.417
32, -3493.09, -3795.29, -3569.30, -2988.86, 0.000, 0.000, 0.000, 17:27:40.418
33, -3668.72, -4063.00, -3689.54, -3190.67, 0.000, 0.000, 0.000, 17:27:40.418
34, -3664.22, -4140.74, -3737.45, -3155.15, 0.000, 0.000, 0.000, 17:27:40.418
35, -3539.95, -3985.07, -3562.34, -3015.63, 0.000, 0.000, 0.000, 17:27:40.419
36, -3521.14, -3877.96, -3562.16, -2997.79, 0.000, 0.000, 0.000, 17:27:40.420
37, -3692.54, -4125.01, -3757.08, -3205.52, 0.000, 0.000, 0.000, 17:27:40.420
38, -3685.13, -4107.82, -3690.26, -3158.47, 0.000, 0.000, 0.000, 17:27:40.420
39, -3550.14, -3934.11, -3603.09, -3018.65, 0.000, 0.000, 0.000, 17:27:40.420
40, -3528.10, -3887.73, -3555.27, -3009.29, 0.000, 0.000, 0.000, 17:27:40.420
41, -3695.49, -4179.91, -3753.95, -3199.42, 0.000, 0.000, 0.000, 17:27:40.433
42, -3673.24, -4102.20, -3687.60, -3142.17, 0.000, 0.000, 0.000, 17:27:40.433
43, -3561.15, -3955.75, -3596.50, -3015.66, 0.000, 0.000, 0.000, 17:27:40.448
44, -3514.13, -3806.05, -3558.46, -2988.96, 0.000, 0.000, 0.000, 17:27:40.448
45, -3704.58, -4166.02, -3723.05, -3203.95, 0.000, 0.000, 0.000, 17:27:40.463
46, -3675.70, -4125.63, -3708.90, -3146.65, 0.000, 0.000, 0.000, 17:27:40.463
47, -3543.87, -3873.26, -3594.24, -3006.86, 0.000, 0.000, 0.000, 17:27:40.463
48, -3492.47, -3902.65, -3546.76, -2973.26, 0.000, 0.000, 0.000, 17:27:40.463
49, -3683.46, -4170.39, -3779.88, -3207.84, 0.000, 0.000, 0.000, 17:27:40.477
50, -3660.60, -4102.02, -3725.26, -3140.08, 0.000, 0.000, 0.000, 17:27:40.478
51, -3538.64, -3902.44, -3555.45, -3000.95, 0.000, 0.000, 0.000, 17:27:40.492
52, -3497.96, -3930.56, -3571.10, -2969.35, 0.000, 0.000, 0.000, 17:27:40.492
53, -3689.70, -4160.30, -3809.63, -3211.71, 0.000, 0.000, 0.000, 17:27:40.492
54, -3661.08, -4072.99, -3715.40, -3177.27, 0.000, 0.000, 0.000, 17:27:40.493
55, -3543.88, -3925.79, -3580.28, -3040.13, 0.000, 0.000, 0.000, 17:27:40.507
56, -3501.64, -3887.28, -3550.79, -3010.68, 0.000, 0.000, 0.000, 17:27:40.507
57, -3718.52, -4183.69, -3796.52, -3260.53, 0.000, 0.000, 0.000, 17:27:40.522
58, -3694.09, -4028.73, -3713.54, -3203.19, 0.000, 0.000, 0.000, 17:27:40.522
59, -3540.58, -3833.12, -3570.88, -3042.90, 0.000, 0.000, 0.000, 17:27:40.523
60, -3483.05, -3895.81, -3520.96, -3006.73, 0.000, 0.000, 0.000, 17:27:40.523
61, -3731.11, -4168.97, -3766.36, -3275.76, 0.000, 0.000, 0.000, 17:27:40.538
62, -3701.56, -4017.58, -3731.57, -3205.75, 0.000, 0.000, 0.000, 17:27:40.538
63, -3541.98, -3959.76, -3586.99, -3036.11, 0.000, 0.000, 0.000, 17:27:40.553
64, -3468.60, -3831.18, -3539.26, -2976.48, 0.000, 0.000, 0.000, 17:27:40.553
65, -3737.21, -4222.27, -3773.26, -3256.18, 0.000, 0.000, 0.000, 17:27:40.553
66, -3704.65, -4095.18, -3751.20, -3192.33, 0.000, 0.000, 0.000, 17:27:40.553
67, -3504.27, -3936.99, -3558.82, -2996.91, 0.000, 0.000, 0.000, 17:27:40.567
68, -3412.65, -3807.49, -3496.84, -2936.70, 0.000, 0.000, 0.000, 17:27:40.567
69, -3739.31, -4101.61, -3797.77, -3264.32, 0.000, 0.000, 0.000, 17:27:40.584
70, -3704.84, -4070.07, -3759.63, -3219.68, 0.000, 0.000, 0.000, 17:27:40.584
71, -3504.42, -3882.44, -3545.18, -3016.26, 0.000, 0.000, 0.000, 17:27:40.598
72, -3451.50, -3817.97, -3457.01, -2968.44, 0.000, 0.000, 0.000, 17:27:40.598
73, -3730.89, -4183.45, -3780.47, -3276.22, 0.000, 0.000, 0.000, 17:27:40.599
74, -4087.35, -4543.40, -4365.12, -3310.92, 0.000, 0.000, 0.000, 17:27:40.599
75, -4415.92, -4577.14, -5135.20, -4049.91, 0.000, 0.000, 0.000, 17:27:40.613
76, -4901.99, -4901.98, -5733.67, -4725.59, 0.000, 0.000, 0.000, 17:27:40.613
77, -4901.99, -4901.98, -5882.37, -4895.95, 0.000, 0.000, 0.000, 17:27:40.613
78, -4901.99, -4901.98, -5882.37, -4901.98, 0.000, 0.000, 0.000, 17:27:40.614
79, -4901.99, -4901.98, -5882.37, -4896.96, 0.000, 0.000, 0.000, 17:27:40.627
80, -4901.99, -4901.98, -5882.37, -4295.28, 0.000, 0.000, 0.000, 17:27:40.627
81, -4901.99, -4901.98, -5882.37, -4807.14, 0.000, 0.000, 0.000, 17:27:40.643
82, -4901.99, -4901.98, -5882.37, -4901.98, 0.000, 0.000, 0.000, 17:27:40.643
83, -4901.99, -4901.98, -5882.37, -4364.77, 0.000, 0.000, 0.000, 17:27:40.643
84, -4901.99, -4901.98, -5882.37, -3825.08, 0.000, 0.000, 0.000, 17:27:40.643
85, -4901.99, -4901.98, -5882.37, -3089.88, 0.000, 0.000, 0.000, 17:27:40.658
86, -4901.99, -4901.98, -5882.37, -2294.06, 0.000, 0.000, 0.000, 17:27:40.658
87, -4901.99, -4901.98, -5882.37, -1517.31, 0.000, 0.000, 0.000, 17:27:40.673
88, -4901.99, -4901.98, -5877.76, -921.19, 0.000, 0.000, 0.000, 17:27:40.673
89, -4901.99, -4901.98, -5810.27, -685.36, 0.000, 0.000, 0.000, 17:27:40.680
90, -4901.99, -4901.98, -5742.09, -123.74, 0.000, 0.000, 0.000, 17:27:40.681
91, -4901.99, -4901.98, -5019.50, 621.02, 0.000, 0.000, 0.000, 17:27:40.688
92, -4901.99, -4901.98, -5017.03, 1245.04, 0.000, 0.000, 0.000, 17:27:40.688
93, -4901.99, -4901.98, -4488.29, 1531.59, 0.000, 0.000, 0.000, 17:27:40.704
94, -4901.99, -4901.98, -3926.57, 1759.79, 0.000, 0.000, 0.000, 17:27:40.704
95, -4901.99, -4901.98, -3493.15, 1979.49, 0.000, 0.000, 0.000, 17:27:40.704
96, -4901.99, -4901.98, -3175.59, 2215.92, 0.000, 0.000, 0.000, 17:27:40.704
97, -4852.21, -4901.98, -2973.96, 2158.99, 0.000, 0.000, 0.000, 17:27:40.718
98, -4850.29, -4901.98, -3048.67, 1851.23, 0.000, 0.000, 0.000, 17:27:40.718
