%OpenBCI Raw EEG Data
%
%Sample Rate = 200.0 Hz
%First Column = SampleIndex
%Last Column = Timestamp 
%Other Columns = EEG data in microvolts followed by Accel Data (in G) interleaved with Aux Data
0, -3993.89, -4486.98, -4193.54, -3548.00, 0.000, 0.000, 0.000, 17:29:49.405
1, -3806.57, -4252.80, -3995.15, -3358.14, 0.000, 0.000, 0.000, 17:29:49.419
2, -3800.48, -4292.46, -4026.44, -3398.60, 0.000, 0.000, 0.000, 17:29:49.419
3, -4101.95, -4627.63, -4345.95, -3698.41, 0.000, 0.000, 0.000, 17:29:49.434
4, -3995.37, -4487.43, -4192.23, -3547.10, 0.000, 0.000, 0.000, 17:29:49.434
5, -3791.86, -4277.61, -3978.62, -3353.67, 0.000, 0.000, 0.000, 17:29:49.435
6, -3797.46, -4275.51, -4010.30, -3385.30, 0.000, 0.000, 0.000, 17:29:49.436
7, -4080.41, -4609.76, -4315.80, -3685.84, 0.000, 0.000, 0.000, 17:29:49.449
8, -3970.14, -4464.38, -4169.81, -3535.72, 0.000, 0.000, 0.000, 17:29:49.450
9, -3775.75, -4252.08, -3989.51, -3335.02, 0.000, 0.000, 0.000, 17:29:49.464
10, -3790.99, -4273.22, -4023.61, -3388.72, 0.000, 0.000, 0.000, 17:29:49.464
11, -4058.86, -4596.16, -4305.06, -3671.25, 0.000, 0.000, 0.000, 17:29:49.464
12, -3945.65, -4441.33, -4165.57, -3507.89, 0.000, 0.000, 0.000, 17:29:49.465
13, -3759.22, -4230.47, -3971.35, -3326.07, 0.000, 0.000, 0.000, 17:29:49.479
14, -3778.79, -4286.78, -3999.78, -3376.41, 0.000, 0.000, 0.000, 17:29:49.479
15, -4051.28, -4586.55, -4283.37, -3651.75, 0.000, 0.000, 0.000, 17:29:49.509
16, -3939.60, -4429.24, -4144.25, -3507.12, 0.000, 0.000, 0.000, 17:29:49.509
17, -3754.90, -4224.51, -3970.31, -3319.95, 0.000, 0.000, 0.000, 17:29:49.510
18, -3760.27, -4257.28, -3991.24, -3366.17, 0.000, 0.000, 0.000, 17:29:49.510
19, -4045.28, -4581.33, -4297.10, -3655.60, 0.000, 0.000, 0.000, 17:29:49.554
20, -3930.56, -4428.81, -4156.17, -3494.94, 0.000, 0.000, 0.000, 17:29:49.554
21, -3740.35, -4224.03, -3942.55, -3299.58, 0.000, 0.000, 0.000, 17:29:49.555
22, -3752.35, -4266.88, -3988.86, -3356.97, 0.000, 0.000, 0.000, 17:29:49.555
23, -4039.11, -4570.44, -4276.13, -3650.26, 0.000, 0.000, 0.000, 17:29:49.556
24, -3927.02, -4418.14, -4144.78, -3497.94, 0.000, 0.000, 0.000, 17:29:49.556
25, -3734.27, -4193.59, -3937.29, -3290.09, 0.000, 0.000, 0.000, 17:29:49.556
26, -3756.16, -4253.92, -3987.46, -3352.14, 0.000, 0.000, 0.000, 17:29:49.556
27, -4031.42, -4563.58, -4268.67, -3648.04, 0.000, 0.000, 0.000, 17:29:49.557
28, -3913.95, -4407.58, -4125.36, -3488.25, 0.000, 0.000, 0.000, 17:29:49.557
29, -3723.16, -4204.17, -3912.96, -3296.68, 0.000, 0.000, 0.000, 17:29:49.558
30, -3747.66, -4269.75, -3992.49, -3352.93, 0.000, 0.000, 0.000, 17:29:49.558
31, -4034.70, -4581.07, -4272.89, -3649.94, 0.000, 0.000, 0.000, 17:29:49.569
32, -3914.92, -4410.71, -4124.80, -3490.76, 0.000, 0.000, 0.000, 17:29:49.569
33, -3727.71, -4190.22, -3941.01, -3282.24, 0.000, 0.000, 0.000, 17:29:49.584
34, -3753.00, -4259.73, -3986.39, -3363.90, 0.000, 0.000, 0.000, 17:29:49.584
35, -4027.29, -4555.02, -4276.65, -3646.80, 0.000, 0.000, 0.000, 17:29:49.585
36, -3904.21, -4401.28, -4137.44, -3471.09, 0.000, 0.000, 0.000, 17:29:49.585
37, -3731.29, -4206.50, -3924.07, -3296.67, 0.000, 0.000, 0.000, 17:29:49.599
38, -3747.88, -4244.66, -3966.54, -3355.20, 0.000, 0.000, 0.000, 17:29:49.600
39, -4020.32, -4559.12, -4259.79, -3642.62, 0.000, 0.000, 0.000, 17:29:49.614
40, -3904.07, -4394.87, -4119.78, -3471.10, 0.000, 0.000, 0.000, 17:29:49.614
41, -3716.94, -4184.39, -3922.89, -3279.09, 0.000, 0.000, 0.000, 17:29:49.621
42, -3751.53, -4258.89, -3982.98, -3350.95, 0.000, 0.000, 0.000, 17:29:49.621
43, -4033.27, -4554.36, -4293.21, -3641.60, 0.000, 0.000, 0.000, 17:29:49.629
44, -3906.17, -4395.24, -4127.41, -3477.71, 0.000, 0.000, 0.000, 17:29:49.629
45, -3710.52, -4179.77, -3934.82, -3278.41, 0.000, 0.000, 0.000, 17:29:49.644
46, -3746.38, -4250.33, -3986.32, -3355.95, 0.000, 0.000, 0.000, 17:29:49.645
47, -4010.05, -4538.15, -4256.18, -3632.58, 0.000, 0.000, 0.000, 17:29:49.659
48, -3902.58, -4384.29, -4121.27, -3465.38, 0.000, 0.000, 0.000, 17:29:49.659
49, -3720.01, -4192.54, -3932.29, -3287.88, 0.000, 0.000, 0.000, 17:29:49.659
50, -3745.17, -4244.43, -3984.76, -3356.50, 0.000, 0.000, 0.000, 17:29:49.659
51, -4015.88, -4563.02, -4266.57, -3637.33, 0.000, 0.000, 0.000, 17:29:49.674
52, -3896.72, -4409.89, -4115.75, -3472.94, 0.000, 0.000, 0.000, 17:29:49.674
53, -3708.04, -4172.79, -3902.26, -3271.44, 0.000, 0.000, 0.000, 17:29:49.674
54, -3752.13, -4252.66, -3984.15, -3352.33, 0.000, 0.000, 0.000, 17:29:49.674
55, -4038.12, -4559.56, -4278.46, -3644.97, 0.000, 0.000, 0.000, 17:29:49.689
56, -3908.49, -4393.87, -4127.77, -3478.12, 0.000, 0.000, 0.000, 17:29:49.689
57, -3705.29, -4197.96, -3926.28, -3277.65, 0.000, 0.000, 0.000, 17:29:49.705
58, -3738.13, -4241.75, -3978.34, -3351.06, 0.000, 0.000, 0.000, 17:29:49.705
59, -4021.90, -4558.36, -4258.96, -3632.97, 0.000, 0.000, 0.000, 17:29:49.705
60, -3899.06, -4405.07, -4110.41, -3472.32, 0.000, 0.000, 0.000, 17:29:49.705
61, -3720.00, -4206.54, -3917.05, -3284.67, 0.000, 0.000, 0.000, 17:29:49.719
62, -3749.83, -4245.95, -3985.25, -3368.05, 0.000, 0.000, 0.000, 17:29:49.719
63, -4032.00, -4548.34, -4277.51, -3649.02, 0.000, 0.000, 0.000, 17:29:49.734
64, -3907.27, -4404.67, -4117.62, -3475.38, 0.000, 0.000, 0.000, 17:29:49.734
65, -3705.62, -4174.30, -3907.14, -3274.51, 0.000, 0.000, 0.000, 17:29:49.734
66, -3745.17, -4246.82, -3991.42, -3360.79, 0.000, 0.000, 0.000, 17:29:49.735
67, -4027.43, -4543.02, -4255.50, -3638.65, 0.000, 0.000, 0.000, 17:29:49.749
68, -3898.20, -4371.94, -4122.18, -3464.18, 0.000, 0.000, 0.000, 17:29:49.749
69, -3710.40, -4199.58, -3914.43, -3273.98, 0.000, 0.000, 0.000, 17:29:49.765
70, -3755.55, -4259.59, -4001.60, -3358.75, 0.000, 0.000, 0.000, 17:29:49.765
71, -4028.09, -4544.88, -4262.60, -3637.03, 0.000, 0.000, 0.000, 17:29:49.765
72, -3892.98, -4363.64, -4105.51, -3457.28, 0.000, 0.000, 0.000, 17:29:49.765
73, -3710.68, -4191.99, -3925.05, -3273.93, 0.000, 0.000, 0.000, 17:29:49.780
74, -3756.13, -4273.91, -4004.17, -3357.99, 0.000, 0.000, 0.000, 17:29:49.780
75, -4026.68, -4564.78, -4282.81, -3638.09, 0.000, 0.000, 0.000, 17:29:49.794
76, -3887.60, -4379.84, -4105.47, -3458.30, 0.000, 0.000, 0.000, 17:29:49.794
77, -3705.36, -4187.66, -3923.69, -3262.58, 0.000, 0.000, 0.000, 17:29:49.794
78, -3748.80, -4252.49, -3972.34, -3359.62, 0.000, 0.000, 0.000, 17:29:49.794
79, -4031.31, -4560.92, -4273.52, -3636.65, 0.000, 0.000, 0.000, 17:29:49.824
80, -3897.41, -4401.34, -4113.29, -3468.89, 0.000, 0.000, 0.000, 17:29:49.824
81, -3707.62, -4175.27, -3918.81, -3277.11, 0.000, 0.000, 0.000, 17:29:49.824
82, -3760.23, -4273.53, -3999.23, -3369.96, 0.000, 0.000, 0.000, 17:29:49.824
83, -4036.29, -4570.13, -4260.40, -3643.60, 0.000, 0.000, 0.000, 17:29:49.825
84, -3907.77, -4397.22, -4126.44, -3470.82, 0.000, 0.000, 0.000, 17:29:49.825
85, -3708.99, -4189.38, -3917.61, -3279.11, 0.000, 0.000, 0.000, 17:29:49.841
86, -3750.20, -4253.49, -4011.49, -3365.92, 0.000, 0.000, 0.000, 17:29:49.841
87, -4026.83, -4560.62, -4270.84, -3634.01, 0.000, 0.000, 0.000, 17:29:49.855
88, -3900.81, -4388.98, -4104.90, -3467.23, 0.000, 0.000, 0.000, 17:29:49.855
89, -3710.91, -4177.80, -3909.32, -3284.43, 0.000, 0.000, 0.000, 17:29:49.855
90, -3772.36, -4270.39, -4013.71, -3377.50, 0.000, 0.000, 0.000, 17:29:49.855
91, -4036.96, -4573.05, -4271.30, -3644.15, 0.000, 0.000, 0.000, 17:29:49.869
92, -3894.07, -4390.02, -4111.67, -3456.53, 0.000, 0.000, 0.000, 17:29:49.870
93, -3712.94, -4187.64, -3911.47, -3273.07, 0.000, 0.000, 0.000, 17:29:49.884
94, -3770.86, -4284.18, -3994.84, -3376.79, 0.000, 0.000, 0.000, 17:29:49.884
95, -4029.69, -4551.13, -4271.52, -3642.66, 0.000, 0.000, 0.000, 17:29:49.884
96, -3907.73, -4385.76, -4121.03, -3470.77, 0.000, 0.000, 0.000, 17:29:49.885
97, -3705.97, -4175.60, -3907.15, -3268.89, 0.000, 0.000, 0.000, 17:29:49.900
98, -3765.58, -4268.44, -4009.52, -3373.58, 0.000, 0.000, 0.000, 17:29:49.900
99, -4025.70, -4559.04, -4270.86, -3634.18, 0.000, 0.000, 0.000, 17:29:49.915
100, -3889.59, -4376.17, -4111.26, -3457.40, 0.000, 0.000, 0.000, 17:29:49.915
101, -3695.05, -4164.36, -3900.61, -3270.99, 0.000, 0.000, 0.000, 17:29:49.921
102, -3762.97, -4257.61, -3998.27, -3381.49, 0.000, 0.000, 0.000, 17:29:49.921
103, -4027.77, -4546.08, -4272.91, -3630.10, 0.000, 0.000, 0.000, 17:29:49.929
104, -3890.92, -4383.13, -4094.25, -3472.62, 0.000, 0.000, 0.000, 17:29:49.929
105, -3700.95, -4165.85, -3897.48, -3275.17, 0.000, 0.000, 0.000, 17:29:49.944
106, -3768.43, -4283.62, -4000.61, -3383.24, 0.000, 0.000, 0.000, 17:29:49.944
107, -4042.12, -4568.55, -4276.39, -3649.38, 0.000, 0.000, 0.000, 17:29:49.946
108, -3894.42, -4392.50, -4113.10, -3450.34, 0.000, 0.000, 0.000, 17:29:49.946
109, -3700.11, -4174.17, -3909.33, -3270.09, 0.000, 0.000, 0.000, 17:29:49.959
110, -3777.53, -4280.08, -4008.59, -3376.73, 0.000, 0.000, 0.000, 17:29:49.959
111, -4029.13, -4547.67, -4270.64, -3628.48, 0.000, 0.000, 0.000, 17:29:49.975
112, -3907.74, -4400.49, -4116.16, -3464.60, 0.000, 0.000, 0.000, 17:29:49.975
113, -3717.76, -4199.76, -3921.12, -3277.60, 0.000, 0.000, 0.000, 17:29:49.975
114, -3760.96, -4276.16, -4004.71, -3385.33, 0.000, 0.000, 0.000, 17:29:49.975
115, -4026.49, -4575.24, -4274.08, -3632.99, 0.000, 0.000, 0.000, 17:29:49.989
116, -3887.62, -4357.07, -4105.70, -3448.29, 0.000, 0.000, 0.000, 17:29:49.989
117, -3693.79, -4155.92, -3888.48, -3266.72, 0.000, 0.000, 0.000, 17:29:50.019
118, -3769.44, -4269.74, -4010.94, -3386.32, 0.000, 0.000, 0.000, 17:29:50.019
119, -4033.78, -4576.95, -4263.93, -3641.33, 0.000, 0.000, 0.000, 17:29:50.019
120, -3876.23, -4373.81, -4084.69, -3449.40, 0.000, 0.000, 0.000, 17:29:50.019
121, -3659.93, -4143.61, -3876.83, -3225.72, 0.000, 0.000, 0.000, 17:29:50.021
122, -3734.33, -4242.00, -3966.97, -3349.41, 0.000, 0.000, 0.000, 17:29:50.021
123, -3996.60, -4529.22, -4209.87, -3597.62, 0.000, 0.000, 0.000, 17:29:50.021
124, -3863.23, -4344.88, -4077.15, -3428.46, 0.000, 0.000, 0.000, 17:29:50.021
125, -3673.39, -4140.27, -3873.73, -3230.30, 0.000, 0.000, 0.000, 17:29:50.035
126, -3741.92, -4248.17, -3985.15, -3357.97, 0.000, 0.000, 0.000, 17:29:50.035
127, -4006.17, -4535.07, -4247.27, -3600.02, 0.000, 0.000, 0.000, 17:29:50.055
128, -3866.08, -4360.58, -4065.34, -3441.30, 0.000, 0.000, 0.000, 17:29:50.057
129, -3688.15, -4162.21, -3885.75, -3244.33, 0.000, 0.000, 0.000, 17:29:50.072
130, -3765.15, -4267.89, -4012.51, -3372.84, 0.000, 0.000, 0.000, 17:29:50.072
131, -4016.04, -4534.05, -4253.35, -3621.79, 0.000, 0.000, 0.000, 17:29:50.072
132, -3865.03, -4359.77, -4089.77, -3433.57, 0.000, 0.000, 0.000, 17:29:50.072
133, -3677.00, -4141.66, -3878.42, -3239.58, 0.000, 0.000, 0.000, 17:29:50.094
134, -3771.75, -4275.92, -4004.16, -3365.80, 0.000, 0.000, 0.000, 17:29:50.094
135, -4031.39, -4559.96, -4266.96, -3627.66, 0.000, 0.000, 0.000, 17:29:50.095
136, -3884.60, -4381.68, -4104.39, -3440.02, 0.000, 0.000, 0.000, 17:29:50.095
137, -3694.02, -4171.75, -3904.01, -3259.39, 0.000, 0.000, 0.000, 17:29:50.096
138, -3774.34, -4283.57, -4012.31, -3381.57, 0.000, 0.000, 0.000, 17:29:50.096
139, -4016.23, -4537.19, -4270.83, -3623.08, 0.000, 0.000, 0.000, 17:29:50.109
140, -3876.06, -4372.27, -4086.67, -3448.89, 0.000, 0.000, 0.000, 17:29:50.109
141, -3684.36, -4160.83, -3899.31, -3246.06, 0.000, 0.000, 0.000, 17:29:50.124
142, -3763.52, -4271.44, -4014.53, -3381.77, 0.000, 0.000, 0.000, 17:29:50.124
143, -4023.06, -4559.70, -4272.23, -3634.46, 0.000, 0.000, 0.000, 17:29:50.124
144, -3876.60, -4368.38, -4097.62, -3444.06, 0.000, 0.000, 0.000, 17:29:50.124
145, -3688.03, -4142.41, -3884.25, -3250.18, 0.000, 0.000, 0.000, 17:29:50.139
146, -3761.90, -4278.11, -4016.79, -3377.63, 0.000, 0.000, 0.000, 17:29:50.139
147, -4018.61, -4527.11, -4263.27, -3615.78, 0.000, 0.000, 0.000, 17:29:50.153
148, -3880.58, -4372.93, -4090.97, -3444.08, 0.000, 0.000, 0.000, 17:29:50.154
149, -3696.94, -4164.35, -3903.95, -3256.95, 0.000, 0.000, 0.000, 17:29:50.154
150, -3782.92, -4308.54, -4011.28, -3403.26, 0.000, 0.000, 0.000, 17:29:50.154
151, -4025.09, -4558.10, -4263.91, -3628.89, 0.000, 0.000, 0.000, 17:29:50.169
152, -3880.67, -4377.82, -4100.21, -3443.19, 0.000, 0.000, 0.000, 17:29:50.169
153, -3678.58, -4163.92, -3892.22, -3253.34, 0.000, 0.000, 0.000, 17:29:50.184
154, -3762.21, -4273.37, -4025.96, -3377.95, 0.000, 0.000, 0.000, 17:29:50.184
155, -4014.07, -4548.16, -4260.80, -3615.01, 0.000, 0.000, 0.000, 17:29:50.185
156, -3871.33, -4356.03, -4102.25, -3437.86, 0.000, 0.000, 0.000, 17:29:50.185
157, -3691.81, -4166.42, -3916.51, -3254.28, 0.000, 0.000, 0.000, 17:29:50.200
158, -3774.53, -4294.46, -4006.05, -3391.12, 0.000, 0.000, 0.000, 17:29:50.200
159, -4032.00, -4556.21, -4257.37, -3635.32, 0.000, 0.000, 0.000, 17:29:50.214
160, -3881.41, -4364.78, -4095.77, -3455.12, 0.000, 0.000, 0.000, 17:29:50.215
161, -3698.38, -4175.65, -3903.02, -3265.87, 0.000, 0.000, 0.000, 17:29:50.215
162, -3781.38, -4285.98, -4019.22, -3396.97, 0.000, 0.000, 0.000, 17:29:50.216
163, -4025.30, -4557.13, -4267.97, -3630.65, 0.000, 0.000, 0.000, 17:29:50.236
164, -3892.29, -4370.77, -4111.40, -3461.60, 0.000, 0.000, 0.000, 17:29:50.236
165, -3692.58, -4162.12, -3918.62, -3256.89, 0.000, 0.000, 0.000, 17:29:50.244
166, -3782.77, -4287.61, -4027.38, -3389.73, 0.000, 0.000, 0.000, 17:29:50.244
167, -4036.97, -4559.70, -4273.21, -3640.04, 0.000, 0.000, 0.000, 17:29:50.244
168, -3884.14, -4370.04, -4086.66, -3447.86, 0.000, 0.000, 0.000, 17:29:50.244
169, -3695.38, -4167.54, -3910.04, -3250.79, 0.000, 0.000, 0.000, 17:29:50.258
170, -3792.25, -4302.59, -4042.01, -3396.34, 0.000, 0.000, 0.000, 17:29:50.259
171, -4032.15, -4558.53, -4280.82, -3630.18, 0.000, 0.000, 0.000, 17:29:50.274
172, -3883.25, -4374.39, -4076.09, -3439.90, 0.000, 0.000, 0.000, 17:29:50.274
173, -3694.29, -4172.98, -3902.16, -3263.66, 0.000, 0.000, 0.000, 17:29:50.274
174, -3790.01, -4296.57, -4026.80, -3402.25, 0.000, 0.000, 0.000, 17:29:50.274
175, -4023.56, -4541.12, -4270.72, -3635.47, 0.000, 0.000, 0.000, 17:29:50.289
176, -3876.50, -4367.25, -4105.02, -3442.42, 0.000, 0.000, 0.000, 17:29:50.289
177, -3692.48, -4165.91, -3906.13, -3265.83, 0.000, 0.000, 0.000, 17:29:50.303
178, -3786.29, -4291.99, -4025.01, -3399.09, 0.000, 0.000, 0.000, 17:29:50.304
179, -4020.73, -4560.34, -4251.61, -3630.25, 0.000, 0.000, 0.000, 17:29:50.304
180, -3876.89, -4381.77, -4103.74, -3449.72, 0.000, 0.000, 0.000, 17:29:50.304
181, -3688.87, -4158.53, -3902.92, -3270.17, 0.000, 0.000, 0.000, 17:29:50.319
182, -3778.34, -4276.58, -4029.77, -3392.36, 0.000, 0.000, 0.000, 17:29:50.319
183, -4020.22, -4546.85, -4252.53, -3625.13, 0.000, 0.000, 0.000, 17:29:50.334
184, -3879.43, -4364.42, -4096.17, -3453.47, 0.000, 0.000, 0.000, 17:29:50.334
185, -3687.55, -4163.55, -3905.35, -3254.11, 0.000, 0.000, 0.000, 17:29:50.334
186, -3774.53, -4292.57, -4032.03, -3392.07, 0.000, 0.000, 0.000, 17:29:50.335
187, -4019.26, -4566.75, -4266.98, -3631.35, 0.000, 0.000, 0.000, 17:29:50.350
188, -3872.70, -4359.82, -4097.76, -3435.40, 0.000, 0.000, 0.000, 17:29:50.350
189, -3690.35, -4172.80, -3917.33, -3265.88, 0.000, 0.000, 0.000, 17:29:50.364
190, -3789.40, -4299.16, -4040.83, -3414.76, 0.000, 0.000, 0.000, 17:29:50.364
191, -4020.76, -4542.64, -4262.44, -3627.35, 0.000, 0.000, 0.000, 17:29:50.379
192, -3872.84, -4366.32, -4085.85, -3439.61, 0.000, 0.000, 0.000, 17:29:50.379
193, -3690.62, -4158.07, -3907.22, -3257.10, 0.000, 0.000, 0.000, 17:29:50.380
194, -3803.64, -4313.57, -4034.58, -3409.39, 0.000, 0.000, 0.000, 17:29:50.380
195, -4030.92, -4549.55, -4260.87, -3637.88, 0.000, 0.000, 0.000, 17:29:50.394
196, -3878.50, -4369.76, -4093.42, -3438.53, 0.000, 0.000, 0.000, 17:29:50.394
197, -3692.38, -4164.43, -3897.87, -3252.72, 0.000, 0.000, 0.000, 17:29:50.394
198, -3790.30, -4304.60, -4041.44, -3416.53, 0.000, 0.000, 0.000, 17:29:50.394
199, -4025.92, -4549.70, -4273.01, -3629.97, 0.000, 0.000, 0.000, 17:29:50.424
200, -3875.07, -4362.20, -4092.25, -3443.84, 0.000, 0.000, 0.000, 17:29:50.424
0, -3686.03, -4157.73, -3893.28, -3252.42, 0.000, 0.000, 0.000, 17:29:50.424
1, -3798.00, -4290.92, -4040.65, -3408.18, 0.000, 0.000, 0.000, 17:29:50.425
2, -4019.67, -4543.76, -4275.58, -3625.32, 0.000, 0.000, 0.000, 17:29:50.425
3, -3872.90, -4354.12, -4077.87, -3441.66, 0.000, 0.000, 0.000, 17:29:50.426
4, -3683.09, -4156.35, -3886.15, -3256.85, 0.000, 0.000, 0.000, 17:29:50.426
5, -3801.05, -4304.45, -4046.27, -3415.75, 0.000, 0.000, 0.000, 17:29:50.439
6, -4025.81, -4566.98, -4267.01, -3629.51, 0.000, 0.000, 0.000, 17:29:50.439
7, -3873.07, -4354.63, -4084.97, -3435.11, 0.000, 0.000, 0.000, 17:29:50.454
8, -3676.86, -4144.26, -3878.20, -3253.43, 0.000, 0.000, 0.000, 17:29:50.454
9, -3788.61, -4305.85, -4044.03, -3420.78, 0.000, 0.000, 0.000, 17:29:50.469
10, -4031.53, -4551.28, -4282.90, -3634.35, 0.000, 0.000, 0.000, 17:29:50.469
11, -3882.20, -4351.67, -4086.25, -3444.71, 0.000, 0.000, 0.000, 17:29:50.470
12, -3688.21, -4145.70, -3895.06, -3262.46, 0.000, 0.000, 0.000, 17:29:50.470
13, -3796.96, -4317.23, -4042.95, -3418.79, 0.000, 0.000, 0.000, 17:29:50.486
14, -4018.17, -4532.69, -4258.87, -3621.52, 0.000, 0.000, 0.000, 17:29:50.486
15, -3873.06, -4347.04, -4088.23, -3443.11, 0.000, 0.000, 0.000, 17:29:50.499
16, -3685.05, -4152.48, -3897.39, -3260.45, 0.000, 0.000, 0.000, 17:29:50.499
17, -3799.93, -4314.61, -4051.84, -3417.22, 0.000, 0.000, 0.000, 17:29:50.514
18, -4039.25, -4559.70, -4268.84, -3637.59, 0.000, 0.000, 0.000, 17:29:50.514
19, -3884.14, -4372.43, -4103.05, -3447.47, 0.000, 0.000, 0.000, 17:29:50.515
20, -3685.45, -4163.04, -3896.70, -3251.15, 0.000, 0.000, 0.000, 17:29:50.515
21, -3813.32, -4319.00, -4038.07, -3428.74, 0.000, 0.000, 0.000, 17:29:50.529
22, -4033.39, -4534.88, -4264.78, -3627.12, 0.000, 0.000, 0.000, 17:29:50.529
23, -3878.39, -4365.77, -4103.93, -3436.34, 0.000, 0.000, 0.000, 17:29:50.530
24, -3695.64, -4150.37, -3904.43, -3263.93, 0.000, 0.000, 0.000, 17:29:50.530
25, -3808.17, -4322.27, -4058.35, -3429.28, 0.000, 0.000, 0.000, 17:29:50.551
26, -4023.76, -4540.96, -4271.22, -3633.48, 0.000, 0.000, 0.000, 17:29:50.552
27, -3874.87, -4359.79, -4079.86, -3438.36, 0.000, 0.000, 0.000, 17:29:50.559
28, -3691.46, -4152.10, -3908.63, -3246.65, 0.000, 0.000, 0.000, 17:29:50.559
29, -3814.27, -4325.63, -4048.68, -3426.92, 0.000, 0.000, 0.000, 17:29:50.559
30, -4027.80, -4551.41, -4250.10, -3617.51, 0.000, 0.000, 0.000, 17:29:50.560
31, -3875.49, -4370.03, -4085.69, -3429.05, 0.000, 0.000, 0.000, 17:29:50.574
32, -3691.45, -4185.14, -3902.51, -3255.66, 0.000, 0.000, 0.000, 17:29:50.574
33, -3813.69, -4333.09, -4053.29, -3419.69, 0.000, 0.000, 0.000, 17:29:50.589
34, -4021.79, -4544.32, -4247.36, -3623.43, 0.000, 0.000, 0.000, 17:29:50.589
35, -3867.35, -4345.57, -4064.97, -3434.16, 0.000, 0.000, 0.000, 17:29:50.589
36, -3683.46, -4159.89, -3894.22, -3251.51, 0.000, 0.000, 0.000, 17:29:50.590
37, -3815.52, -4317.61, -4055.03, -3423.77, 0.000, 0.000, 0.000, 17:29:50.604
38, -4034.69, -4553.52, -4269.95, -3630.47, 0.000, 0.000, 0.000, 17:29:50.604
39, -3867.54, -4366.62, -4066.89, -3441.69, 0.000, 0.000, 0.000, 17:29:50.619
40, -3680.25, -4140.85, -3900.50, -3259.46, 0.000, 0.000, 0.000, 17:29:50.619
41, -3807.02, -4311.93, -4056.02, -3426.57, 0.000, 0.000, 0.000, 17:29:50.620
42, -4028.74, -4563.49, -4272.66, -3630.50, 0.000, 0.000, 0.000, 17:29:50.620
43, -3879.71, -4356.90, -4090.93, -3435.28, 0.000, 0.000, 0.000, 17:29:50.649
44, -3688.79, -4177.45, -3896.43, -3256.50, 0.000, 0.000, 0.000, 17:29:50.650
45, -3810.48, -4325.31, -4053.59, -3429.89, 0.000, 0.000, 0.000, 17:29:50.650
46, -4031.27, -4556.27, -4262.84, -3617.00, 0.000, 0.000, 0.000, 17:29:50.650
47, -3866.80, -4358.13, -4090.64, -3433.83, 0.000, 0.000, 0.000, 17:29:50.650
48, -3683.85, -4170.52, -3903.93, -3258.38, 0.000, 0.000, 0.000, 17:29:50.650
49, -3826.47, -4336.24, -4063.50, -3439.83, 0.000, 0.000, 0.000, 17:29:50.679
50, -4042.37, -4556.00, -4267.07, -3638.91, 0.000, 0.000, 0.000, 17:29:50.679
51, -3871.05, -4350.44, -4060.21, -3432.64, 0.000, 0.000, 0.000, 17:29:50.679
52, -3687.89, -4166.58, -3896.94, -3253.06, 0.000, 0.000, 0.000, 17:29:50.679
53, -3816.82, -4339.09, -4063.13, -3436.41, 0.000, 0.000, 0.000, 17:29:50.680
54, -4029.20, -4542.53, -4266.69, -3619.96, 0.000, 0.000, 0.000, 17:29:50.680
55, -3866.81, -4359.90, -4089.57, -3436.08, 0.000, 0.000, 0.000, 17:29:50.694
56, -3688.92, -4150.77, -3902.16, -3259.62, 0.000, 0.000, 0.000, 17:29:50.694
57, -3819.82, -4325.88, -4065.81, -3438.67, 0.000, 0.000, 0.000, 17:29:50.709
58, -4041.19, -4566.06, -4275.91, -3634.52, 0.000, 0.000, 0.000, 17:29:50.709
59, -3875.09, -4357.51, -4090.49, -3433.48, 0.000, 0.000, 0.000, 17:29:50.724
60, -3685.95, -4140.60, -3906.23, -3255.86, 0.000, 0.000, 0.000, 17:29:50.724
61, -3830.40, -4345.99, -4075.38, -3443.17, 0.000, 0.000, 0.000, 17:29:50.724
62, -4033.87, -4556.85, -4272.80, -3633.11, 0.000, 0.000, 0.000, 17:29:50.724
63, -3885.84, -4376.81, -4100.79, -3446.19, 0.000, 0.000, 0.000, 17:29:50.739
64, -3706.97, -4178.23, -3917.85, -3277.40, 0.000, 0.000, 0.000, 17:29:50.739
65, -3845.58, -4359.60, -4080.98, -3472.50, 0.000, 0.000, 0.000, 17:29:50.739
66, -4065.76, -4577.54, -4307.17, -3664.56, 0.000, 0.000, 0.000, 17:29:50.739
67, -3905.48, -4387.51, -4116.08, -3472.10, 0.000, 0.000, 0.000, 17:29:50.754
68, -3704.92, -4173.02, -3906.24, -3263.46, 0.000, 0.000, 0.000, 17:29:50.754
69, -3838.23, -4349.40, -4078.68, -3455.63, 0.000, 0.000, 0.000, 17:29:50.769
70, -4047.17, -4567.96, -4276.92, -3648.95, 0.000, 0.000, 0.000, 17:29:50.770
71, -3877.67, -4369.53, -4089.61, -3452.13, 0.000, 0.000, 0.000, 17:29:50.770
72, -3692.75, -4165.15, -3901.98, -3269.78, 0.000, 0.000, 0.000, 17:29:50.770
73, -3839.09, -4359.17, -4075.75, -3460.17, 0.000, 0.000, 0.000, 17:29:50.784
74, -4036.81, -4541.67, -4275.53, -3629.24, 0.000, 0.000, 0.000, 17:29:50.784
75, -3869.43, -4364.47, -4091.60, -3433.56, 0.000, 0.000, 0.000, 17:29:50.799
76, -3691.89, -4173.91, -3898.77, -3259.79, 0.000, 0.000, 0.000, 17:29:50.799
77, -3837.18, -4356.52, -4077.70, -3458.57, 0.000, 0.000, 0.000, 17:29:50.800
78, -4042.09, -4563.15, -4280.43, -3635.34, 0.000, 0.000, 0.000, 17:29:50.800
79, -3867.59, -4357.55, -4099.54, -3439.52, 0.000, 0.000, 0.000, 17:29:50.814
80, -3693.35, -4163.63, -3903.17, -3259.62, 0.000, 0.000, 0.000, 17:29:50.814
81, -3840.10, -4374.07, -4091.98, -3447.17, 0.000, 0.000, 0.000, 17:29:50.828
82, -4037.77, -4562.40, -4283.00, -3629.82, 0.000, 0.000, 0.000, 17:29:50.829
83, -3884.30, -4383.57, -4114.93, -3455.67, 0.000, 0.000, 0.000, 17:29:50.829
84, -3696.91, -4176.01, -3902.85, -3265.88, 0.000, 0.000, 0.000, 17:29:50.829
85, -3829.08, -4343.67, -4069.45, -3452.72, 0.000, 0.000, 0.000, 17:29:50.844
86, -4027.97, -4565.04, -4270.26, -3631.70, 0.000, 0.000, 0.000, 17:29:50.844
87, -3862.38, -4353.62, -4073.93, -3441.97, 0.000, 0.000, 0.000, 17:29:50.859
88, -3676.54, -4149.65, -3889.18, -3261.68, 0.000, 0.000, 0.000, 17:29:50.859
89, -3831.87, -4330.82, -4075.52, -3460.47, 0.000, 0.000, 0.000, 17:29:50.859
90, -4025.48, -4557.69, -4267.49, -3625.31, 0.000, 0.000, 0.000, 17:29:50.859
91, -3866.29, -4340.00, -4079.22, -3431.01, 0.000, 0.000, 0.000, 17:29:50.874
92, -3682.98, -4166.61, -3889.98, -3266.44, 0.000, 0.000, 0.000, 17:29:50.874
93, -3838.90, -4354.46, -4090.64, -3461.11, 0.000, 0.000, 0.000, 17:29:50.890
94, -4033.17, -4545.88, -4265.07, -3634.40, 0.000, 0.000, 0.000, 17:29:50.890
95, -3866.22, -4363.27, -4081.46, -3432.81, 0.000, 0.000, 0.000, 17:29:50.890
96, -3679.19, -4158.49, -3895.87, -3259.54, 0.000, 0.000, 0.000, 17:29:50.890
97, -3842.86, -4342.92, -4097.64, -3473.05, 0.000, 0.000, 0.000, 17:29:50.904
98, -4019.81, -4526.08, -4257.58, -3598.78, 0.000, 0.000, 0.000, 17:29:50.904
99, -3861.83, -4333.33, -4082.33, -3415.53, 0.000, 0.000, 0.000, 17:29:50.920
100, -3692.19, -4157.19, -3911.10, -3240.00, 0.000, 0.000, 0.000, 17:29:50.920
101, -3856.11, -4355.25, -4107.98, -3449.16, 0.000, 0.000, 0.000, 17:29:50.921
102, -4056.45, -4541.81, -4289.02, -3612.46, 0.000, 0.000, 0.000, 17:29:50.921
103, -3887.73, -4351.51, -4082.55, -3403.69, 0.000, 0.000, 0.000, 17:29:50.935
104, -3695.94, -4125.37, -3887.81, -3237.01, 0.000, 0.000, 0.000, 17:29:50.935
105, -3866.53, -4348.40, -4093.45, -3452.04, 0.000, 0.000, 0.000, 17:29:50.967
106, -4048.09, -4537.86, -4263.12, -3613.26, 0.000, 0.000, 0.000, 17:29:50.967
107, -3886.14, -4313.90, -4074.16, -3426.28, 0.000, 0.000, 0.000, 17:29:50.967
108, -3691.97, -4153.05, -3884.66, -3259.18, 0.000, 0.000, 0.000, 17:29:50.967
109, -3861.45, -4363.36, -4095.47, -3461.50, 0.000, 0.000, 0.000, 17:29:50.967
110, -4040.82, -4522.94, -4252.91, -3622.63, 0.000, 0.000, 0.000, 17:29:50.967
111, -3871.20, -4347.57, -4066.05, -3418.27, 0.000, 0.000, 0.000, 17:29:50.967
112, -3691.89, -4154.30, -3890.37, -3247.56, 0.000, 0.000, 0.000, 17:29:50.967
113, -3849.20, -4361.15, -4101.68, -3455.07, 0.000, 0.000, 0.000, 17:29:50.980
114, -4030.05, -4544.00, -4262.89, -3617.19, 0.000, 0.000, 0.000, 17:29:50.981
115, -3862.37, -4362.50, -4083.66, -3419.74, 0.000, 0.000, 0.000, 17:29:51.024
116, -3676.01, -4142.17, -3887.04, -3254.15, 0.000, 0.000, 0.000, 17:29:51.024
117, -3839.20, -4337.87, -4076.45, -3453.62, 0.000, 0.000, 0.000, 17:29:51.024
118, -4027.73, -4531.37, -4234.37, -3623.80, 0.000, 0.000, 0.000, 17:29:51.024
119, -3867.54, -4361.80, -4084.12, -3421.86, 0.000, 0.000, 0.000, 17:29:51.025
120, -3678.88, -4159.33, -3892.71, -3252.32, 0.000, 0.000, 0.000, 17:29:51.025
121, -3839.92, -4365.28, -4104.28, -3461.80, 0.000, 0.000, 0.000, 17:29:51.025
122, -4021.73, -4521.12, -4268.78, -3614.06, 0.000, 0.000, 0.000, 17:29:51.026
123, -3855.52, -4352.42, -4088.33, -3427.90, 0.000, 0.000, 0.000, 17:29:51.026
124, -3691.94, -4161.51, -3905.26, -3263.93, 0.000, 0.000, 0.000, 17:29:51.026
125, -3847.49, -4347.12, -4080.42, -3459.04, 0.000, 0.000, 0.000, 17:29:51.038
126, -4037.23, -4539.18, -4264.36, -3620.75, 0.000, 0.000, 0.000, 17:29:51.039
127, -3861.84, -4354.60, -4078.15, -3426.31, 0.000, 0.000, 0.000, 17:29:51.055
128, -3682.06, -4158.12, -3903.11, -3262.25, 0.000, 0.000, 0.000, 17:29:51.055
129, -3846.43, -4360.44, -4092.73, -3471.71, 0.000, 0.000, 0.000, 17:29:51.084
130, -4025.61, -4559.15, -4250.84, -3620.95, 0.000, 0.000, 0.000, 17:29:51.084
131, -3850.36, -4344.94, -4059.68, -3415.88, 0.000, 0.000, 0.000, 17:29:51.085
132, -3676.80, -4167.59, -3899.39, -3247.58, 0.000, 0.000, 0.000, 17:29:51.085
133, -3836.91, -4355.77, -4086.74, -3461.70, 0.000, 0.000, 0.000, 17:29:51.086
134, -4017.22, -4522.88, -4258.87, -3607.37, 0.000, 0.000, 0.000, 17:29:51.086
135, -3845.61, -4342.57, -4061.93, -3416.25, 0.000, 0.000, 0.000, 17:29:51.086
136, -3684.59, -4154.34, -3885.63, -3252.48, 0.000, 0.000, 0.000, 17:29:51.086
137, -3847.25, -4354.89, -4094.97, -3475.01, 0.000, 0.000, 0.000, 17:29:51.100
138, -4018.99, -4527.90, -4260.11, -3610.92, 0.000, 0.000, 0.000, 17:29:51.101
139, -3854.04, -4348.41, -4056.08, -3419.60, 0.000, 0.000, 0.000, 17:29:51.115
140, -3677.69, -4149.25, -3881.04, -3231.36, 0.000, 0.000, 0.000, 17:29:51.115
141, -3831.21, -4349.32, -4077.02, -3446.13, 0.000, 0.000, 0.000, 17:29:51.129
142, -3989.08, -4505.32, -4216.42, -3582.18, 0.000, 0.000, 0.000, 17:29:51.130
143, -3803.69, -4286.92, -4020.18, -3378.10, 0.000, 0.000, 0.000, 17:29:51.130
144, -3641.16, -4129.45, -3851.34, -3218.75, 0.000, 0.000, 0.000, 17:29:51.130
145, -3812.48, -4344.68, -4064.11, -3439.21, 0.000, 0.000, 0.000, 17:29:51.144
146, -4000.60, -4531.43, -4245.13, -3601.92, 0.000, 0.000, 0.000, 17:29:51.144
147, -3823.33, -4306.40, -4051.04, -3386.23, 0.000, 0.000, 0.000, 17:29:51.159
148, -3645.08, -4112.46, -3858.30, -3221.64, 0.000, 0.000, 0.000, 17:29:51.159
149, -3811.06, -4327.76, -4075.40, -3434.49, 0.000, 0.000, 0.000, 17:29:51.160
150, -3976.88, -4502.73, -4213.03, -3574.52, 0.000, 0.000, 0.000, 17:29:51.160
151, -3823.52, -4309.41, -4041.84, -3376.01, 0.000, 0.000, 0.000, 17:29:51.174
152, -3653.56, -4141.76, -3866.52, -3219.87, 0.000, 0.000, 0.000, 17:29:51.174
153, -3826.34, -4362.21, -4091.08, -3443.21, 0.000, 0.000, 0.000, 17:29:51.204
154, -3999.68, -4520.11, -4246.36, -3601.91, 0.000, 0.000, 0.000, 17:29:51.204
155, -3836.51, -4333.47, -4060.21, -3393.59, 0.000, 0.000, 0.000, 17:29:51.204
156, -3657.04, -4133.96, -3882.39, -3230.07, 0.000, 0.000, 0.000, 17:29:51.204
157, -3836.33, -4371.43, -4098.27, -3458.67, 0.000, 0.000, 0.000, 17:29:51.205
158, -4006.15, -4523.29, -4252.88, -3590.15, 0.000, 0.000, 0.000, 17:29:51.205
159, -3822.99, -4315.00, -4044.22, -3393.29, 0.000, 0.000, 0.000, 17:29:51.205
160, -3665.29, -4142.28, -3867.33, -3236.87, 0.000, 0.000, 0.000, 17:29:51.206
161, -3839.87, -4355.10, -4102.10, -3458.55, 0.000, 0.000, 0.000, 17:29:51.219
162, -4008.54, -4535.86, -4245.66, -3598.33, 0.000, 0.000, 0.000, 17:29:51.219
163, -3839.80, -4327.40, -4063.64, -3412.73, 0.000, 0.000, 0.000, 17:29:51.234
164, -3676.01, -4163.93, -3892.62, -3249.84, 0.000, 0.000, 0.000, 17:29:51.234
165, -3846.67, -4379.25, -4100.76, -3475.13, 0.000, 0.000, 0.000, 17:29:51.250
166, -4011.85, -4521.79, -4240.92, -3596.10, 0.000, 0.000, 0.000, 17:29:51.250
167, -3846.55, -4333.87, -4067.04, -3411.12, 0.000, 0.000, 0.000, 17:29:51.251
168, -3670.07, -4164.66, -3906.27, -3239.16, 0.000, 0.000, 0.000, 17:29:51.251
169, -3860.78, -4390.43, -4112.28, -3467.78, 0.000, 0.000, 0.000, 17:29:51.264
170, -4016.95, -4522.29, -4256.66, -3600.15, 0.000, 0.000, 0.000, 17:29:51.264
171, -3837.73, -4305.73, -4053.73, -3398.67, 0.000, 0.000, 0.000, 17:29:51.279
172, -3667.16, -4138.78, -3866.00, -3240.06, 0.000, 0.000, 0.000, 17:29:51.279
173, -3859.54, -4381.64, -4110.93, -3489.15, 0.000, 0.000, 0.000, 17:29:51.280
174, -4013.77, -4533.79, -4232.80, -3608.89, 0.000, 0.000, 0.000, 17:29:51.280
175, -3828.63, -4329.02, -4043.32, -3399.71, 0.000, 0.000, 0.000, 17:29:51.294
176, -3659.23, -4156.72, -3878.38, -3245.92, 0.000, 0.000, 0.000, 17:29:51.294
177, -3840.31, -4377.24, -4091.44, -3484.13, 0.000, 0.000, 0.000, 17:29:51.309
178, -4007.50, -4514.51, -4249.58, -3612.21, 0.000, 0.000, 0.000, 17:29:51.309
179, -3825.83, -4312.68, -4030.25, -3393.50, 0.000, 0.000, 0.000, 17:29:51.309
180, -3659.29, -4114.00, -3870.79, -3236.94, 0.000, 0.000, 0.000, 17:29:51.309
181, -3841.84, -4372.53, -4114.54, -3471.73, 0.000, 0.000, 0.000, 17:29:51.324
182, -3993.88, -4507.87, -4234.20, -3604.44, 0.000, 0.000, 0.000, 17:29:51.324
183, -3855.78, -4371.43, -4082.83, -3421.88, 0.000, 0.000, 0.000, 17:29:51.338
184, -3675.58, -4150.92, -3882.38, -3241.24, 0.000, 0.000, 0.000, 17:29:51.339
185, -3834.11, -4374.89, -4090.30, -3476.05, 0.000, 0.000, 0.000, 17:29:51.339
186, -3982.78, -4522.61, -4247.47, -3595.12, 0.000, 0.000, 0.000, 17:29:51.339
187, -3806.77, -4333.02, -4036.90, -3397.96, 0.000, 0.000, 0.000, 17:29:51.354
188, -3630.60, -4159.80, -3884.46, -3239.99, 0.000, 0.000, 0.000, 17:29:51.354
189, -3816.93, -4385.46, -4090.60, -3477.21, 0.000, 0.000, 0.000, 17:29:51.368
190, -3979.10, -4535.78, -4239.17, -3598.07, 0.000, 0.000, 0.000, 17:29:51.369
191, -3810.64, -4337.32, -4061.27, -3406.43, 0.000, 0.000, 0.000, 17:29:51.369
192, -3653.12, -4160.28, -3882.99, -3247.70, 0.000, 0.000, 0.000, 17:29:51.369
193, -3851.52, -4398.31, -4103.74, -3482.44, 0.000, 0.000, 0.000, 17:29:51.384
194, -3992.81, -4533.81, -4233.32, -3604.62, 0.000, 0.000, 0.000, 17:29:51.384
195, -3826.24, -4328.59, -4048.18, -3416.88, 0.000, 0.000, 0.000, 17:29:51.399
196, -3657.77, -4159.54, -3885.44, -3253.04, 0.000, 0.000, 0.000, 17:29:51.399
197, -3854.74, -4390.69, -4106.44, -3492.53, 0.000, 0.000, 0.000, 17:29:51.400
198, -4005.90, -4532.49, -4252.89, -3599.32, 0.000, 0.000, 0.000, 17:29:51.400
199, -3835.61, -4316.97, -4052.95, -3411.53, 0.000, 0.000, 0.000, 17:29:51.416
200, -3659.85, -4146.72, -3892.52, -3250.03, 0.000, 0.000, 0.000, 17:29:51.416
0, -3853.86, -4389.05, -4121.35, -3479.80, 0.000, 0.000, 0.000, 17:29:51.416
1, -4005.03, -4545.71, -4247.33, -3592.28, 0.000, 0.000, 0.000, 17:29:51.444
2, -3825.77, -4313.54, -4051.91, -3396.43, 0.000, 0.000, 0.000, 17:29:51.444
3, -3664.22, -4141.64, -3870.98, -3241.28, 0.000, 0.000, 0.000, 17:29:51.444
4, -3869.11, -4400.65, -4108.10, -3488.95, 0.000, 0.000, 0.000, 17:29:51.445
5, -4004.26, -4513.76, -4235.33, -3602.84, 0.000, 0.000, 0.000, 17:29:51.446
6, -3836.71, -4335.74, -4049.29, -3414.58, 0.000, 0.000, 0.000, 17:29:51.446
7, -3662.37, -4142.28, -3886.90, -3258.23, 0.000, 0.000, 0.000, 17:29:51.459
8, -3879.19, -4392.56, -4135.24, -3499.56, 0.000, 0.000, 0.000, 17:29:51.459
9, -4019.23, -4532.09, -4244.51, -3601.55, 0.000, 0.000, 0.000, 17:29:51.489
10, -3844.91, -4337.69, -4056.25, -3399.42, 0.000, 0.000, 0.000, 17:29:51.489
11, -3667.49, -4141.70, -3883.91, -3245.07, 0.000, 0.000, 0.000, 17:29:51.490
12, -3870.82, -4400.39, -4135.98, -3497.22, 0.000, 0.000, 0.000, 17:29:51.490
13, -4010.64, -4519.17, -4249.75, -3599.14, 0.000, 0.000, 0.000, 17:29:51.490
14, -3831.88, -4326.09, -4054.29, -3401.23, 0.000, 0.000, 0.000, 17:29:51.490
15, -3672.06, -4142.51, -3889.42, -3235.91, 0.000, 0.000, 0.000, 17:29:51.491
16, -3866.13, -4388.85, -4119.00, -3489.43, 0.000, 0.000, 0.000, 17:29:51.491
17, -4000.85, -4522.73, -4243.00, -3590.95, 0.000, 0.000, 0.000, 17:29:51.504
18, -3844.33, -4332.28, -4053.26, -3397.15, 0.000, 0.000, 0.000, 17:29:51.504
19, -3672.73, -4144.32, -3889.71, -3246.24, 0.000, 0.000, 0.000, 17:29:51.535
20, -3875.09, -4392.80, -4126.46, -3482.01, 0.000, 0.000, 0.000, 17:29:51.535
21, -3999.20, -4509.43, -4239.80, -3589.39, 0.000, 0.000, 0.000, 17:29:51.535
22, -3834.73, -4318.22, -4046.75, -3406.15, 0.000, 0.000, 0.000, 17:29:51.535
23, -3660.89, -4145.85, -3877.96, -3234.01, 0.000, 0.000, 0.000, 17:29:51.537
24, -3870.11, -4388.33, -4120.49, -3480.98, 0.000, 0.000, 0.000, 17:29:51.537
25, -4012.03, -4523.48, -4241.31, -3590.30, 0.000, 0.000, 0.000, 17:29:51.549
26, -3842.37, -4320.54, -4068.89, -3395.66, 0.000, 0.000, 0.000, 17:29:51.550
27, -3669.31, -4148.77, -3892.26, -3231.55, 0.000, 0.000, 0.000, 17:29:51.564
28, -3867.83, -4393.20, -4130.19, -3477.01, 0.000, 0.000, 0.000, 17:29:51.564
29, -4001.81, -4523.22, -4239.85, -3585.80, 0.000, 0.000, 0.000, 17:29:51.564
30, -3831.71, -4317.05, -4069.01, -3385.71, 0.000, 0.000, 0.000, 17:29:51.564
31, -3666.84, -4152.61, -3885.94, -3238.69, 0.000, 0.000, 0.000, 17:29:51.579
32, -3880.02, -4402.02, -4136.84, -3496.09, 0.000, 0.000, 0.000, 17:29:51.579
33, -4014.19, -4531.05, -4270.84, -3603.68, 0.000, 0.000, 0.000, 17:29:51.594
34, -3841.43, -4332.90, -4080.49, -3414.40, 0.000, 0.000, 0.000, 17:29:51.594
35, -3687.97, -4170.63, -3916.46, -3257.50, 0.000, 0.000, 0.000, 17:29:51.595
36, -3893.05, -4406.06, -4148.17, -3496.92, 0.000, 0.000, 0.000, 17:29:51.595
37, -3999.37, -4524.01, -4238.10, -3582.18, 0.000, 0.000, 0.000, 17:29:51.609
38, -3827.65, -4314.49, -4033.11, -3390.81, 0.000, 0.000, 0.000, 17:29:51.609
39, -3663.36, -4129.38, -3886.58, -3234.94, 0.000, 0.000, 0.000, 17:29:51.625
40, -3880.94, -4399.42, -4136.07, -3499.81, 0.000, 0.000, 0.000, 17:29:51.625
41, -4010.18, -4531.61, -4221.33, -3590.69, 0.000, 0.000, 0.000, 17:29:51.639
42, -3838.04, -4312.19, -4048.38, -3393.34, 0.000, 0.000, 0.000, 17:29:51.639
43, -3677.30, -4142.86, -3893.62, -3251.50, 0.000, 0.000, 0.000, 17:29:51.640
44, -3883.05, -4398.28, -4136.73, -3496.92, 0.000, 0.000, 0.000, 17:29:51.640
45, -4006.00, -4512.74, -4235.02, -3587.36, 0.000, 0.000, 0.000, 17:29:51.654
46, -3840.13, -4342.83, -4054.82, -3399.74, 0.000, 0.000, 0.000, 17:29:51.654
47, -3680.70, -4148.06, -3902.63, -3249.32, 0.000, 0.000, 0.000, 17:29:51.654
48, -3888.03, -4400.00, -4146.02, -3509.82, 0.000, 0.000, 0.000, 17:29:51.654
49, -4002.29, -4531.23, -4240.67, -3599.91, 0.000, 0.000, 0.000, 17:29:51.669
50, -3833.74, -4309.04, -4049.19, -3387.95, 0.000, 0.000, 0.000, 17:29:51.669
51, -3679.93, -4148.88, -3901.47, -3250.14, 0.000, 0.000, 0.000, 17:29:51.684
52, -3889.74, -4397.06, -4140.53, -3510.66, 0.000, 0.000, 0.000, 17:29:51.684
53, -4011.00, -4517.31, -4245.47, -3600.83, 0.000, 0.000, 0.000, 17:29:51.699
54, -3828.60, -4312.73, -4045.58, -3399.05, 0.000, 0.000, 0.000, 17:29:51.699
55, -3671.85, -4151.44, -3890.97, -3246.75, 0.000, 0.000, 0.000, 17:29:51.700
56, -3887.58, -4424.45, -4126.62, -3502.19, 0.000, 0.000, 0.000, 17:29:51.700
57, -4007.01, -4518.55, -4233.28, -3587.15, 0.000, 0.000, 0.000, 17:29:51.716
58, -3828.42, -4308.04, -4040.05, -3404.77, 0.000, 0.000, 0.000, 17:29:51.717
59, -3664.60, -4136.54, -3869.53, -3247.84, 0.000, 0.000, 0.000, 17:29:51.717
60, -3876.33, -4393.56, -4119.44, -3506.41, 0.000, 0.000, 0.000, 17:29:51.717
61, -4011.22, -4520.17, -4233.81, -3599.75, 0.000, 0.000, 0.000, 17:29:51.729
62, -3826.09, -4318.54, -4043.00, -3395.88, 0.000, 0.000, 0.000, 17:29:51.729
63, -3669.59, -4149.05, -3896.86, -3249.80, 0.000, 0.000, 0.000, 17:29:51.759
64, -3889.32, -4403.43, -4149.82, -3511.40, 0.000, 0.000, 0.000, 17:29:51.759
65, -4004.72, -4517.96, -4231.44, -3602.26, 0.000, 0.000, 0.000, 17:29:51.759
66, -3834.04, -4336.78, -4046.70, -3396.57, 0.000, 0.000, 0.000, 17:29:51.760
67, -3674.81, -4168.11, -3890.72, -3250.25, 0.000, 0.000, 0.000, 17:29:51.760
68, -3894.94, -4422.56, -4143.35, -3509.55, 0.000, 0.000, 0.000, 17:29:51.760
69, -4012.10, -4523.05, -4248.82, -3597.89, 0.000, 0.000, 0.000, 17:29:51.761
70, -3827.86, -4319.47, -4037.37, -3401.48, 0.000, 0.000, 0.000, 17:29:51.761
71, -3666.72, -4134.62, -3896.86, -3245.96, 0.000, 0.000, 0.000, 17:29:51.774
72, -3892.01, -4417.48, -4146.20, -3516.75, 0.000, 0.000, 0.000, 17:29:51.774
73, -4018.68, -4538.87, -4248.49, -3599.51, 0.000, 0.000, 0.000, 17:29:51.789
74, -3846.82, -4332.65, -4050.72, -3403.16, 0.000, 0.000, 0.000, 17:29:51.789
75, -3656.28, -4114.85, -3860.35, -3247.16, 0.000, 0.000, 0.000, 17:29:51.804
76, -3870.96, -4392.53, -4112.75, -3518.87, 0.000, 0.000, 0.000, 17:29:51.804
77, -3990.72, -4503.28, -4201.50, -3605.67, 0.000, 0.000, 0.000, 17:29:51.805
78, -3814.81, -4300.43, -4014.12, -3411.10, 0.000, 0.000, 0.000, 17:29:51.805
79, -3647.39, -4104.33, -3845.74, -3266.54, 0.000, 0.000, 0.000, 17:29:51.821
80, -3869.00, -4381.33, -4075.66, -3543.15, 0.000, 0.000, 0.000, 17:29:51.821
81, -3993.14, -4498.11, -4178.75, -3613.30, 0.000, 0.000, 0.000, 17:29:51.834
82, -3822.48, -4269.02, -3971.73, -3420.43, 0.000, 0.000, 0.000, 17:29:51.834
83, -3661.03, -4110.64, -3823.52, -3289.86, 0.000, 0.000, 0.000, 17:29:51.841
84, -3868.42, -4374.22, -4066.01, -3556.01, 0.000, 0.000, 0.000, 17:29:51.843
85, -3992.36, -4471.59, -4151.74, -3642.23, 0.000, 0.000, 0.000, 17:29:51.850
86, -3809.41, -4268.39, -3948.37, -3437.99, 0.000, 0.000, 0.000, 17:29:51.850
87, -3641.24, -4088.31, -3792.64, -3304.06, 0.000, 0.000, 0.000, 17:29:51.879
88, -3876.45, -4355.04, -4049.59, -3565.07, 0.000, 0.000, 0.000, 17:29:51.879
89, -3978.25, -4434.28, -4135.23, -3634.31, 0.000, 0.000, 0.000, 17:29:51.880
90, -3800.84, -4252.28, -3940.13, -3429.22, 0.000, 0.000, 0.000, 17:29:51.880
91, -3653.31, -4088.43, -3782.86, -3294.47, 0.000, 0.000, 0.000, 17:29:51.881
92, -3889.22, -4360.18, -4063.15, -3569.10, 0.000, 0.000, 0.000, 17:29:51.881
93, -3988.66, -4458.02, -4139.77, -3642.80, 0.000, 0.000, 0.000, 17:29:51.893
94, -3820.66, -4263.26, -3953.62, -3450.02, 0.000, 0.000, 0.000, 17:29:51.894
95, -3655.43, -4075.89, -3787.39, -3292.68, 0.000, 0.000, 0.000, 17:29:51.909
96, -3896.24, -4367.15, -4044.81, -3569.80, 0.000, 0.000, 0.000, 17:29:51.909
97, -4003.25, -4453.69, -4148.94, -3636.82, 0.000, 0.000, 0.000, 17:29:51.910
98, -3826.99, -4270.61, -3971.40, -3429.72, 0.000, 0.000, 0.000, 17:29:51.910
99, -3677.62, -4114.01, -3806.86, -3289.63, 0.000, 0.000, 0.000, 17:29:51.924
100, -3904.64, -4388.76, -4068.98, -3563.68, 0.000, 0.000, 0.000, 17:29:51.924
101, -4010.38, -4485.87, -4177.78, -3639.84, 0.000, 0.000, 0.000, 17:29:51.924
102, -3822.24, -4259.42, -3964.40, -3432.69, 0.000, 0.000, 0.000, 17:29:51.924
103, -3667.62, -4096.71, -3817.33, -3287.39, 0.000, 0.000, 0.000, 17:29:51.939
104, -3909.36, -4398.97, -4107.63, -3566.15, 0.000, 0.000, 0.000, 17:29:51.939
105, -3998.46, -4478.70, -4160.72, -3608.55, 0.000, 0.000, 0.000, 17:29:51.954
106, -3837.08, -4286.96, -4006.49, -3410.91, 0.000, 0.000, 0.000, 17:29:51.954
107, -3678.49, -4133.10, -3832.31, -3280.11, 0.000, 0.000, 0.000, 17:29:51.955
108, -3918.74, -4394.42, -4113.86, -3553.38, 0.000, 0.000, 0.000, 17:29:51.955
109, -4001.45, -4494.52, -4183.07, -3599.11, 0.000, 0.000, 0.000, 17:29:51.970
110, -3828.56, -4274.65, -3991.42, -3407.37, 0.000, 0.000, 0.000, 17:29:51.970
111, -3679.52, -4117.29, -3862.71, -3277.34, 0.000, 0.000, 0.000, 17:29:51.983
112, -3907.52, -4405.91, -4109.21, -3547.20, 0.000, 0.000, 0.000, 17:29:51.984
113, -4004.29, -4490.98, -4190.34, -3596.71, 0.000, 0.000, 0.000, 17:29:51.985
114, -3844.33, -4303.50, -4014.51, -3420.82, 0.000, 0.000, 0.000, 17:29:51.985
115, -3697.08, -4152.71, -3900.70, -3284.55, 0.000, 0.000, 0.000, 17:29:51.999
116, -3933.00, -4439.30, -4169.50, -3572.68, 0.000, 0.000, 0.000, 17:29:51.999
117, -4035.71, -4529.08, -4239.03, -3622.43, 0.000, 0.000, 0.000, 17:29:52.014
118, -3866.87, -4326.64, -4044.18, -3438.35, 0.000, 0.000, 0.000, 17:29:52.015
119, -3697.48, -4160.72, -3900.78, -3293.43, 0.000, 0.000, 0.000, 17:29:52.015
120, -3935.90, -4455.04, -4160.91, -3563.19, 0.000, 0.000, 0.000, 17:29:52.015
121, -4025.95, -4524.30, -4229.89, -3611.83, 0.000, 0.000, 0.000, 17:29:52.044
122, -3851.96, -4311.15, -4042.96, -3417.14, 0.000, 0.000, 0.000, 17:29:52.044
123, -3700.52, -4172.97, -3902.73, -3294.94, 0.000, 0.000, 0.000, 17:29:52.044
124, -3929.97, -4443.55, -4173.46, -3563.23, 0.000, 0.000, 0.000, 17:29:52.044
125, -4016.68, -4518.03, -4221.56, -3608.94, 0.000, 0.000, 0.000, 17:29:52.045
126, -3855.18, -4337.20, -4054.11, -3423.61, 0.000, 0.000, 0.000, 17:29:52.045
127, -3693.40, -4168.16, -3903.07, -3272.35, 0.000, 0.000, 0.000, 17:29:52.059
128, -3936.40, -4449.17, -4165.35, -3549.12, 0.000, 0.000, 0.000, 17:29:52.059
129, -4021.60, -4521.28, -4219.97, -3594.59, 0.000, 0.000, 0.000, 17:29:52.074
130, -3843.28, -4320.41, -4029.08, -3407.73, 0.000, 0.000, 0.000, 17:29:52.074
131, -3688.72, -4167.22, -3881.65, -3265.99, 0.000, 0.000, 0.000, 17:29:52.075
132, -3923.86, -4466.01, -4166.99, -3556.18, 0.000, 0.000, 0.000, 17:29:52.075
133, -4001.53, -4518.35, -4222.71, -3599.71, 0.000, 0.000, 0.000, 17:29:52.089
134, -3822.34, -4312.50, -4036.56, -3404.92, 0.000, 0.000, 0.000, 17:29:52.089
135, -3673.94, -4150.02, -3893.94, -3264.62, 0.000, 0.000, 0.000, 17:29:52.104
136, -3909.90, -4436.41, -4162.29, -3543.57, 0.000, 0.000, 0.000, 17:29:52.104
137, -3998.87, -4505.40, -4219.86, -3597.38, 0.000, 0.000, 0.000, 17:29:52.104
138, -3832.96, -4301.02, -4045.81, -3407.21, 0.000, 0.000, 0.000, 17:29:52.105
139, -3683.20, -4157.50, -3889.95, -3271.50, 0.000, 0.000, 0.000, 17:29:52.119
140, -3929.90, -4476.18, -4168.81, -3560.81, 0.000, 0.000, 0.000, 17:29:52.119
141, -3998.46, -4497.41, -4213.51, -3595.69, 0.000, 0.000, 0.000, 17:29:52.134
142, -3818.99, -4287.86, -4033.86, -3394.55, 0.000, 0.000, 0.000, 17:29:52.135
143, -3679.50, -4149.06, -3891.61, -3261.63, 0.000, 0.000, 0.000, 17:29:52.141
144, -3921.93, -4452.18, -4162.20, -3545.08, 0.000, 0.000, 0.000, 17:29:52.141
145, -4003.83, -4522.46, -4239.44, -3594.67, 0.000, 0.000, 0.000, 17:29:52.150
146, -3840.62, -4323.38, -4043.87, -3413.59, 0.000, 0.000, 0.000, 17:29:52.150
147, -3684.51, -4158.78, -3898.91, -3265.05, 0.000, 0.000, 0.000, 17:29:52.165
148, -3919.80, -4432.05, -4167.52, -3549.32, 0.000, 0.000, 0.000, 17:29:52.166
149, -4000.96, -4499.10, -4198.56, -3582.76, 0.000, 0.000, 0.000, 17:29:52.166
150, -3827.64, -4305.63, -4018.66, -3383.46, 0.000, 0.000, 0.000, 17:29:52.166
151, -3675.55, -4138.00, -3873.59, -3253.98, 0.000, 0.000, 0.000, 17:29:52.193
152, -3927.94, -4429.92, -4165.46, -3549.23, 0.000, 0.000, 0.000, 17:29:52.194
153, -4014.51, -4492.38, -4214.78, -3590.26, 0.000, 0.000, 0.000, 17:29:52.194
154, -3833.88, -4308.89, -4027.57, -3390.56, 0.000, 0.000, 0.000, 17:29:52.194
155, -3678.25, -4154.89, -3894.98, -3260.53, 0.000, 0.000, 0.000, 17:29:52.195
156, -3927.24, -4455.33, -4181.70, -3552.10, 0.000, 0.000, 0.000, 17:29:52.196
157, -4002.56, -4502.21, -4224.10, -3602.05, 0.000, 0.000, 0.000, 17:29:52.209
158, -3832.95, -4300.33, -4033.24, -3403.16, 0.000, 0.000, 0.000, 17:29:52.209
159, -3672.30, -4157.79, -3877.37, -3263.85, 0.000, 0.000, 0.000, 17:29:52.224
160, -3925.62, -4456.94, -4164.17, -3552.56, 0.000, 0.000, 0.000, 17:29:52.224
161, -3999.53, -4506.13, -4232.38, -3581.32, 0.000, 0.000, 0.000, 17:29:52.225
162, -3823.92, -4282.67, -4018.67, -3388.97, 0.000, 0.000, 0.000, 17:29:52.225
163, -3683.23, -4155.66, -3880.82, -3260.74, 0.000, 0.000, 0.000, 17:29:52.239
164, -3926.68, -4446.97, -4158.24, -3545.09, 0.000, 0.000, 0.000, 17:29:52.239
165, -3990.33, -4503.43, -4200.38, -3567.94, 0.000, 0.000, 0.000, 17:29:52.254
166, -3823.70, -4294.57, -4022.83, -3399.66, 0.000, 0.000, 0.000, 17:29:52.254
167, -3672.65, -4132.42, -3870.24, -3270.38, 0.000, 0.000, 0.000, 17:29:52.255
168, -3931.42, -4449.42, -4163.90, -3556.34, 0.000, 0.000, 0.000, 17:29:52.255
169, -4001.25, -4502.49, -4213.93, -3590.27, 0.000, 0.000, 0.000, 17:29:52.269
170, -3816.96, -4280.59, -4021.75, -3396.09, 0.000, 0.000, 0.000, 17:29:52.269
171, -3683.13, -4136.71, -3873.93, -3259.92, 0.000, 0.000, 0.000, 17:29:52.314
172, -3928.43, -4440.47, -4184.22, -3552.95, 0.000, 0.000, 0.000, 17:29:52.314
173, -3996.50, -4496.27, -4197.72, -3579.75, 0.000, 0.000, 0.000, 17:29:52.315
174, -3819.05, -4295.21, -4019.75, -3389.29, 0.000, 0.000, 0.000, 17:29:52.315
175, -3677.03, -4161.13, -3882.09, -3261.99, 0.000, 0.000, 0.000, 17:29:52.317
176, -3934.68, -4437.64, -4180.68, -3561.93, 0.000, 0.000, 0.000, 17:29:52.317
177, -3994.01, -4477.40, -4190.32, -3580.32, 0.000, 0.000, 0.000, 17:29:52.318
178, -3825.50, -4292.45, -4013.53, -3388.03, 0.000, 0.000, 0.000, 17:29:52.318
179, -3673.92, -4143.59, -3886.75, -3257.37, 0.000, 0.000, 0.000, 17:29:52.319
180, -3926.28, -4440.06, -4186.76, -3552.83, 0.000, 0.000, 0.000, 17:29:52.319
181, -3994.24, -4478.50, -4219.54, -3586.17, 0.000, 0.000, 0.000, 17:29:52.329
182, -3810.49, -4294.96, -4007.71, -3388.77, 0.000, 0.000, 0.000, 17:29:52.329
183, -3680.42, -4143.09, -3883.04, -3256.48, 0.000, 0.000, 0.000, 17:29:52.344
184, -3931.32, -4456.71, -4175.59, -3549.87, 0.000, 0.000, 0.000, 17:29:52.344
185, -3983.31, -4478.23, -4204.79, -3561.04, 0.000, 0.000, 0.000, 17:29:52.359
186, -3817.91, -4300.17, -4017.18, -3382.74, 0.000, 0.000, 0.000, 17:29:52.359
187, -3680.96, -4155.54, -3894.18, -3256.61, 0.000, 0.000, 0.000, 17:29:52.360
188, -3936.04, -4437.85, -4173.52, -3547.60, 0.000, 0.000, 0.000, 17:29:52.360
189, -3999.74, -4509.01, -4219.08, -3578.41, 0.000, 0.000, 0.000, 17:29:52.374
190, -3817.47, -4311.67, -4033.52, -3386.15, 0.000, 0.000, 0.000, 17:29:52.374
191, -3680.43, -4158.31, -3886.64, -3258.03, 0.000, 0.000, 0.000, 17:29:52.374
192, -3934.95, -4441.46, -4203.49, -3563.86, 0.000, 0.000, 0.000, 17:29:52.374
193, -4001.43, -4519.63, -4225.57, -3583.84, 0.000, 0.000, 0.000, 17:29:52.389
194, -3821.84, -4309.44, -4031.75, -3390.05, 0.000, 0.000, 0.000, 17:29:52.389
195, -3672.98, -4158.51, -3883.27, -3260.53, 0.000, 0.000, 0.000, 17:29:52.404
196, -3924.78, -4446.96, -4169.80, -3549.68, 0.000, 0.000, 0.000, 17:29:52.404
197, -3967.39, -4487.82, -4204.80, -3543.43, 0.000, 0.000, 0.000, 17:29:52.405
198, -3773.07, -4256.91, -3984.98, -3339.75, 0.000, 0.000, 0.000, 17:29:52.405
199, -3633.49, -4133.31, -3846.37, -3223.67, 0.000, 0.000, 0.000, 17:29:52.419
200, -3885.81, -4428.29, -4148.36, -3520.69, 0.000, 0.000, 0.000, 17:29:52.419
0, -3953.03, -4443.32, -4165.39, -3542.26, 0.000, 0.000, 0.000, 17:29:52.419
1, -3783.71, -4275.72, -3987.78, -3359.35, 0.000, 0.000, 0.000, 17:29:52.436
2, -3647.98, -4137.42, -3857.17, -3236.98, 0.000, 0.000, 0.000, 17:29:52.436
3, -3900.47, -4441.78, -4155.75, -3532.92, 0.000, 0.000, 0.000, 17:29:52.449
4, -3960.13, -4478.36, -4201.04, -3539.20, 0.000, 0.000, 0.000, 17:29:52.450
5, -3792.45, -4274.57, -4002.99, -3361.36, 0.000, 0.000, 0.000, 17:29:52.451
6, -3648.08, -4127.08, -3871.74, -3236.64, 0.000, 0.000, 0.000, 17:29:52.451
7, -3909.80, -4431.24, -4158.71, -3542.09, 0.000, 0.000, 0.000, 17:29:52.464
8, -3964.34, -4464.50, -4198.62, -3555.43, 0.000, 0.000, 0.000, 17:29:52.464
9, -3789.10, -4278.36, -4006.07, -3361.80, 0.000, 0.000, 0.000, 17:29:52.479
10, -3654.16, -4138.89, -3875.02, -3243.75, 0.000, 0.000, 0.000, 17:29:52.480
11, -3930.01, -4470.21, -4195.38, -3557.82, 0.000, 0.000, 0.000, 17:29:52.480
12, -3985.79, -4478.26, -4206.99, -3564.87, 0.000, 0.000, 0.000, 17:29:52.480
13, -3802.38, -4264.61, -4006.53, -3380.97, 0.000, 0.000, 0.000, 17:29:52.494
14, -3662.48, -4147.38, -3874.82, -3257.19, 0.000, 0.000, 0.000, 17:29:52.494
15, -3931.68, -4462.50, -4180.96, -3561.08, 0.000, 0.000, 0.000, 17:29:52.509
16, -3980.48, -4477.56, -4195.77, -3564.88, 0.000, 0.000, 0.000, 17:29:52.509
17, -3811.93, -4280.65, -4024.60, -3376.32, 0.000, 0.000, 0.000, 17:29:52.509
18, -3676.76, -4145.40, -3886.50, -3261.35, 0.000, 0.000, 0.000, 17:29:52.510
19, -3936.80, -4454.54, -4181.95, -3567.55, 0.000, 0.000, 0.000, 17:29:52.539
20, -3992.34, -4485.16, -4207.69, -3568.89, 0.000, 0.000, 0.000, 17:29:52.539
21, -3814.27, -4290.89, -4020.18, -3386.60, 0.000, 0.000, 0.000, 17:29:52.540
22, -3664.45, -4137.50, -3871.17, -3252.42, 0.000, 0.000, 0.000, 17:29:52.540
23, -3938.96, -4442.57, -4194.41, -3566.62, 0.000, 0.000, 0.000, 17:29:52.540
24, -3986.95, -4485.40, -4219.51, -3579.95, 0.000, 0.000, 0.000, 17:29:52.540
25, -3812.01, -4293.21, -4004.02, -3371.88, 0.000, 0.000, 0.000, 17:29:52.554
26, -3669.82, -4144.18, -3896.28, -3260.18, 0.000, 0.000, 0.000, 17:29:52.554
27, -3933.54, -4465.45, -4194.14, -3566.58, 0.000, 0.000, 0.000, 17:29:52.569
28, -3988.94, -4482.87, -4208.14, -3572.98, 0.000, 0.000, 0.000, 17:29:52.569
29, -3822.31, -4295.98, -4018.22, -3372.18, 0.000, 0.000, 0.000, 17:29:52.570
30, -3676.84, -4138.89, -3880.50, -3252.96, 0.000, 0.000, 0.000, 17:29:52.570
31, -3940.59, -4464.61, -4174.75, -3558.61, 0.000, 0.000, 0.000, 17:29:52.600
32, -3995.14, -4504.75, -4215.54, -3559.49, 0.000, 0.000, 0.000, 17:29:52.600
33, -3806.47, -4281.47, -4011.52, -3376.87, 0.000, 0.000, 0.000, 17:29:52.600
34, -3671.95, -4154.59, -3889.75, -3263.28, 0.000, 0.000, 0.000, 17:29:52.600
35, -3934.91, -4460.04, -4192.16, -3573.69, 0.000, 0.000, 0.000, 17:29:52.600
36, -3971.31, -4480.60, -4197.44, -3566.79, 0.000, 0.000, 0.000, 17:29:52.600
37, -3808.54, -4298.73, -4012.19, -3369.43, 0.000, 0.000, 0.000, 17:29:52.620
38, -3678.54, -4150.51, -3889.41, -3262.05, 0.000, 0.000, 0.000, 17:29:52.620
39, -3928.35, -4457.14, -4182.03, -3556.71, 0.000, 0.000, 0.000, 17:29:52.629
40, -3972.87, -4491.88, -4197.71, -3561.52, 0.000, 0.000, 0.000, 17:29:52.630
41, -3803.70, -4295.47, -4003.52, -3372.17, 0.000, 0.000, 0.000, 17:29:52.632
42, -3673.94, -4158.31, -3879.20, -3252.84, 0.000, 0.000, 0.000, 17:29:52.633
43, -3951.09, -4462.01, -4198.97, -3574.30, 0.000, 0.000, 0.000, 17:29:52.646
44, -3989.21, -4498.01, -4211.59, -3575.05, 0.000, 0.000, 0.000, 17:29:52.647
45, -3802.86, -4272.35, -4013.27, -3370.87, 0.000, 0.000, 0.000, 17:29:52.659
46, -3673.07, -4156.81, -3886.49, -3265.88, 0.000, 0.000, 0.000, 17:29:52.659
47, -3942.50, -4479.63, -4194.10, -3559.82, 0.000, 0.000, 0.000, 17:29:52.660
48, -3983.10, -4480.07, -4181.45, -3559.20, 0.000, 0.000, 0.000, 17:29:52.660
49, -3804.32, -4291.03, -4021.71, -3368.58, 0.000, 0.000, 0.000, 17:29:52.674
50, -3668.51, -4144.88, -3887.81, -3247.51, 0.000, 0.000, 0.000, 17:29:52.674
51, -3937.42, -4456.45, -4191.85, -3559.93, 0.000, 0.000, 0.000, 17:29:52.690
52, -3977.69, -4497.88, -4208.47, -3564.29, 0.000, 0.000, 0.000, 17:29:52.690
53, -3796.38, -4292.22, -4006.06, -3362.45, 0.000, 0.000, 0.000, 17:29:52.690
54, -3669.53, -4152.44, -3878.31, -3250.21, 0.000, 0.000, 0.000, 17:29:52.690
55, -3950.24, -4478.65, -4183.81, -3571.80, 0.000, 0.000, 0.000, 17:29:52.704
56, -3974.87, -4487.68, -4176.78, -3565.74, 0.000, 0.000, 0.000, 17:29:52.704
57, -3803.26, -4292.30, -4011.87, -3368.43, 0.000, 0.000, 0.000, 17:29:52.718
58, -3664.56, -4159.96, -3904.11, -3239.05, 0.000, 0.000, 0.000, 17:29:52.719
59, -3933.91, -4458.55, -4204.41, -3565.41, 0.000, 0.000, 0.000, 17:29:52.719
60, -3980.15, -4485.59, -4211.74, -3576.06, 0.000, 0.000, 0.000, 17:29:52.719
61, -3804.66, -4277.04, -4019.19, -3373.00, 0.000, 0.000, 0.000, 17:29:52.734
62, -3669.03, -4144.15, -3890.80, -3256.75, 0.000, 0.000, 0.000, 17:29:52.734
63, -3936.93, -4469.37, -4207.72, -3563.88, 0.000, 0.000, 0.000, 17:29:52.764
64, -3972.89, -4475.69, -4206.10, -3565.99, 0.000, 0.000, 0.000, 17:29:52.765
65, -3796.48, -4274.08, -4005.07, -3359.25, 0.000, 0.000, 0.000, 17:29:52.765
66, -3655.74, -4117.49, -3860.83, -3246.41, 0.000, 0.000, 0.000, 17:29:52.765
67, -3944.25, -4458.57, -4201.28, -3577.72, 0.000, 0.000, 0.000, 17:29:52.766
68, -3971.87, -4482.90, -4189.17, -3566.74, 0.000, 0.000, 0.000, 17:29:52.766
69, -3800.26, -4277.70, -4007.84, -3371.11, 0.000, 0.000, 0.000, 17:29:52.766
70, -3663.80, -4153.59, -3871.07, -3254.66, 0.000, 0.000, 0.000, 17:29:52.766
71, -3940.03, -4470.89, -4195.23, -3577.25, 0.000, 0.000, 0.000, 17:29:52.779
72, -3973.42, -4462.57, -4185.56, -3562.46, 0.000, 0.000, 0.000, 17:29:52.779
73, -3793.42, -4267.53, -3976.66, -3372.67, 0.000, 0.000, 0.000, 17:29:52.794
74, -3669.53, -4131.23, -3893.05, -3260.35, 0.000, 0.000, 0.000, 17:29:52.794
75, -3957.36, -4475.16, -4204.04, -3577.58, 0.000, 0.000, 0.000, 17:29:52.809
76, -3980.03, -4491.55, -4194.47, -3574.95, 0.000, 0.000, 0.000, 17:29:52.809
77, -3797.90, -4257.65, -4016.46, -3363.34, 0.000, 0.000, 0.000, 17:29:52.809
78, -3673.40, -4142.89, -3885.80, -3258.01, 0.000, 0.000, 0.000, 17:29:52.809
79, -3955.04, -4486.64, -4187.95, -3578.03, 0.000, 0.000, 0.000, 17:29:52.825
80, -3972.97, -4480.58, -4181.00, -3563.37, 0.000, 0.000, 0.000, 17:29:52.825
81, -3797.45, -4287.51, -4003.75, -3377.51, 0.000, 0.000, 0.000, 17:29:52.839
82, -3666.44, -4135.29, -3879.12, -3265.07, 0.000, 0.000, 0.000, 17:29:52.839
83, -3958.88, -4489.11, -4211.14, -3587.67, 0.000, 0.000, 0.000, 17:29:52.840
84, -3982.80, -4483.58, -4200.35, -3561.89, 0.000, 0.000, 0.000, 17:29:52.840
85, -3809.79, -4294.82, -4011.06, -3367.56, 0.000, 0.000, 0.000, 17:29:52.854
86, -3675.08, -4145.17, -3875.37, -3273.97, 0.000, 0.000, 0.000, 17:29:52.854
87, -3948.38, -4483.26, -4201.94, -3589.12, 0.000, 0.000, 0.000, 17:29:52.869
88, -3971.96, -4484.84, -4182.37, -3561.84, 0.000, 0.000, 0.000, 17:29:52.869
89, -3799.30, -4285.90, -4008.33, -3373.40, 0.000, 0.000, 0.000, 17:29:52.870
90, -3679.56, -4153.03, -3891.35, -3270.32, 0.000, 0.000, 0.000, 17:29:52.870
91, -3954.42, -4480.75, -4195.69, -3580.32, 0.000, 0.000, 0.000, 17:29:52.884
92, -3977.32, -4490.74, -4196.42, -3564.75, 0.000, 0.000, 0.000, 17:29:52.884
93, -3790.76, -4268.67, -3996.18, -3361.31, 0.000, 0.000, 0.000, 17:29:52.900
94, -3672.69, -4158.57, -3885.11, -3259.72, 0.000, 0.000, 0.000, 17:29:52.900
95, -3951.95, -4485.28, -4205.09, -3579.38, 0.000, 0.000, 0.000, 17:29:52.900
96, -3979.95, -4475.59, -4197.16, -3554.57, 0.000, 0.000, 0.000, 17:29:52.900
97, -3797.97, -4260.72, -4001.73, -3363.98, 0.000, 0.000, 0.000, 17:29:52.914
98, -3670.85, -4144.42, -3887.63, -3259.90, 0.000, 0.000, 0.000, 17:29:52.914
99, -3964.34, -4497.90, -4195.83, -3590.58, 0.000, 0.000, 0.000, 17:29:52.929
100, -3981.32, -4495.27, -4192.23, -3551.92, 0.000, 0.000, 0.000, 17:29:52.930
101, -3808.73, -4291.23, -4020.24, -3374.53, 0.000, 0.000, 0.000, 17:29:52.930
102, -3683.62, -4160.44, -3900.40, -3264.67, 0.000, 0.000, 0.000, 17:29:52.930
103, -3959.76, -4487.53, -4216.02, -3590.63, 0.000, 0.000, 0.000, 17:29:52.944
104, -3969.63, -4465.68, -4190.65, -3562.31, 0.000, 0.000, 0.000, 17:29:52.944
105, -3790.62, -4275.32, -4004.82, -3362.80, 0.000, 0.000, 0.000, 17:29:52.959
106, -3668.28, -4156.30, -3897.80, -3256.84, 0.000, 0.000, 0.000, 17:29:52.959
107, -3959.56, -4491.81, -4217.17, -3583.67, 0.000, 0.000, 0.000, 17:29:52.960
108, -3968.86, -4463.08, -4191.14, -3551.15, 0.000, 0.000, 0.000, 17:29:52.960
109, -3797.78, -4275.23, -4003.39, -3360.85, 0.000, 0.000, 0.000, 17:29:52.989
110, -3665.82, -4148.49, -3881.79, -3258.62, 0.000, 0.000, 0.000, 17:29:52.990
111, -3961.96, -4474.69, -4205.19, -3580.66, 0.000, 0.000, 0.000, 17:29:52.990
112, -3976.76, -4468.24, -4196.37, -3555.81, 0.000, 0.000, 0.000, 17:29:52.990
113, -3790.85, -4261.81, -3991.86, -3357.33, 0.000, 0.000, 0.000, 17:29:52.991
114, -3677.08, -4154.49, -3893.10, -3256.39, 0.000, 0.000, 0.000, 17:29:52.991
115, -3959.14, -4478.57, -4205.32, -3580.02, 0.000, 0.000, 0.000, 17:29:53.004
116, -3972.54, -4470.64, -4195.56, -3545.46, 0.000, 0.000, 0.000, 17:29:53.004
117, -3796.21, -4272.88, -4009.18, -3360.32, 0.000, 0.000, 0.000, 17:29:53.019
118, -3683.20, -4164.21, -3888.64, -3267.44, 0.000, 0.000, 0.000, 17:29:53.019
119, -3967.27, -4493.45, -4212.73, -3581.76, 0.000, 0.000, 0.000, 17:29:53.019
120, -3978.88, -4490.24, -4195.84, -3554.37, 0.000, 0.000, 0.000, 17:29:53.019
121, -3788.27, -4275.94, -4010.31, -3364.84, 0.000, 0.000, 0.000, 17:29:53.040
122, -3676.64, -4148.48, -3886.97, -3270.54, 0.000, 0.000, 0.000, 17:29:53.041
123, -3949.85, -4467.70, -4209.37, -3580.86, 0.000, 0.000, 0.000, 17:29:53.050
124, -3977.22, -4484.61, -4188.39, -3551.14, 0.000, 0.000, 0.000, 17:29:53.050
125, -3802.31, -4279.11, -4008.40, -3364.79, 0.000, 0.000, 0.000, 17:29:53.050
126, -3671.28, -4148.61, -3897.33, -3269.39, 0.000, 0.000, 0.000, 17:29:53.050
127, -3965.10, -4491.95, -4217.35, -3597.93, 0.000, 0.000, 0.000, 17:29:53.064
128, -3955.01, -4470.42, -4166.05, -3554.94, 0.000, 0.000, 0.000, 17:29:53.064
129, -3768.27, -4249.48, -3975.51, -3343.69, 0.000, 0.000, 0.000, 17:29:53.094
130, -3676.23, -4147.18, -3878.77, -3265.02, 0.000, 0.000, 0.000, 17:29:53.094
131, -3958.24, -4490.19, -4206.97, -3591.01, 0.000, 0.000, 0.000, 17:29:53.095
132, -3961.02, -4459.14, -4167.29, -3551.17, 0.000, 0.000, 0.000, 17:29:53.095
133, -3779.24, -4252.45, -3980.56, -3366.73, 0.000, 0.000, 0.000, 17:29:53.096
134, -3666.96, -4144.67, -3873.29, -3269.01, 0.000, 0.000, 0.000, 17:29:53.096
135, -3961.05, -4489.83, -4192.96, -3593.35, 0.000, 0.000, 0.000, 17:29:53.108
136, -3976.97, -4470.98, -4195.26, -3551.11, 0.000, 0.000, 0.000, 17:29:53.108
137, -3791.78, -4269.33, -3994.36, -3362.18, 0.000, 0.000, 0.000, 17:29:53.109
138, -3670.49, -4151.16, -3882.72, -3257.24, 0.000, 0.000, 0.000, 17:29:53.109
139, -3957.15, -4479.16, -4218.30, -3586.25, 0.000, 0.000, 0.000, 17:29:53.154
140, -3972.09, -4464.50, -4186.64, -3553.77, 0.000, 0.000, 0.000, 17:29:53.154
141, -3780.76, -4258.10, -3986.35, -3349.35, 0.000, 0.000, 0.000, 17:29:53.155
142, -3671.93, -4161.18, -3881.85, -3252.42, 0.000, 0.000, 0.000, 17:29:53.155
143, -3962.35, -4494.17, -4213.71, -3588.73, 0.000, 0.000, 0.000, 17:29:53.155
144, -3959.30, -4457.98, -4193.40, -3541.13, 0.000, 0.000, 0.000, 17:29:53.155
145, -3786.54, -4252.30, -3992.94, -3350.28, 0.000, 0.000, 0.000, 17:29:53.156
146, -3671.85, -4162.00, -3879.00, -3254.06, 0.000, 0.000, 0.000, 17:29:53.156
147, -3974.46, -4515.30, -4228.04, -3600.51, 0.000, 0.000, 0.000, 17:29:53.157
148, -3977.22, -4491.69, -4189.86, -3557.67, 0.000, 0.000, 0.000, 17:29:53.157
149, -3797.77, -4284.26, -3999.56, -3361.64, 0.000, 0.000, 0.000, 17:29:53.169
150, -3674.07, -4156.92, -3894.69, -3270.62, 0.000, 0.000, 0.000, 17:29:53.169
151, -3964.04, -4501.42, -4210.07, -3590.55, 0.000, 0.000, 0.000, 17:29:53.185
152, -3971.87, -4476.58, -4187.31, -3548.67, 0.000, 0.000, 0.000, 17:29:53.185
153, -3781.75, -4277.52, -3991.50, -3346.43, 0.000, 0.000, 0.000, 17:29:53.199
154, -3666.57, -4156.62, -3884.83, -3260.39, 0.000, 0.000, 0.000, 17:29:53.200
155, -3961.96, -4502.08, -4213.73, -3597.56, 0.000, 0.000, 0.000, 17:29:53.200
156, -3959.24, -4461.71, -4177.85, -3550.69, 0.000, 0.000, 0.000, 17:29:53.200
157, -3788.57, -4280.79, -3983.13, -3357.78, 0.000, 0.000, 0.000, 17:29:53.215
158, -3665.72, -4141.58, -3889.13, -3256.29, 0.000, 0.000, 0.000, 17:29:53.215
159, -3969.78, -4481.33, -4209.10, -3605.08, 0.000, 0.000, 0.000, 17:29:53.229
160, -3964.48, -4444.45, -4165.77, -3553.36, 0.000, 0.000, 0.000, 17:29:53.229
161, -3786.90, -4248.35, -3965.87, -3351.95, 0.000, 0.000, 0.000, 17:29:53.229
162, -3687.56, -4155.38, -3878.29, -3272.84, 0.000, 0.000, 0.000, 17:29:53.229
163, -3978.21, -4485.82, -4194.07, -3600.15, 0.000, 0.000, 0.000, 17:29:53.244
164, -3981.51, -4470.98, -4177.03, -3550.94, 0.000, 0.000, 0.000, 17:29:53.244
165, -3807.25, -4268.39, -3989.31, -3373.28, 0.000, 0.000, 0.000, 17:29:53.259
166, -3680.01, -4136.31, -3885.51, -3274.83, 0.000, 0.000, 0.000, 17:29:53.259
167, -3977.41, -4490.36, -4182.42, -3605.55, 0.000, 0.000, 0.000, 17:29:53.260
168, -3974.00, -4458.28, -4186.98, -3552.24, 0.000, 0.000, 0.000, 17:29:53.260
169, -3795.12, -4260.26, -3981.32, -3352.39, 0.000, 0.000, 0.000, 17:29:53.274
170, -3688.78, -4164.19, -3889.85, -3271.71, 0.000, 0.000, 0.000, 17:29:53.274
171, -3965.91, -4480.06, -4210.62, -3596.43, 0.000, 0.000, 0.000, 17:29:53.304
172, -3966.93, -4462.97, -4185.20, -3552.52, 0.000, 0.000, 0.000, 17:29:53.304
173, -3786.02, -4248.51, -3989.39, -3364.74, 0.000, 0.000, 0.000, 17:29:53.305
174, -3682.58, -4150.52, -3896.72, -3275.49, 0.000, 0.000, 0.000, 17:29:53.305
175, -3975.24, -4495.42, -4220.69, -3607.49, 0.000, 0.000, 0.000, 17:29:53.306
176, -3969.49, -4463.47, -4181.05, -3552.03, 0.000, 0.000, 0.000, 17:29:53.306
177, -3778.26, -4257.92, -3978.83, -3358.87, 0.000, 0.000, 0.000, 17:29:53.306
178, -3679.81, -4155.27, -3892.04, -3275.98, 0.000, 0.000, 0.000, 17:29:53.306
179, -3994.32, -4521.08, -4245.79, -3610.58, 0.000, 0.000, 0.000, 17:29:53.320
180, -3972.68, -4478.33, -4198.82, -3549.24, 0.000, 0.000, 0.000, 17:29:53.320
181, -3792.63, -4259.72, -3981.28, -3354.63, 0.000, 0.000, 0.000, 17:29:53.334
182, -3691.95, -4152.62, -3898.49, -3271.33, 0.000, 0.000, 0.000, 17:29:53.334
183, -3980.19, -4512.56, -4224.60, -3611.75, 0.000, 0.000, 0.000, 17:29:53.349
184, -3968.91, -4484.11, -4192.23, -3549.56, 0.000, 0.000, 0.000, 17:29:53.349
185, -3782.46, -4265.64, -3989.97, -3341.59, 0.000, 0.000, 0.000, 17:29:53.349
186, -3676.64, -4160.85, -3890.17, -3272.06, 0.000, 0.000, 0.000, 17:29:53.349
187, -3979.46, -4485.27, -4226.42, -3604.84, 0.000, 0.000, 0.000, 17:29:53.370
188, -3967.08, -4470.49, -4187.51, -3553.07, 0.000, 0.000, 0.000, 17:29:53.370
189, -3786.36, -4276.06, -3984.35, -3360.11, 0.000, 0.000, 0.000, 17:29:53.379
190, -3671.07, -4150.79, -3894.98, -3274.52, 0.000, 0.000, 0.000, 17:29:53.380
191, -3969.86, -4499.90, -4222.22, -3598.77, 0.000, 0.000, 0.000, 17:29:53.380
192, -3968.54, -4489.58, -4181.87, -3546.54, 0.000, 0.000, 0.000, 17:29:53.380
193, -3774.28, -4249.65, -3975.69, -3345.35, 0.000, 0.000, 0.000, 17:29:53.394
194, -3676.87, -4163.95, -3892.79, -3268.22, 0.000, 0.000, 0.000, 17:29:53.394
195, -3977.16, -4511.68, -4224.31, -3603.11, 0.000, 0.000, 0.000, 17:29:53.424
196, -3966.40, -4467.04, -4193.79, -3549.79, 0.000, 0.000, 0.000, 17:29:53.424
197, -3777.43, -4250.67, -3983.38, -3347.11, 0.000, 0.000, 0.000, 17:29:53.424
198, -3672.85, -4170.69, -3902.42, -3277.14, 0.000, 0.000, 0.000, 17:29:53.424
199, -3974.58, -4513.90, -4235.32, -3608.59, 0.000, 0.000, 0.000, 17:29:53.425
200, -3958.45, -4467.19, -4185.90, -3542.13, 0.000, 0.000, 0.000, 17:29:53.425
0, -3778.64, -4247.48, -3977.41, -3344.89, 0.000, 0.000, 0.000, 17:29:53.426
1, -3682.13, -4160.44, -3901.83, -3277.43, 0.000, 0.000, 0.000, 17:29:53.439
2, -3972.58, -4510.01, -4228.44, -3610.98, 0.000, 0.000, 0.000, 17:29:53.439
3, -3958.33, -4462.83, -4177.17, -3537.95, 0.000, 0.000, 0.000, 17:29:53.454
4, -3780.97, -4251.65, -3977.08, -3337.89, 0.000, 0.000, 0.000, 17:29:53.454
5, -3685.45, -4175.96, -3903.66, -3269.90, 0.000, 0.000, 0.000, 17:29:53.454
6, -3990.71, -4512.57, -4241.05, -3610.01, 0.000, 0.000, 0.000, 17:29:53.454
7, -3965.92, -4457.23, -4174.61, -3543.90, 0.000, 0.000, 0.000, 17:29:53.469
8, -3776.04, -4270.91, -3988.75, -3343.16, 0.000, 0.000, 0.000, 17:29:53.469
9, -3684.15, -4173.70, -3909.48, -3278.38, 0.000, 0.000, 0.000, 17:29:53.485
10, -3986.10, -4516.64, -4242.87, -3603.16, 0.000, 0.000, 0.000, 17:29:53.485
11, -3963.17, -4464.49, -4183.35, -3548.25, 0.000, 0.000, 0.000, 17:29:53.485
12, -3782.03, -4247.79, -3990.04, -3355.53, 0.000, 0.000, 0.000, 17:29:53.485
13, -3684.07, -4151.97, -3899.93, -3285.08, 0.000, 0.000, 0.000, 17:29:53.500
14, -3990.95, -4516.07, -4230.87, -3613.31, 0.000, 0.000, 0.000, 17:29:53.500
15, -3963.10, -4463.59, -4181.05, -3547.66, 0.000, 0.000, 0.000, 17:29:53.516
16, -3790.20, -4257.94, -3983.40, -3348.93, 0.000, 0.000, 0.000, 17:29:53.516
17, -3697.08, -4184.33, -3913.89, -3284.15, 0.000, 0.000, 0.000, 17:29:53.516
18, -4013.03, -4529.77, -4255.70, -3637.89, 0.000, 0.000, 0.000, 17:29:53.517
19, -4000.17, -4492.84, -4202.78, -3564.94, 0.000, 0.000, 0.000, 17:29:53.544
20, -3812.24, -4293.64, -4015.29, -3376.60, 0.000, 0.000, 0.000, 17:29:53.544
21, -3708.00, -4188.23, -3929.02, -3308.69, 0.000, 0.000, 0.000, 17:29:53.545
22, -4004.47, -4536.12, -4251.19, -3640.60, 0.000, 0.000, 0.000, 17:29:53.545
23, -3990.81, -4491.64, -4202.76, -3566.31, 0.000, 0.000, 0.000, 17:29:53.545
24, -3811.42, -4274.02, -4009.14, -3371.83, 0.000, 0.000, 0.000, 17:29:53.546
25, -3705.60, -4186.91, -3922.60, -3291.58, 0.000, 0.000, 0.000, 17:29:53.559
26, -4008.73, -4531.91, -4257.77, -3635.39, 0.000, 0.000, 0.000, 17:29:53.559
27, -3986.45, -4496.26, -4197.46, -3566.48, 0.000, 0.000, 0.000, 17:29:53.574
28, -3800.32, -4267.93, -4009.33, -3369.03, 0.000, 0.000, 0.000, 17:29:53.574
29, -3703.45, -4188.35, -3920.35, -3300.60, 0.000, 0.000, 0.000, 17:29:53.574
30, -4004.86, -4518.72, -4255.31, -3632.45, 0.000, 0.000, 0.000, 17:29:53.574
31, -3976.82, -4469.28, -4195.87, -3551.60, 0.000, 0.000, 0.000, 17:29:53.589
32, -3799.11, -4283.40, -3995.37, -3362.24, 0.000, 0.000, 0.000, 17:29:53.589
33, -3709.10, -4186.54, -3920.66, -3293.12, 0.000, 0.000, 0.000, 17:29:53.604
34, -4003.56, -4550.24, -4252.56, -3630.08, 0.000, 0.000, 0.000, 17:29:53.604
35, -3967.62, -4474.62, -4188.19, -3554.99, 0.000, 0.000, 0.000, 17:29:53.605
36, -3782.11, -4246.70, -3987.42, -3356.68, 0.000, 0.000, 0.000, 17:29:53.607
37, -3692.47, -4155.83, -3912.57, -3296.08, 0.000, 0.000, 0.000, 17:29:53.619
38, -3997.59, -4525.34, -4238.48, -3627.73, 0.000, 0.000, 0.000, 17:29:53.619
39, -3960.62, -4474.67, -4175.56, -3543.36, 0.000, 0.000, 0.000, 17:29:53.649
40, -3778.43, -4249.89, -3981.45, -3349.80, 0.000, 0.000, 0.000, 17:29:53.649
41, -3675.74, -4184.65, -3913.92, -3292.38, 0.000, 0.000, 0.000, 17:29:53.649
42, -3983.32, -4550.16, -4245.11, -3650.97, 0.000, 0.000, 0.000, 17:29:53.649
43, -3987.16, -4540.61, -4226.50, -3579.11, 0.000, 0.000, 0.000, 17:29:53.651
44, -3756.78, -4264.60, -3986.26, -3331.10, 0.000, 0.000, 0.000, 17:29:53.651
45, -3654.16, -4188.68, -3914.56, -3267.16, 0.000, 0.000, 0.000, 17:29:53.651
46, -3953.18, -4567.82, -4250.03, -3599.57, 0.000, 0.000, 0.000, 17:29:53.651
47, -3912.73, -4511.53, -4207.96, -3517.29, 0.000, 0.000, 0.000, 17:29:53.665
48, -3700.57, -4280.18, -3998.92, -3308.58, 0.000, 0.000, 0.000, 17:29:53.665
49, -3609.73, -4239.32, -3934.87, -3267.34, 0.000, 0.000, 0.000, 17:29:53.685
50, -3908.45, -4593.77, -4275.78, -3580.12, 0.000, 0.000, 0.000, 17:29:53.685
51, -3876.22, -4538.69, -4212.07, -3504.86, 0.000, 0.000, 0.000, 17:29:53.709
52, -3686.48, -4319.87, -4025.24, -3298.92, 0.000, 0.000, 0.000, 17:29:53.709
53, -3596.12, -4243.48, -3952.58, -3231.94, 0.000, 0.000, 0.000, 17:29:53.710
54, -3904.38, -4601.63, -4296.88, -3576.62, 0.000, 0.000, 0.000, 17:29:53.710
55, -3872.72, -4556.53, -4244.44, -3485.21, 0.000, 0.000, 0.000, 17:29:53.711
56, -3686.83, -4339.16, -4041.94, -3293.22, 0.000, 0.000, 0.000, 17:29:53.711
57, -3613.92, -4267.34, -3977.97, -3237.38, 0.000, 0.000, 0.000, 17:29:53.711
58, -3925.98, -4603.38, -4318.52, -3578.10, 0.000, 0.000, 0.000, 17:29:53.711
59, -3888.23, -4528.32, -4247.79, -3486.39, 0.000, 0.000, 0.000, 17:29:53.724
60, -3705.44, -4319.23, -4050.44, -3287.70, 0.000, 0.000, 0.000, 17:29:53.724
61, -3629.07, -4249.41, -3986.98, -3232.34, 0.000, 0.000, 0.000, 17:29:53.739
62, -3947.25, -4611.02, -4335.33, -3568.02, 0.000, 0.000, 0.000, 17:29:53.739
63, -3915.21, -4539.17, -4251.38, -3477.82, 0.000, 0.000, 0.000, 17:29:53.754
64, -3738.95, -4320.86, -4060.84, -3288.42, 0.000, 0.000, 0.000, 17:29:53.754
65, -3663.13, -4237.57, -4013.39, -3233.38, 0.000, 0.000, 0.000, 17:29:53.755
66, -3975.11, -4592.83, -4346.43, -3562.47, 0.000, 0.000, 0.000, 17:29:53.755
67, -3946.44, -4511.44, -4272.11, -3477.91, 0.000, 0.000, 0.000, 17:29:53.769
68, -3762.11, -4303.99, -4078.77, -3293.52, 0.000, 0.000, 0.000, 17:29:53.769
69, -3678.43, -4235.01, -4002.86, -3241.85, 0.000, 0.000, 0.000, 17:29:53.785
70, -3995.57, -4573.63, -4341.31, -3569.90, 0.000, 0.000, 0.000, 17:29:53.785
71, -3956.51, -4498.57, -4262.17, -3486.97, 0.000, 0.000, 0.000, 17:29:53.785
72, -3773.45, -4293.00, -4058.09, -3288.24, 0.000, 0.000, 0.000, 17:29:53.785
73, -3693.96, -4214.49, -3997.60, -3241.13, 0.000, 0.000, 0.000, 17:29:53.799
74, -3998.43, -4548.48, -4320.47, -3564.57, 0.000, 0.000, 0.000, 17:29:53.799
75, -3963.85, -4475.28, -4247.08, -3494.59, 0.000, 0.000, 0.000, 17:29:53.815
76, -3782.47, -4259.18, -4040.91, -3293.48, 0.000, 0.000, 0.000, 17:29:53.815
77, -3715.25, -4203.76, -3989.99, -3251.90, 0.000, 0.000, 0.000, 17:29:53.815
78, -4034.77, -4566.11, -4330.69, -3599.12, 0.000, 0.000, 0.000, 17:29:53.815
79, -4002.36, -4487.33, -4270.30, -3520.26, 0.000, 0.000, 0.000, 17:29:53.829
80, -3819.00, -4268.54, -4072.03, -3324.32, 0.000, 0.000, 0.000, 17:29:53.830
81, -3732.00, -4215.15, -3992.13, -3284.43, 0.000, 0.000, 0.000, 17:29:53.845
82, -4052.39, -4569.07, -4336.05, -3628.06, 0.000, 0.000, 0.000, 17:29:53.845
83, -4000.56, -4478.74, -4243.55, -3528.62, 0.000, 0.000, 0.000, 17:29:53.845
84, -3814.31, -4274.69, -4046.01, -3333.80, 0.000, 0.000, 0.000, 17:29:53.845
85, -3743.37, -4209.06, -3982.01, -3305.49, 0.000, 0.000, 0.000, 17:29:53.859
86, -4050.84, -4567.42, -4322.79, -3632.12, 0.000, 0.000, 0.000, 17:29:53.859
87, -4002.55, -4484.33, -4252.55, -3545.15, 0.000, 0.000, 0.000, 17:29:53.874
88, -3819.84, -4262.68, -4039.90, -3342.82, 0.000, 0.000, 0.000, 17:29:53.874
89, -3742.07, -4206.64, -3979.23, -3302.08, 0.000, 0.000, 0.000, 17:29:53.905
90, -4048.21, -4542.04, -4304.29, -3629.59, 0.000, 0.000, 0.000, 17:29:53.905
91, -3996.96, -4467.20, -4215.53, -3527.58, 0.000, 0.000, 0.000, 17:29:53.905
92, -3806.24, -4258.32, -4010.71, -3333.67, 0.000, 0.000, 0.000, 17:29:53.905
93, -3730.90, -4178.22, -3955.66, -3303.18, 0.000, 0.000, 0.000, 17:29:53.905
94, -4044.17, -4547.34, -4298.94, -3634.43, 0.000, 0.000, 0.000, 17:29:53.905
95, -3999.11, -4486.30, -4224.58, -3547.29, 0.000, 0.000, 0.000, 17:29:53.906
96, -3822.36, -4270.75, -4032.81, -3357.05, 0.000, 0.000, 0.000, 17:29:53.906
97, -3744.42, -4199.44, -3985.20, -3312.32, 0.000, 0.000, 0.000, 17:29:53.919
98, -4048.53, -4551.95, -4306.20, -3646.46, 0.000, 0.000, 0.000, 17:29:53.919
99, -4000.82, -4476.22, -4218.84, -3557.60, 0.000, 0.000, 0.000, 17:29:53.934
100, -3805.06, -4260.81, -4017.59, -3348.41, 0.000, 0.000, 0.000, 17:29:53.934
101, -3724.51, -4197.02, -3950.14, -3298.01, 0.000, 0.000, 0.000, 17:29:53.935
102, -4034.51, -4542.28, -4267.71, -3625.04, 0.000, 0.000, 0.000, 17:29:53.935
103, -3983.31, -4467.93, -4190.14, -3530.10, 0.000, 0.000, 0.000, 17:29:53.949
104, -3802.53, -4251.04, -4009.10, -3331.46, 0.000, 0.000, 0.000, 17:29:53.949
105, -3723.82, -4178.24, -3943.62, -3294.89, 0.000, 0.000, 0.000, 17:29:53.979
106, -4021.87, -4553.57, -4264.13, -3622.15, 0.000, 0.000, 0.000, 17:29:53.980
107, -3973.13, -4449.65, -4188.57, -3519.72, 0.000, 0.000, 0.000, 17:29:53.980
108, -3790.44, -4231.74, -3995.85, -3323.13, 0.000, 0.000, 0.000, 17:29:53.980
109, -3706.75, -4163.85, -3915.68, -3279.33, 0.000, 0.000, 0.000, 17:29:53.981
110, -4002.03, -4508.87, -4250.01, -3591.22, 0.000, 0.000, 0.000, 17:29:53.981
111, -3937.26, -4435.85, -4153.91, -3496.58, 0.000, 0.000, 0.000, 17:29:53.981
112, -3752.89, -4201.83, -3949.65, -3304.42, 0.000, 0.000, 0.000, 17:29:53.981
113, -3677.71, -4155.11, -3905.96, -3268.63, 0.000, 0.000, 0.000, 17:29:53.994
114, -3991.73, -4515.93, -4234.15, -3596.32, 0.000, 0.000, 0.000, 17:29:53.994
115, -3948.81, -4437.78, -4159.75, -3502.26, 0.000, 0.000, 0.000, 17:29:54.009
116, -3761.22, -4230.30, -3962.29, -3317.86, 0.000, 0.000, 0.000, 17:29:54.010
117, -3689.85, -4167.03, -3923.88, -3285.56, 0.000, 0.000, 0.000, 17:29:54.024
118, -3996.86, -4514.09, -4252.19, -3613.47, 0.000, 0.000, 0.000, 17:29:54.024
119, -3931.73, -4435.86, -4165.00, -3497.28, 0.000, 0.000, 0.000, 17:29:54.024
120, -3751.45, -4220.79, -3958.25, -3312.50, 0.000, 0.000, 0.000, 17:29:54.025
121, -3688.07, -4174.40, -3918.00, -3285.05, 0.000, 0.000, 0.000, 17:29:54.039
122, -3995.12, -4527.53, -4247.69, -3618.95, 0.000, 0.000, 0.000, 17:29:54.040
123, -3947.37, -4434.24, -4165.71, -3516.50, 0.000, 0.000, 0.000, 17:29:54.054
124, -3757.22, -4228.70, -3970.45, -3325.67, 0.000, 0.000, 0.000, 17:29:54.054
125, -3700.27, -4183.76, -3930.74, -3295.11, 0.000, 0.000, 0.000, 17:29:54.055
126, -3995.86, -4517.09, -4245.44, -3619.31, 0.000, 0.000, 0.000, 17:29:54.055
127, -3949.13, -4442.04, -4162.65, -3515.06, 0.000, 0.000, 0.000, 17:29:54.069
128, -3763.22, -4236.25, -3979.11, -3318.60, 0.000, 0.000, 0.000, 17:29:54.069
129, -3700.80, -4199.86, -3938.99, -3285.57, 0.000, 0.000, 0.000, 17:29:54.085
130, -3997.74, -4523.22, -4259.13, -3614.84, 0.000, 0.000, 0.000, 17:29:54.085
131, -3952.48, -4437.77, -4169.90, -3519.57, 0.000, 0.000, 0.000, 17:29:54.085
132, -3762.88, -4240.95, -3979.14, -3320.84, 0.000, 0.000, 0.000, 17:29:54.085
133, -3714.81, -4195.73, -3943.17, -3297.91, 0.000, 0.000, 0.000, 17:29:54.099
134, -4027.90, -4563.61, -4279.64, -3624.97, 0.000, 0.000, 0.000, 17:29:54.100
135, -3974.27, -4456.65, -4190.24, -3521.76, 0.000, 0.000, 0.000, 17:29:54.114
136, -3734.26, -4210.76, -3934.68, -3302.63, 0.000, 0.000, 0.000, 17:29:54.114
137, -3688.75, -4168.29, -3907.31, -3290.01, 0.000, 0.000, 0.000, 17:29:54.115
138, -4009.83, -4554.04, -4251.92, -3631.47, 0.000, 0.000, 0.000, 17:29:54.115
139, -3949.98, -4424.14, -4148.43, -3521.49, 0.000, 0.000, 0.000, 17:29:54.130
140, -3759.09, -4219.45, -3949.55, -3323.52, 0.000, 0.000, 0.000, 17:29:54.130
141, -3706.33, -4167.07, -3902.59, -3309.64, 0.000, 0.000, 0.000, 17:29:54.144
142, -4021.04, -4525.75, -4248.92, -3644.97, 0.000, 0.000, 0.000, 17:29:54.144
143, -3961.00, -4440.86, -4160.93, -3524.26, 0.000, 0.000, 0.000, 17:29:54.145
144, -3763.02, -4227.95, -3962.77, -3338.91, 0.000, 0.000, 0.000, 17:29:54.146
145, -3710.79, -4184.27, -3919.33, -3309.48, 0.000, 0.000, 0.000, 17:29:54.159
146, -4025.25, -4529.69, -4259.02, -3644.61, 0.000, 0.000, 0.000, 17:29:54.159
147, -3964.60, -4439.84, -4170.72, -3535.03, 0.000, 0.000, 0.000, 17:29:54.174
148, -3772.24, -4241.88, -3966.96, -3340.54, 0.000, 0.000, 0.000, 17:29:54.174
149, -3709.89, -4188.38, -3927.61, -3314.58, 0.000, 0.000, 0.000, 17:29:54.174
150, -4019.74, -4543.14, -4261.81, -3640.14, 0.000, 0.000, 0.000, 17:29:54.175
151, -3945.00, -4441.29, -4164.29, -3527.85, 0.000, 0.000, 0.000, 17:29:54.191
152, -3755.25, -4225.35, -3948.92, -3335.84, 0.000, 0.000, 0.000, 17:29:54.191
153, -3705.70, -4195.03, -3927.91, -3310.99, 0.000, 0.000, 0.000, 17:29:54.204
154, -4013.41, -4542.12, -4257.23, -3632.51, 0.000, 0.000, 0.000, 17:29:54.204
155, -3951.47, -4439.27, -4163.99, -3514.98, 0.000, 0.000, 0.000, 17:29:54.205
156, -3760.68, -4219.48, -3967.11, -3328.11, 0.000, 0.000, 0.000, 17:29:54.205
157, -3713.06, -4206.92, -3939.17, -3307.45, 0.000, 0.000, 0.000, 17:29:54.219
158, -4013.91, -4539.45, -4259.69, -3631.04, 0.000, 0.000, 0.000, 17:29:54.219
159, -3946.15, -4439.14, -4165.74, -3519.55, 0.000, 0.000, 0.000, 17:29:54.235
160, -3769.18, -4238.43, -3966.71, -3322.93, 0.000, 0.000, 0.000, 17:29:54.235
161, -3702.06, -4177.85, -3937.68, -3303.49, 0.000, 0.000, 0.000, 17:29:54.235
162, -4008.02, -4528.22, -4255.17, -3629.17, 0.000, 0.000, 0.000, 17:29:54.235
163, -3954.18, -4457.46, -4161.77, -3519.25, 0.000, 0.000, 0.000, 17:29:54.264
164, -3764.21, -4229.56, -3980.31, -3322.58, 0.000, 0.000, 0.000, 17:29:54.264
165, -3712.07, -4205.14, -3945.12, -3322.50, 0.000, 0.000, 0.000, 17:29:54.264
166, -4011.53, -4549.94, -4262.97, -3652.62, 0.000, 0.000, 0.000, 17:29:54.265
167, -3939.24, -4437.10, -4157.55, -3507.17, 0.000, 0.000, 0.000, 17:29:54.265
168, -3748.83, -4235.10, -3965.40, -3316.52, 0.000, 0.000, 0.000, 17:29:54.265
169, -3710.01, -4207.99, -3942.43, -3287.74, 0.000, 0.000, 0.000, 17:29:54.279
170, -4014.48, -4555.94, -4276.34, -3619.54, 0.000, 0.000, 0.000, 17:29:54.279
171, -3934.17, -4443.36, -4156.52, -3498.85, 0.000, 0.000, 0.000, 17:29:54.294
172, -3751.78, -4244.77, -3979.03, -3312.34, 0.000, 0.000, 0.000, 17:29:54.294
173, -3700.53, -4184.67, -3947.51, -3293.52, 0.000, 0.000, 0.000, 17:29:54.295
174, -4021.77, -4559.48, -4278.28, -3618.30, 0.000, 0.000, 0.000, 17:29:54.295
175, -3943.85, -4448.37, -4174.96, -3502.62, 0.000, 0.000, 0.000, 17:29:54.310
176, -3761.65, -4230.27, -3975.03, -3309.93, 0.000, 0.000, 0.000, 17:29:54.310
177, -3712.19, -4195.85, -3963.92, -3298.83, 0.000, 0.000, 0.000, 17:29:54.324
178, -4015.41, -4542.60, -4281.28, -3614.37, 0.000, 0.000, 0.000, 17:29:54.324
179, -3941.67, -4441.23, -4171.08, -3508.83, 0.000, 0.000, 0.000, 17:29:54.339
180, -3749.96, -4233.31, -3976.18, -3318.46, 0.000, 0.000, 0.000, 17:29:54.339
181, -3710.65, -4200.93, -3964.90, -3309.00, 0.000, 0.000, 0.000, 17:29:54.339
182, -4019.23, -4549.14, -4277.11, -3638.74, 0.000, 0.000, 0.000, 17:29:54.339
183, -3946.82, -4434.98, -4177.55, -3510.32, 0.000, 0.000, 0.000, 17:29:54.354
184, -3758.16, -4235.50, -3978.96, -3316.31, 0.000, 0.000, 0.000, 17:29:54.355
185, -3718.01, -4215.77, -3957.70, -3307.84, 0.000, 0.000, 0.000, 17:29:54.355
186, -4019.22, -4570.41, -4278.90, -3625.13, 0.000, 0.000, 0.000, 17:29:54.355
187, -3940.84, -4469.11, -4169.44, -3509.13, 0.000, 0.000, 0.000, 17:29:54.370
188, -3746.48, -4229.11, -3968.04, -3313.59, 0.000, 0.000, 0.000, 17:29:54.371
189, -3715.58, -4214.85, -3956.84, -3311.70, 0.000, 0.000, 0.000, 17:29:54.385
190, -4016.43, -4538.43, -4276.15, -3634.15, 0.000, 0.000, 0.000, 17:29:54.385
191, -3938.66, -4442.50, -4146.83, -3512.37, 0.000, 0.000, 0.000, 17:29:54.385
192, -3745.32, -4229.17, -3969.10, -3315.26, 0.000, 0.000, 0.000, 17:29:54.386
193, -3711.43, -4207.34, -3948.24, -3310.80, 0.000, 0.000, 0.000, 17:29:54.400
194, -4006.64, -4558.31, -4267.77, -3637.63, 0.000, 0.000, 0.000, 17:29:54.400
195, -3944.42, -4439.09, -4172.68, -3515.97, 0.000, 0.000, 0.000, 17:29:54.415
196, -3747.22, -4227.43, -3964.70, -3292.76, 0.000, 0.000, 0.000, 17:29:54.415
197, -3705.44, -4186.22, -3949.02, -3287.21, 0.000, 0.000, 0.000, 17:29:54.416
198, -4008.55, -4542.72, -4274.89, -3622.97, 0.000, 0.000, 0.000, 17:29:54.416
199, -3937.05, -4427.02, -4174.98, -3502.58, 0.000, 0.000, 0.000, 17:29:54.429
200, -3747.03, -4232.37, -3967.05, -3311.41, 0.000, 0.000, 0.000, 17:29:54.429
0, -3707.72, -4208.45, -3947.53, -3304.81, 0.000, 0.000, 0.000, 17:29:54.429
1, -3995.76, -4524.81, -4259.53, -3604.08, 0.000, 0.000, 0.000, 17:29:54.445
2, -3927.48, -4443.24, -4158.71, -3499.10, 0.000, 0.000, 0.000, 17:29:54.445
3, -3737.40, -4209.83, -3957.03, -3298.69, 0.000, 0.000, 0.000, 17:29:54.459
4, -3704.88, -4200.29, -3949.65, -3314.80, 0.000, 0.000, 0.000, 17:29:54.459
5, -4007.20, -4548.94, -4268.58, -3621.95, 0.000, 0.000, 0.000, 17:29:54.459
6, -3930.24, -4423.75, -4162.72, -3498.56, 0.000, 0.000, 0.000, 17:29:54.459
7, -3738.52, -4211.00, -3954.14, -3303.53, 0.000, 0.000, 0.000, 17:29:54.474
8, -3715.65, -4220.59, -3953.86, -3315.04, 0.000, 0.000, 0.000, 17:29:54.474
9, -4012.96, -4559.50, -4267.79, -3631.45, 0.000, 0.000, 0.000, 17:29:54.489
10, -3934.65, -4435.42, -4160.63, -3506.95, 0.000, 0.000, 0.000, 17:29:54.489
11, -3752.35, -4228.85, -3975.06, -3310.12, 0.000, 0.000, 0.000, 17:29:54.489
12, -3713.77, -4204.71, -3953.38, -3317.78, 0.000, 0.000, 0.000, 17:29:54.490
13, -4011.42, -4552.37, -4278.82, -3633.21, 0.000, 0.000, 0.000, 17:29:54.549
14, -3933.69, -4435.47, -4160.84, -3504.84, 0.000, 0.000, 0.000, 17:29:54.549
15, -3743.39, -4223.24, -3965.18, -3304.49, 0.000, 0.000, 0.000, 17:29:54.549
16, -3724.33, -4248.85, -3970.48, -3331.20, 0.000, 0.000, 0.000, 17:29:54.549
17, -4024.98, -4551.33, -4274.83, -3635.90, 0.000, 0.000, 0.000, 17:29:54.551
18, -3938.05, -4417.93, -4157.13, -3502.35, 0.000, 0.000, 0.000, 17:29:54.551
19, -3744.69, -4228.60, -3962.92, -3319.10, 0.000, 0.000, 0.000, 17:29:54.551
20, -3711.70, -4206.02, -3946.94, -3324.95, 0.000, 0.000, 0.000, 17:29:54.551
21, -4022.80, -4551.82, -4283.82, -3641.65, 0.000, 0.000, 0.000, 17:29:54.551
22, -3947.90, -4454.66, -4174.00, -3522.76, 0.000, 0.000, 0.000, 17:29:54.551
23, -3738.10, -4221.68, -3966.90, -3306.68, 0.000, 0.000, 0.000, 17:29:54.552
24, -3717.85, -4221.27, -3963.69, -3327.93, 0.000, 0.000, 0.000, 17:29:54.552
25, -4018.81, -4551.41, -4264.89, -3631.00, 0.000, 0.000, 0.000, 17:29:54.565
26, -3927.54, -4432.62, -4151.12, -3511.59, 0.000, 0.000, 0.000, 17:29:54.565
27, -3738.74, -4242.39, -3947.52, -3306.50, 0.000, 0.000, 0.000, 17:29:54.579
28, -3714.80, -4207.45, -3957.31, -3310.22, 0.000, 0.000, 0.000, 17:29:54.579
29, -4015.60, -4555.75, -4266.56, -3642.20, 0.000, 0.000, 0.000, 17:29:54.580
30, -3929.55, -4437.32, -4160.01, -3512.41, 0.000, 0.000, 0.000, 17:29:54.580
31, -3740.16, -4214.52, -3953.77, -3310.45, 0.000, 0.000, 0.000, 17:29:54.594
32, -3724.41, -4234.32, -3969.85, -3332.06, 0.000, 0.000, 0.000, 17:29:54.594
33, -4028.21, -4555.25, -4278.93, -3642.96, 0.000, 0.000, 0.000, 17:29:54.609
34, -3921.92, -4422.85, -4151.70, -3506.39, 0.000, 0.000, 0.000, 17:29:54.609
35, -3744.71, -4227.94, -3964.10, -3311.37, 0.000, 0.000, 0.000, 17:29:54.609
36, -3735.41, -4246.49, -3986.26, -3338.64, 0.000, 0.000, 0.000, 17:29:54.609
37, -4004.47, -4550.13, -4276.81, -3640.01, 0.000, 0.000, 0.000, 17:29:54.624
38, -3913.90, -4435.20, -4154.22, -3500.51, 0.000, 0.000, 0.000, 17:29:54.624
39, -3725.45, -4235.33, -3954.09, -3316.18, 0.000, 0.000, 0.000, 17:29:54.639
40, -3680.36, -4231.09, -3954.01, -3319.56, 0.000, 0.000, 0.000, 17:29:54.639
41, -4001.12, -4599.51, -4290.79, -3643.17, 0.000, 0.000, 0.000, 17:29:54.640
42, -3905.24, -4476.62, -4172.56, -3504.08, 0.000, 0.000, 0.000, 17:29:54.640
43, -3708.47, -4259.93, -3966.75, -3306.09, 0.000, 0.000, 0.000, 17:29:54.654
44, -3682.20, -4274.16, -3976.34, -3318.08, 0.000, 0.000, 0.000, 17:29:54.654
45, -3973.63, -4620.62, -4301.97, -3635.79, 0.000, 0.000, 0.000, 17:29:54.669
46, -3886.98, -4501.37, -4151.32, -3497.72, 0.000, 0.000, 0.000, 17:29:54.669
47, -3682.97, -4279.40, -3955.58, -3300.43, 0.000, 0.000, 0.000, 17:29:54.669
48, -3675.33, -4272.09, -3962.15, -3328.37, 0.000, 0.000, 0.000, 17:29:54.669
49, -3978.64, -4632.15, -4293.68, -3641.22, 0.000, 0.000, 0.000, 17:29:54.684
50, -3897.07, -4526.57, -4173.92, -3511.66, 0.000, 0.000, 0.000, 17:29:54.684
51, -3698.90, -4298.40, -3969.71, -3321.99, 0.000, 0.000, 0.000, 17:29:54.700
52, -3690.83, -4288.92, -3980.02, -3341.36, 0.000, 0.000, 0.000, 17:29:54.700
53, -3988.77, -4614.40, -4286.89, -3645.61, 0.000, 0.000, 0.000, 17:29:54.700
54, -3899.54, -4465.68, -4159.51, -3504.61, 0.000, 0.000, 0.000, 17:29:54.700
55, -3718.90, -4263.93, -3959.92, -3311.33, 0.000, 0.000, 0.000, 17:29:54.715
56, -3712.61, -4256.33, -3974.31, -3326.36, 0.000, 0.000, 0.000, 17:29:54.715
57, -4019.17, -4594.70, -4278.56, -3641.49, 0.000, 0.000, 0.000, 17:29:54.729
58, -3923.31, -4458.83, -4144.85, -3504.28, 0.000, 0.000, 0.000, 17:29:54.730
59, -3724.30, -4231.20, -3950.48, -3304.67, 0.000, 0.000, 0.000, 17:29:54.730
60, -3727.18, -4256.93, -3972.60, -3345.76, 0.000, 0.000, 0.000, 17:29:54.730
61, -4021.52, -4570.69, -4279.35, -3648.10, 0.000, 0.000, 0.000, 17:29:54.759
62, -3921.60, -4430.57, -4143.73, -3492.87, 0.000, 0.000, 0.000, 17:29:54.759
63, -3740.85, -4228.44, -3954.14, -3313.21, 0.000, 0.000, 0.000, 17:29:54.759
64, -3731.77, -4242.59, -3964.52, -3334.03, 0.000, 0.000, 0.000, 17:29:54.759
65, -4027.94, -4570.20, -4276.01, -3651.41, 0.000, 0.000, 0.000, 17:29:54.760
66, -3930.50, -4438.33, -4155.71, -3503.41, 0.000, 0.000, 0.000, 17:29:54.760
67, -3737.83, -4219.51, -3952.04, -3302.20, 0.000, 0.000, 0.000, 17:29:54.774
68, -3729.24, -4231.13, -3966.99, -3337.70, 0.000, 0.000, 0.000, 17:29:54.774
69, -4019.45, -4565.84, -4282.62, -3646.64, 0.000, 0.000, 0.000, 17:29:54.789
70, -3936.62, -4429.48, -4159.20, -3505.06, 0.000, 0.000, 0.000, 17:29:54.789
71, -3739.48, -4229.02, -3956.65, -3297.51, 0.000, 0.000, 0.000, 17:29:54.789
72, -3733.69, -4224.29, -3965.08, -3326.20, 0.000, 0.000, 0.000, 17:29:54.790
73, -4027.31, -4557.58, -4277.20, -3638.09, 0.000, 0.000, 0.000, 17:29:54.819
74, -3933.55, -4438.38, -4151.40, -3505.37, 0.000, 0.000, 0.000, 17:29:54.819
75, -3737.35, -4209.48, -3947.03, -3297.01, 0.000, 0.000, 0.000, 17:29:54.819
76, -3743.88, -4240.73, -3980.09, -3342.43, 0.000, 0.000, 0.000, 17:29:54.819
77, -4059.71, -4604.03, -4302.81, -3661.70, 0.000, 0.000, 0.000, 17:29:54.820
78, -3906.46, -4414.03, -4124.30, -3494.65, 0.000, 0.000, 0.000, 17:29:54.820
79, -3706.14, -4206.20, -3918.71, -3297.29, 0.000, 0.000, 0.000, 17:29:54.835
80, -3709.59, -4250.56, -3954.63, -3350.41, 0.000, 0.000, 0.000, 17:29:54.835
81, -4005.30, -4570.88, -4267.37, -3649.83, 0.000, 0.000, 0.000, 17:29:54.849
82, -3905.11, -4427.49, -4126.11, -3502.79, 0.000, 0.000, 0.000, 17:29:54.850
83, -3712.72, -4225.98, -3926.78, -3320.48, 0.000, 0.000, 0.000, 17:29:54.850
84, -3719.74, -4239.94, -3962.20, -3357.12, 0.000, 0.000, 0.000, 17:29:54.850
85, -4013.10, -4590.73, -4280.94, -3645.28, 0.000, 0.000, 0.000, 17:29:54.865
86, -3915.16, -4444.99, -4145.23, -3501.00, 0.000, 0.000, 0.000, 17:29:54.865
87, -3737.34, -4231.90, -3944.44, -3316.60, 0.000, 0.000, 0.000, 17:29:54.879
88, -3725.58, -4241.08, -3961.04, -3351.29, 0.000, 0.000, 0.000, 17:29:54.879
89, -4019.29, -4569.72, -4265.74, -3647.01, 0.000, 0.000, 0.000, 17:29:54.880
90, -3919.42, -4424.88, -4150.57, -3493.83, 0.000, 0.000, 0.000, 17:29:54.880
91, -3731.08, -4219.91, -3932.79, -3304.63, 0.000, 0.000, 0.000, 17:29:54.909
92, -3734.12, -4245.90, -3968.07, -3340.54, 0.000, 0.000, 0.000, 17:29:54.909
93, -4025.73, -4575.12, -4282.12, -3641.11, 0.000, 0.000, 0.000, 17:29:54.909
94, -3920.82, -4441.76, -4141.56, -3507.99, 0.000, 0.000, 0.000, 17:29:54.909
95, -3740.46, -4216.10, -3943.52, -3305.60, 0.000, 0.000, 0.000, 17:29:54.910
96, -3742.79, -4250.50, -3979.00, -3354.61, 0.000, 0.000, 0.000, 17:29:54.910
97, -4028.12, -4568.56, -4289.82, -3656.33, 0.000, 0.000, 0.000, 17:29:54.924
98, -3935.36, -4420.78, -4157.97, -3507.05, 0.000, 0.000, 0.000, 17:29:54.924
99, -3733.26, -4201.84, -3951.78, -3305.55, 0.000, 0.000, 0.000, 17:29:54.939
100, -3739.62, -4253.81, -3981.80, -3350.94, 0.000, 0.000, 0.000, 17:29:54.939
101, -4031.76, -4564.75, -4285.72, -3656.36, 0.000, 0.000, 0.000, 17:29:54.939
102, -3926.56, -4419.65, -4148.34, -3506.41, 0.000, 0.000, 0.000, 17:29:54.939
103, -3738.41, -4219.41, -3952.39, -3312.67, 0.000, 0.000, 0.000, 17:29:54.954
104, -3737.58, -4243.97, -3977.82, -3345.82, 0.000, 0.000, 0.000, 17:29:54.954
105, -4035.45, -4560.47, -4283.42, -3650.78, 0.000, 0.000, 0.000, 17:29:54.968
106, -3927.19, -4428.95, -4156.08, -3500.39, 0.000, 0.000, 0.000, 17:29:54.969
107, -3728.99, -4203.79, -3946.16, -3308.28, 0.000, 0.000, 0.000, 17:29:54.969
108, -3728.96, -4239.55, -3977.24, -3347.29, 0.000, 0.000, 0.000, 17:29:54.969
109, -4026.60, -4568.80, -4277.91, -3640.63, 0.000, 0.000, 0.000, 17:29:54.985
110, -3919.84, -4430.31, -4139.25, -3488.94, 0.000, 0.000, 0.000, 17:29:54.985
111, -3730.27, -4210.42, -3949.40, -3295.08, 0.000, 0.000, 0.000, 17:29:54.999
112, -3733.78, -4232.84, -3973.88, -3338.70, 0.000, 0.000, 0.000, 17:29:54.999
113, -4022.34, -4558.63, -4272.62, -3642.50, 0.000, 0.000, 0.000, 17:29:55.014
114, -3913.08, -4434.48, -4137.64, -3496.04, 0.000, 0.000, 0.000, 17:29:55.015
115, -3719.35, -4213.75, -3934.00, -3290.19, 0.000, 0.000, 0.000, 17:29:55.015
116, -3726.94, -4245.47, -3976.33, -3344.93, 0.000, 0.000, 0.000, 17:29:55.015
117, -4015.74, -4570.03, -4269.69, -3636.45, 0.000, 0.000, 0.000, 17:29:55.030
118, -3910.87, -4431.74, -4132.35, -3484.81, 0.000, 0.000, 0.000, 17:29:55.030
119, -3712.31, -4220.17, -3931.34, -3289.06, 0.000, 0.000, 0.000, 17:29:55.030
120, -3726.02, -4244.67, -3972.80, -3344.72, 0.000, 0.000, 0.000, 17:29:55.030
121, -4000.93, -4600.21, -4274.56, -3643.60, 0.000, 0.000, 0.000, 17:29:55.045
122, -3875.20, -4473.57, -4135.64, -3489.94, 0.000, 0.000, 0.000, 17:29:55.045
123, -3656.01, -4242.30, -3927.86, -3293.04, 0.000, 0.000, 0.000, 17:29:55.089
124, -3691.92, -4321.80, -3991.31, -3364.66, 0.000, 0.000, 0.000, 17:29:55.089
125, -3948.34, -4660.35, -4278.88, -3643.56, 0.000, 0.000, 0.000, 17:29:55.090
126, -3830.79, -4515.59, -4149.56, -3491.48, 0.000, 0.000, 0.000, 17:29:55.090
127, -3601.66, -4304.22, -3926.22, -3297.57, 0.000, 0.000, 0.000, 17:29:55.119
128, -3587.77, -4315.59, -3955.21, -3321.57, 0.000, 0.000, 0.000, 17:29:55.119
129, -3826.00, -4642.74, -4240.46, -3609.45, 0.000, 0.000, 0.000, 17:29:55.120
130, -3688.95, -4515.60, -4099.90, -3451.24, 0.000, 0.000, 0.000, 17:29:55.120
131, -3463.44, -4328.94, -3903.54, -3260.07, 0.000, 0.000, 0.000, 17:29:55.120
132, -3451.01, -4374.46, -3940.19, -3303.63, 0.000, 0.000, 0.000, 17:29:55.120
133, -3728.25, -4691.61, -4239.57, -3595.53, 0.000, 0.000, 0.000, 17:29:55.121
134, -3612.12, -4542.47, -4100.16, -3442.42, 0.000, 0.000, 0.000, 17:29:55.121
135, -3415.07, -4325.68, -3869.90, -3239.34, 0.000, 0.000, 0.000, 17:29:55.122
136, -3443.33, -4342.73, -3937.56, -3302.63, 0.000, 0.000, 0.000, 17:29:55.122
137, -3746.88, -4678.38, -4237.60, -3603.65, 0.000, 0.000, 0.000, 17:29:55.122
138, -3638.79, -4516.16, -4095.12, -3455.33, 0.000, 0.000, 0.000, 17:29:55.123
139, -3454.59, -4294.44, -3897.50, -3263.00, 0.000, 0.000, 0.000, 17:29:55.135
140, -3478.52, -4345.88, -3935.67, -3325.72, 0.000, 0.000, 0.000, 17:29:55.135
141, -3781.26, -4627.33, -4232.61, -3600.32, 0.000, 0.000, 0.000, 17:29:55.149
142, -3687.09, -4505.45, -4102.18, -3463.74, 0.000, 0.000, 0.000, 17:29:55.149
143, -3525.41, -4288.16, -3920.20, -3276.54, 0.000, 0.000, 0.000, 17:29:55.150
144, -3528.20, -4293.73, -3922.43, -3325.75, 0.000, 0.000, 0.000, 17:29:55.150
145, -3837.40, -4612.03, -4233.33, -3626.73, 0.000, 0.000, 0.000, 17:29:55.165
146, -3750.59, -4477.41, -4112.30, -3484.86, 0.000, 0.000, 0.000, 17:29:55.165
147, -3575.66, -4252.45, -3904.95, -3283.41, 0.000, 0.000, 0.000, 17:29:55.180
148, -3608.05, -4295.07, -3967.10, -3335.71, 0.000, 0.000, 0.000, 17:29:55.180
149, -3908.65, -4593.53, -4264.35, -3644.91, 0.000, 0.000, 0.000, 17:29:55.180
150, -3811.17, -4467.58, -4119.06, -3494.86, 0.000, 0.000, 0.000, 17:29:55.180
151, -3639.12, -4237.62, -3923.06, -3301.02, 0.000, 0.000, 0.000, 17:29:55.195
152, -3666.73, -4248.95, -3957.44, -3338.13, 0.000, 0.000, 0.000, 17:29:55.195
153, -3983.93, -4552.57, -4264.53, -3643.38, 0.000, 0.000, 0.000, 17:29:55.209
154, -3875.77, -4404.37, -4116.30, -3485.17, 0.000, 0.000, 0.000, 17:29:55.209
155, -3716.63, -4173.20, -3913.36, -3302.69, 0.000, 0.000, 0.000, 17:29:55.210
156, -3765.77, -4236.10, -3984.82, -3378.23, 0.000, 0.000, 0.000, 17:29:55.210
157, -4070.73, -4534.29, -4279.26, -3663.04, 0.000, 0.000, 0.000, 17:29:55.224
158, -3970.74, -4367.83, -4126.77, -3497.30, 0.000, 0.000, 0.000, 17:29:55.224
159, -3789.77, -4130.88, -3922.63, -3299.58, 0.000, 0.000, 0.000, 17:29:55.239
160, -3833.86, -4199.75, -3998.50, -3381.44, 0.000, 0.000, 0.000, 17:29:55.239
161, -4120.69, -4500.44, -4286.97, -3647.00, 0.000, 0.000, 0.000, 17:29:55.239
162, -4012.65, -4339.34, -4134.21, -3496.91, 0.000, 0.000, 0.000, 17:29:55.240
163, -3833.83, -4142.43, -3953.23, -3310.40, 0.000, 0.000, 0.000, 17:29:55.255
164, -3868.80, -4174.62, -4000.68, -3369.55, 0.000, 0.000, 0.000, 17:29:55.255
165, -4136.84, -4460.65, -4285.82, -3646.46, 0.000, 0.000, 0.000, 17:29:55.269
166, -4040.17, -4333.38, -4144.52, -3492.05, 0.000, 0.000, 0.000, 17:29:55.269
167, -3854.89, -4117.91, -3948.42, -3306.54, 0.000, 0.000, 0.000, 17:29:55.270
168, -3886.93, -4179.01, -3988.54, -3370.93, 0.000, 0.000, 0.000, 17:29:55.270
169, -4179.11, -4490.06, -4307.72, -3653.72, 0.000, 0.000, 0.000, 17:29:55.285
170, -4054.08, -4313.64, -4150.27, -3489.15, 0.000, 0.000, 0.000, 17:29:55.285
171, -3871.56, -4130.46, -3959.94, -3306.45, 0.000, 0.000, 0.000, 17:29:55.299
172, -3909.21, -4174.72, -4019.19, -3381.54, 0.000, 0.000, 0.000, 17:29:55.299
173, -4186.46, -4468.00, -4295.05, -3652.09, 0.000, 0.000, 0.000, 17:29:55.300
174, -4067.61, -4319.98, -4161.80, -3487.74, 0.000, 0.000, 0.000, 17:29:55.300
175, -3877.79, -4120.68, -3953.51, -3303.95, 0.000, 0.000, 0.000, 17:29:55.315
176, -3897.27, -4172.12, -4014.45, -3387.24, 0.000, 0.000, 0.000, 17:29:55.315
177, -4164.43, -4480.00, -4292.25, -3657.17, 0.000, 0.000, 0.000, 17:29:55.330
178, -4036.43, -4314.29, -4149.28, -3490.50, 0.000, 0.000, 0.000, 17:29:55.330
179, -3855.24, -4124.77, -3961.08, -3295.09, 0.000, 0.000, 0.000, 17:29:55.330
180, -3881.98, -4182.61, -4014.92, -3365.96, 0.000, 0.000, 0.000, 17:29:55.331
181, -4138.61, -4470.20, -4274.62, -3638.29, 0.000, 0.000, 0.000, 17:29:55.345
182, -4030.35, -4326.63, -4132.49, -3489.95, 0.000, 0.000, 0.000, 17:29:55.345
183, -3846.29, -4125.97, -3957.36, -3312.28, 0.000, 0.000, 0.000, 17:29:55.374
184, -3874.22, -4193.75, -4021.49, -3380.40, 0.000, 0.000, 0.000, 17:29:55.374
185, -4127.96, -4479.48, -4274.60, -3629.31, 0.000, 0.000, 0.000, 17:29:55.374
186, -4018.95, -4332.08, -4155.77, -3490.27, 0.000, 0.000, 0.000, 17:29:55.374
187, -3822.12, -4137.87, -3938.70, -3300.78, 0.000, 0.000, 0.000, 17:29:55.375
188, -3860.55, -4191.93, -4012.13, -3380.15, 0.000, 0.000, 0.000, 17:29:55.375
189, -4127.90, -4506.88, -4273.15, -3660.61, 0.000, 0.000, 0.000, 17:29:55.376
190, -3994.24, -4342.55, -4125.16, -3493.95, 0.000, 0.000, 0.000, 17:29:55.376
191, -3810.48, -4134.86, -3949.92, -3315.15, 0.000, 0.000, 0.000, 17:29:55.389
192, -3844.58, -4214.22, -4011.52, -3396.10, 0.000, 0.000, 0.000, 17:29:55.389
193, -4106.02, -4509.70, -4280.12, -3655.45, 0.000, 0.000, 0.000, 17:29:55.404
194, -3977.70, -4347.70, -4150.49, -3488.12, 0.000, 0.000, 0.000, 17:29:55.405
195, -3790.03, -4146.46, -3926.01, -3287.53, 0.000, 0.000, 0.000, 17:29:55.419
196, -3823.37, -4227.42, -4001.61, -3386.57, 0.000, 0.000, 0.000, 17:29:55.419
197, -4097.11, -4521.48, -4297.72, -3649.18, 0.000, 0.000, 0.000, 17:29:55.420
198, -3956.50, -4357.34, -4118.50, -3471.73, 0.000, 0.000, 0.000, 17:29:55.420
199, -3764.39, -4156.17, -3927.95, -3281.92, 0.000, 0.000, 0.000, 17:29:55.434
200, -3812.34, -4229.63, -3994.44, -3368.08, 0.000, 0.000, 0.000, 17:29:55.434
0, -4088.46, -4536.15, -4286.45, -3656.21, 0.000, 0.000, 0.000, 17:29:55.434
1, -3959.30, -4370.54, -4125.98, -3492.52, 0.000, 0.000, 0.000, 17:29:55.449
2, -3764.54, -4161.67, -3946.64, -3298.74, 0.000, 0.000, 0.000, 17:29:55.449
3, -3824.29, -4254.82, -4021.27, -3399.16, 0.000, 0.000, 0.000, 17:29:55.464
4, -4087.60, -4536.08, -4278.28, -3660.24, 0.000, 0.000, 0.000, 17:29:55.464
5, -3948.86, -4383.76, -4135.60, -3490.46, 0.000, 0.000, 0.000, 17:29:55.464
6, -3772.79, -4181.12, -3956.08, -3306.28, 0.000, 0.000, 0.000, 17:29:55.464
7, -3822.36, -4279.10, -4035.43, -3400.22, 0.000, 0.000, 0.000, 17:29:55.486
8, -4090.90, -4579.13, -4307.72, -3673.60, 0.000, 0.000, 0.000, 17:29:55.486
9, -3953.82, -4398.93, -4153.93, -3498.78, 0.000, 0.000, 0.000, 17:29:55.494
10, -3748.11, -4182.24, -3945.97, -3298.29, 0.000, 0.000, 0.000, 17:29:55.495
11, -3778.70, -4255.49, -3990.16, -3381.36, 0.000, 0.000, 0.000, 17:29:55.495
12, -4043.69, -4535.45, -4256.74, -3633.47, 0.000, 0.000, 0.000, 17:29:55.495
13, -3916.14, -4378.12, -4112.91, -3472.15, 0.000, 0.000, 0.000, 17:29:55.509
14, -3729.04, -4176.01, -3915.31, -3289.09, 0.000, 0.000, 0.000, 17:29:55.509
15, -3774.36, -4245.02, -3998.98, -3372.90, 0.000, 0.000, 0.000, 17:29:55.540
16, -4017.36, -4514.04, -4255.14, -3620.04, 0.000, 0.000, 0.000, 17:29:55.540
17, -3884.22, -4344.34, -4087.79, -3435.74, 0.000, 0.000, 0.000, 17:29:55.540
18, -3695.49, -4138.31, -3905.32, -3245.05, 0.000, 0.000, 0.000, 17:29:55.540
19, -3753.48, -4217.78, -3984.57, -3333.99, 0.000, 0.000, 0.000, 17:29:55.554
20, -4017.30, -4522.68, -4250.30, -3599.42, 0.000, 0.000, 0.000, 17:29:55.554
21, -3890.55, -4352.54, -4092.89, -3440.92, 0.000, 0.000, 0.000, 17:29:55.554
22, -3710.16, -4158.67, -3900.84, -3258.80, 0.000, 0.000, 0.000, 17:29:55.554
23, -3757.59, -4238.77, -3995.11, -3354.77, 0.000, 0.000, 0.000, 17:29:55.555
24, -4029.75, -4531.83, -4272.18, -3625.92, 0.000, 0.000, 0.000, 17:29:55.555
25, -3896.65, -4350.11, -4100.45, -3457.92, 0.000, 0.000, 0.000, 17:29:55.569
26, -3707.17, -4161.43, -3921.66, -3270.46, 0.000, 0.000, 0.000, 17:29:55.569
27, -3762.95, -4257.90, -3996.42, -3365.33, 0.000, 0.000, 0.000, 17:29:55.584
28, -4035.53, -4537.28, -4278.43, -3621.87, 0.000, 0.000, 0.000, 17:29:55.584
29, -3903.37, -4391.27, -4108.25, -3456.32, 0.000, 0.000, 0.000, 17:29:55.585
30, -3722.72, -4167.50, -3911.68, -3275.30, 0.000, 0.000, 0.000, 17:29:55.585
31, -3762.70, -4251.94, -3999.71, -3367.98, 0.000, 0.000, 0.000, 17:29:55.599
32, -4027.10, -4546.62, -4264.30, -3628.90, 0.000, 0.000, 0.000, 17:29:55.599
33, -3895.42, -4385.48, -4112.72, -3466.08, 0.000, 0.000, 0.000, 17:29:55.644
34, -3705.69, -4165.01, -3920.41, -3271.80, 0.000, 0.000, 0.000, 17:29:55.644
35, -3770.44, -4247.05, -4006.24, -3376.74, 0.000, 0.000, 0.000, 17:29:55.645
36, -4034.94, -4540.09, -4267.25, -3640.52, 0.000, 0.000, 0.000, 17:29:55.645
37, -3893.64, -4375.88, -4117.63, -3465.37, 0.000, 0.000, 0.000, 17:29:55.645
38, -3711.76, -4177.27, -3913.71, -3278.22, 0.000, 0.000, 0.000, 17:29:55.646
39, -3765.76, -4260.56, -3999.77, -3373.20, 0.000, 0.000, 0.000, 17:29:55.646
40, -4022.76, -4551.17, -4276.81, -3633.16, 0.000, 0.000, 0.000, 17:29:55.646
41, -3897.98, -4381.21, -4107.83, -3459.77, 0.000, 0.000, 0.000, 17:29:55.646
42, -3712.01, -4177.76, -3918.87, -3271.08, 0.000, 0.000, 0.000, 17:29:55.646
43, -3774.90, -4268.77, -4018.92, -3389.91, 0.000, 0.000, 0.000, 17:29:55.674
44, -4040.15, -4556.94, -4283.34, -3647.52, 0.000, 0.000, 0.000, 17:29:55.674
45, -3906.86, -4388.92, -4120.53, -3465.81, 0.000, 0.000, 0.000, 17:29:55.674
46, -3719.58, -4186.52, -3934.06, -3275.55, 0.000, 0.000, 0.000, 17:29:55.674
47, -3776.06, -4271.62, -4019.36, -3387.07, 0.000, 0.000, 0.000, 17:29:55.675
48, -4037.71, -4555.07, -4283.05, -3637.31, 0.000, 0.000, 0.000, 17:29:55.675
49, -3912.60, -4400.34, -4119.00, -3464.68, 0.000, 0.000, 0.000, 17:29:55.689
50, -3696.40, -4169.90, -3903.85, -3277.33, 0.000, 0.000, 0.000, 17:29:55.689
51, -3754.56, -4264.76, -4003.09, -3386.40, 0.000, 0.000, 0.000, 17:29:55.704
52, -4022.15, -4550.32, -4271.48, -3642.72, 0.000, 0.000, 0.000, 17:29:55.704
53, -3879.74, -4371.95, -4098.48, -3461.28, 0.000, 0.000, 0.000, 17:29:55.705
54, -3698.48, -4166.51, -3907.52, -3290.49, 0.000, 0.000, 0.000, 17:29:55.705
55, -3742.74, -4247.17, -3987.67, -3384.90, 0.000, 0.000, 0.000, 17:29:55.719
56, -4009.44, -4530.33, -4248.66, -3647.80, 0.000, 0.000, 0.000, 17:29:55.720
57, -3877.71, -4367.39, -4086.53, -3478.14, 0.000, 0.000, 0.000, 17:29:55.734
58, -3691.62, -4174.06, -3906.68, -3280.67, 0.000, 0.000, 0.000, 17:29:55.734
59, -3762.30, -4271.42, -4000.73, -3387.27, 0.000, 0.000, 0.000, 17:29:55.734
60, -4027.26, -4556.84, -4272.90, -3648.48, 0.000, 0.000, 0.000, 17:29:55.734
61, -3896.78, -4402.40, -4098.78, -3476.22, 0.000, 0.000, 0.000, 17:29:55.764
62, -3707.76, -4167.21, -3918.52, -3278.16, 0.000, 0.000, 0.000, 17:29:55.764
63, -3757.31, -4255.93, -4011.21, -3386.13, 0.000, 0.000, 0.000, 17:29:55.764
64, -4031.29, -4537.88, -4262.69, -3633.30, 0.000, 0.000, 0.000, 17:29:55.765
65, -3896.92, -4366.86, -4116.03, -3462.04, 0.000, 0.000, 0.000, 17:29:55.765
66, -3706.12, -4182.13, -3929.54, -3276.47, 0.000, 0.000, 0.000, 17:29:55.765
67, -3769.76, -4288.45, -4023.48, -3389.20, 0.000, 0.000, 0.000, 17:29:55.779
68, -4036.74, -4561.84, -4289.39, -3639.37, 0.000, 0.000, 0.000, 17:29:55.780
69, -3896.21, -4386.41, -4118.82, -3467.65, 0.000, 0.000, 0.000, 17:29:55.794
70, -3712.37, -4167.29, -3916.35, -3278.20, 0.000, 0.000, 0.000, 17:29:55.794
71, -3778.98, -4277.49, -4013.48, -3393.89, 0.000, 0.000, 0.000, 17:29:55.795
72, -4037.09, -4573.67, -4285.86, -3639.43, 0.000, 0.000, 0.000, 17:29:55.795
73, -3897.98, -4385.53, -4109.40, -3460.67, 0.000, 0.000, 0.000, 17:29:55.809
74, -3716.88, -4179.91, -3927.39, -3285.56, 0.000, 0.000, 0.000, 17:29:55.809
75, -3781.55, -4269.19, -4011.63, -3390.60, 0.000, 0.000, 0.000, 17:29:55.824
76, -4028.66, -4536.16, -4269.29, -3629.61, 0.000, 0.000, 0.000, 17:29:55.824
77, -3891.62, -4383.26, -4111.57, -3465.25, 0.000, 0.000, 0.000, 17:29:55.832
78, -3692.72, -4164.13, -3902.89, -3279.59, 0.000, 0.000, 0.000, 17:29:55.832
79, -3780.10, -4310.27, -4034.37, -3393.95, 0.000, 0.000, 0.000, 17:29:55.839
80, -4025.08, -4555.42, -4280.04, -3642.53, 0.000, 0.000, 0.000, 17:29:55.839
81, -3895.05, -4405.33, -4109.21, -3478.75, 0.000, 0.000, 0.000, 17:29:55.869
82, -3705.03, -4176.77, -3925.61, -3284.77, 0.000, 0.000, 0.000, 17:29:55.870
83, -3777.93, -4266.80, -4019.86, -3384.67, 0.000, 0.000, 0.000, 17:29:55.871
84, -4023.93, -4560.88, -4266.44, -3627.88, 0.000, 0.000, 0.000, 17:29:55.871
85, -3879.42, -4397.27, -4087.99, -3445.68, 0.000, 0.000, 0.000, 17:29:55.885
86, -3688.21, -4160.53, -3908.69, -3283.94, 0.000, 0.000, 0.000, 17:29:55.885
87, -3755.49, -4274.59, -4016.96, -3404.59, 0.000, 0.000, 0.000, 17:29:55.885
88, -3999.83, -4539.88, -4261.06, -3632.57, 0.000, 0.000, 0.000, 17:29:55.885
89, -3880.03, -4373.01, -4095.58, -3458.08, 0.000, 0.000, 0.000, 17:29:55.886
90, -3701.74, -4180.50, -3907.14, -3281.38, 0.000, 0.000, 0.000, 17:29:55.886
91, -3775.91, -4286.20, -4030.70, -3400.13, 0.000, 0.000, 0.000, 17:29:55.899
92, -4030.62, -4600.77, -4272.62, -3655.84, 0.000, 0.000, 0.000, 17:29:55.899
93, -3903.66, -4394.49, -4120.26, -3475.47, 0.000, 0.000, 0.000, 17:29:55.931
94, -3710.50, -4181.88, -3912.52, -3304.03, 0.000, 0.000, 0.000, 17:29:55.931
95, -3781.10, -4294.63, -4031.48, -3411.05, 0.000, 0.000, 0.000, 17:29:55.931
96, -4047.48, -4578.93, -4287.14, -3647.35, 0.000, 0.000, 0.000, 17:29:55.931
97, -3907.97, -4415.77, -4137.19, -3461.69, 0.000, 0.000, 0.000, 17:29:55.931
98, -3711.10, -4202.44, -3932.44, -3289.60, 0.000, 0.000, 0.000, 17:29:55.931
99, -3793.14, -4312.53, -4032.67, -3418.05, 0.000, 0.000, 0.000, 17:29:55.931
100, -4038.84, -4562.36, -4285.38, -3649.79, 0.000, 0.000, 0.000, 17:29:55.931
101, -3897.38, -4387.42, -4112.87, -3474.39, 0.000, 0.000, 0.000, 17:29:55.944
102, -3716.67, -4179.35, -3925.18, -3294.97, 0.000, 0.000, 0.000, 17:29:55.944
103, -3791.49, -4301.45, -4026.12, -3402.39, 0.000, 0.000, 0.000, 17:29:55.960
104, -4033.12, -4556.33, -4271.96, -3639.41, 0.000, 0.000, 0.000, 17:29:55.960
105, -3886.34, -4367.73, -4107.60, -3458.13, 0.000, 0.000, 0.000, 17:29:55.974
106, -3704.87, -4166.76, -3921.33, -3279.37, 0.000, 0.000, 0.000, 17:29:55.974
107, -3789.14, -4306.51, -4034.72, -3398.76, 0.000, 0.000, 0.000, 17:29:55.975
108, -4047.48, -4569.90, -4299.68, -3644.33, 0.000, 0.000, 0.000, 17:29:55.975
109, -3906.97, -4394.87, -4124.28, -3472.28, 0.000, 0.000, 0.000, 17:29:55.989
110, -3710.20, -4189.78, -3928.58, -3289.73, 0.000, 0.000, 0.000, 17:29:55.989
111, -3801.48, -4315.54, -4046.06, -3419.37, 0.000, 0.000, 0.000, 17:29:56.004
112, -4030.81, -4555.82, -4274.08, -3650.80, 0.000, 0.000, 0.000, 17:29:56.004
113, -3887.05, -4383.02, -4117.91, -3470.28, 0.000, 0.000, 0.000, 17:29:56.019
114, -3701.96, -4202.35, -3922.91, -3286.46, 0.000, 0.000, 0.000, 17:29:56.019
115, -3789.67, -4303.41, -4030.95, -3410.80, 0.000, 0.000, 0.000, 17:29:56.020
116, -4019.29, -4561.35, -4270.53, -3637.05, 0.000, 0.000, 0.000, 17:29:56.020
117, -3887.61, -4383.06, -4111.55, -3464.65, 0.000, 0.000, 0.000, 17:29:56.034
118, -3717.35, -4210.23, -3946.39, -3299.24, 0.000, 0.000, 0.000, 17:29:56.035
119, -3810.50, -4327.46, -4058.49, -3418.39, 0.000, 0.000, 0.000, 17:29:56.035
120, -4023.62, -4552.88, -4261.39, -3625.17, 0.000, 0.000, 0.000, 17:29:56.035
121, -3883.12, -4376.33, -4090.45, -3464.52, 0.000, 0.000, 0.000, 17:29:56.049
122, -3707.64, -4180.43, -3918.32, -3295.47, 0.000, 0.000, 0.000, 17:29:56.049
123, -3812.62, -4336.69, -4047.83, -3428.69, 0.000, 0.000, 0.000, 17:29:56.065
124, -4028.56, -4543.82, -4266.30, -3637.63, 0.000, 0.000, 0.000, 17:29:56.065
125, -3874.93, -4363.69, -4067.15, -3451.67, 0.000, 0.000, 0.000, 17:29:56.065
126, -3694.06, -4174.15, -3908.08, -3286.32, 0.000, 0.000, 0.000, 17:29:56.065
127, -3802.41, -4286.04, -4024.39, -3447.82, 0.000, 0.000, 0.000, 17:29:56.080
128, -4030.46, -4547.01, -4255.75, -3653.00, 0.000, 0.000, 0.000, 17:29:56.080
129, -3904.11, -4396.27, -4119.63, -3465.10, 0.000, 0.000, 0.000, 17:29:56.124
130, -3704.57, -4175.81, -3902.50, -3278.87, 0.000, 0.000, 0.000, 17:29:56.124
131, -3800.96, -4309.56, -4052.01, -3412.14, 0.000, 0.000, 0.000, 17:29:56.124
132, -4035.05, -4570.92, -4292.31, -3640.17, 0.000, 0.000, 0.000, 17:29:56.124
133, -3876.22, -4368.41, -4097.70, -3439.91, 0.000, 0.000, 0.000, 17:29:56.125
134, -3697.20, -4172.13, -3909.42, -3278.64, 0.000, 0.000, 0.000, 17:29:56.125
135, -3785.06, -4275.38, -4035.36, -3424.90, 0.000, 0.000, 0.000, 17:29:56.125
136, -4014.05, -4512.81, -4263.17, -3639.09, 0.000, 0.000, 0.000, 17:29:56.126
137, -3872.15, -4362.10, -4096.99, -3449.04, 0.000, 0.000, 0.000, 17:29:56.126
138, -3693.64, -4176.73, -3913.21, -3272.32, 0.000, 0.000, 0.000, 17:29:56.126
139, -3799.73, -4289.45, -4041.36, -3427.11, 0.000, 0.000, 0.000, 17:29:56.139
140, -4041.37, -4542.68, -4279.01, -3638.55, 0.000, 0.000, 0.000, 17:29:56.140
141, -3892.51, -4370.37, -4110.10, -3470.86, 0.000, 0.000, 0.000, 17:29:56.154
142, -3694.67, -4164.75, -3916.73, -3285.95, 0.000, 0.000, 0.000, 17:29:56.154
143, -3795.68, -4309.75, -4040.17, -3415.78, 0.000, 0.000, 0.000, 17:29:56.155
144, -4031.99, -4541.19, -4281.11, -3638.87, 0.000, 0.000, 0.000, 17:29:56.155
145, -3880.79, -4360.60, -4114.13, -3446.12, 0.000, 0.000, 0.000, 17:29:56.176
146, -3705.51, -4173.49, -3919.66, -3278.23, 0.000, 0.000, 0.000, 17:29:56.176
147, -3805.40, -4319.60, -4064.93, -3422.73, 0.000, 0.000, 0.000, 17:29:56.214
148, -4018.80, -4536.50, -4266.69, -3636.17, 0.000, 0.000, 0.000, 17:29:56.214
149, -3873.76, -4352.48, -4090.64, -3444.85, 0.000, 0.000, 0.000, 17:29:56.215
150, -3702.78, -4165.07, -3908.78, -3275.41, 0.000, 0.000, 0.000, 17:29:56.215
151, -3802.87, -4302.42, -4049.01, -3426.57, 0.000, 0.000, 0.000, 17:29:56.215
152, -4029.07, -4550.07, -4278.36, -3631.67, 0.000, 0.000, 0.000, 17:29:56.215
153, -3872.48, -4368.31, -4077.89, -3442.62, 0.000, 0.000, 0.000, 17:29:56.216
154, -3694.41, -4163.82, -3910.51, -3272.40, 0.000, 0.000, 0.000, 17:29:56.216
155, -3792.51, -4302.60, -4051.33, -3426.70, 0.000, 0.000, 0.000, 17:29:56.217
156, -4029.27, -4552.37, -4288.98, -3628.39, 0.000, 0.000, 0.000, 17:29:56.217
157, -3881.19, -4376.32, -4090.96, -3455.38, 0.000, 0.000, 0.000, 17:29:56.230
158, -3689.33, -4169.11, -3908.45, -3258.04, 0.000, 0.000, 0.000, 17:29:56.230
159, -3786.30, -4306.92, -4046.33, -3415.04, 0.000, 0.000, 0.000, 17:29:56.244
160, -4008.29, -4524.60, -4266.32, -3633.61, 0.000, 0.000, 0.000, 17:29:56.244
161, -3869.10, -4364.88, -4095.74, -3444.39, 0.000, 0.000, 0.000, 17:29:56.245
162, -3681.70, -4147.15, -3903.65, -3263.17, 0.000, 0.000, 0.000, 17:29:56.245
163, -3799.99, -4301.24, -4052.49, -3415.21, 0.000, 0.000, 0.000, 17:29:56.259
164, -4026.83, -4550.33, -4274.65, -3621.77, 0.000, 0.000, 0.000, 17:29:56.259
165, -3872.32, -4372.33, -4100.84, -3448.72, 0.000, 0.000, 0.000, 17:29:56.274
166, -3692.38, -4157.64, -3904.58, -3266.51, 0.000, 0.000, 0.000, 17:29:56.275
167, -3817.68, -4336.38, -4074.22, -3435.41, 0.000, 0.000, 0.000, 17:29:56.275
168, -4030.62, -4543.83, -4292.68, -3640.28, 0.000, 0.000, 0.000, 17:29:56.275
169, -3879.71, -4348.99, -4094.87, -3442.25, 0.000, 0.000, 0.000, 17:29:56.289
170, -3697.64, -4166.23, -3921.66, -3266.98, 0.000, 0.000, 0.000, 17:29:56.289
171, -3821.86, -4342.06, -4072.92, -3434.19, 0.000, 0.000, 0.000, 17:29:56.304
172, -4039.23, -4567.00, -4282.49, -3637.67, 0.000, 0.000, 0.000, 17:29:56.304
173, -3876.84, -4360.35, -4103.73, -3453.00, 0.000, 0.000, 0.000, 17:29:56.305
174, -3694.56, -4173.98, -3911.05, -3266.29, 0.000, 0.000, 0.000, 17:29:56.305
175, -3810.74, -4315.67, -4042.43, -3423.82, 0.000, 0.000, 0.000, 17:29:56.319
176, -4026.40, -4537.74, -4266.91, -3640.11, 0.000, 0.000, 0.000, 17:29:56.319
177, -3884.75, -4353.48, -4099.00, -3446.30, 0.000, 0.000, 0.000, 17:29:56.334
178, -3705.36, -4171.92, -3922.50, -3264.06, 0.000, 0.000, 0.000, 17:29:56.335
179, -3819.63, -4312.49, -4046.36, -3434.79, 0.000, 0.000, 0.000, 17:29:56.335
180, -4040.67, -4549.57, -4262.68, -3643.37, 0.000, 0.000, 0.000, 17:29:56.335
181, -3881.74, -4358.35, -4104.16, -3460.20, 0.000, 0.000, 0.000, 17:29:56.349
182, -3707.01, -4156.94, -3909.81, -3281.59, 0.000, 0.000, 0.000, 17:29:56.349
183, -3809.02, -4309.25, -4061.47, -3428.99, 0.000, 0.000, 0.000, 17:29:56.364
184, -4035.03, -4562.90, -4280.75, -3624.23, 0.000, 0.000, 0.000, 17:29:56.364
185, -3884.14, -4379.28, -4096.80, -3448.43, 0.000, 0.000, 0.000, 17:29:56.365
186, -3700.54, -4187.51, -3917.42, -3264.28, 0.000, 0.000, 0.000, 17:29:56.365
187, -3807.57, -4317.11, -4056.54, -3433.07, 0.000, 0.000, 0.000, 17:29:56.380
188, -4006.31, -4505.41, -4241.41, -3617.39, 0.000, 0.000, 0.000, 17:29:56.380
189, -3860.28, -4340.26, -4074.77, -3436.52, 0.000, 0.000, 0.000, 17:29:56.394
190, -3698.63, -4171.14, -3914.84, -3267.19, 0.000, 0.000, 0.000, 17:29:56.394
191, -3816.90, -4303.31, -4058.74, -3432.28, 0.000, 0.000, 0.000, 17:29:56.395
192, -4030.73, -4537.37, -4264.45, -3631.17, 0.000, 0.000, 0.000, 17:29:56.395
193, -3886.43, -4366.38, -4096.07, -3462.11, 0.000, 0.000, 0.000, 17:29:56.409
194, -3675.23, -4140.99, -3895.29, -3274.36, 0.000, 0.000, 0.000, 17:29:56.409
195, -3814.59, -4301.70, -4054.51, -3441.19, 0.000, 0.000, 0.000, 17:29:56.424
196, -4033.68, -4541.64, -4253.95, -3636.86, 0.000, 0.000, 0.000, 17:29:56.424
197, -3874.57, -4358.92, -4089.19, -3449.92, 0.000, 0.000, 0.000, 17:29:56.425
198, -3697.95, -4177.73, -3920.18, -3279.65, 0.000, 0.000, 0.000, 17:29:56.425
199, -3809.13, -4322.17, -4057.97, -3423.88, 0.000, 0.000, 0.000, 17:29:56.454
200, -4025.73, -4509.74, -4264.22, -3622.70, 0.000, 0.000, 0.000, 17:29:56.454
0, -3871.44, -4351.56, -4082.79, -3437.32, 0.000, 0.000, 0.000, 17:29:56.455
1, -3693.90, -4173.97, -3903.40, -3275.97, 0.000, 0.000, 0.000, 17:29:56.455
2, -3800.75, -4313.22, -4047.71, -3422.60, 0.000, 0.000, 0.000, 17:29:56.455
3, -4010.81, -4521.24, -4248.95, -3613.92, 0.000, 0.000, 0.000, 17:29:56.463
4, -3857.10, -4340.48, -4068.45, -3427.41, 0.000, 0.000, 0.000, 17:29:56.463
5, -3676.67, -4139.52, -3891.89, -3242.79, 0.000, 0.000, 0.000, 17:29:56.485
6, -3809.65, -4318.38, -4056.35, -3427.38, 0.000, 0.000, 0.000, 17:29:56.485
7, -4022.14, -4540.89, -4264.08, -3627.94, 0.000, 0.000, 0.000, 17:29:56.485
8, -3872.46, -4339.07, -4078.07, -3432.18, 0.000, 0.000, 0.000, 17:29:56.485
9, -3690.10, -4141.99, -3888.04, -3266.29, 0.000, 0.000, 0.000, 17:29:56.499
10, -3817.35, -4323.59, -4066.74, -3429.89, 0.000, 0.000, 0.000, 17:29:56.499
11, -4039.31, -4549.12, -4272.96, -3624.16, 0.000, 0.000, 0.000, 17:29:56.501
12, -3878.44, -4377.73, -4094.60, -3441.15, 0.000, 0.000, 0.000, 17:29:56.501
13, -3687.72, -4152.55, -3891.02, -3261.84, 0.000, 0.000, 0.000, 17:29:56.514
14, -3816.95, -4316.14, -4053.04, -3434.14, 0.000, 0.000, 0.000, 17:29:56.514
15, -4042.53, -4559.68, -4268.01, -3635.45, 0.000, 0.000, 0.000, 17:29:56.529
16, -3881.44, -4380.05, -4084.92, -3453.53, 0.000, 0.000, 0.000, 17:29:56.529
17, -3692.69, -4167.92, -3910.44, -3276.31, 0.000, 0.000, 0.000, 17:29:56.530
18, -3828.19, -4339.29, -4070.88, -3448.36, 0.000, 0.000, 0.000, 17:29:56.530
19, -4021.12, -4517.11, -4253.67, -3623.59, 0.000, 0.000, 0.000, 17:29:56.544
20, -3865.55, -4342.21, -4083.73, -3446.18, 0.000, 0.000, 0.000, 17:29:56.544
21, -3687.11, -4168.67, -3903.74, -3270.01, 0.000, 0.000, 0.000, 17:29:56.559
22, -3827.70, -4354.02, -4091.16, -3445.70, 0.000, 0.000, 0.000, 17:29:56.559
23, -4026.43, -4553.10, -4285.48, -3623.83, 0.000, 0.000, 0.000, 17:29:56.560
24, -3852.55, -4339.48, -4081.58, -3424.97, 0.000, 0.000, 0.000, 17:29:56.560
25, -3677.27, -4154.52, -3899.27, -3262.44, 0.000, 0.000, 0.000, 17:29:56.574
26, -3815.04, -4335.16, -4067.58, -3446.93, 0.000, 0.000, 0.000, 17:29:56.574
27, -4017.79, -4541.71, -4266.12, -3628.01, 0.000, 0.000, 0.000, 17:29:56.589
28, -3863.05, -4363.09, -4083.07, -3442.89, 0.000, 0.000, 0.000, 17:29:56.589
29, -3704.50, -4174.75, -3910.28, -3267.53, 0.000, 0.000, 0.000, 17:29:56.589
30, -3829.60, -4346.46, -4077.11, -3445.26, 0.000, 0.000, 0.000, 17:29:56.589
31, -4013.95, -4527.12, -4247.86, -3623.66, 0.000, 0.000, 0.000, 17:29:56.604
32, -3870.28, -4357.91, -4081.83, -3433.06, 0.000, 0.000, 0.000, 17:29:56.605
33, -3699.20, -4170.46, -3906.86, -3272.71, 0.000, 0.000, 0.000, 17:29:56.621
34, -3825.65, -4340.97, -4079.57, -3441.42, 0.000, 0.000, 0.000, 17:29:56.621
35, -4031.92, -4553.27, -4269.54, -3614.31, 0.000, 0.000, 0.000, 17:29:56.622
36, -3868.84, -4373.66, -4083.94, -3439.90, 0.000, 0.000, 0.000, 17:29:56.622
37, -3685.37, -4170.52, -3890.78, -3284.70, 0.000, 0.000, 0.000, 17:29:56.635
38, -3828.24, -4346.26, -4080.63, -3469.36, 0.000, 0.000, 0.000, 17:29:56.635
39, -4038.71, -4563.92, -4285.30, -3650.87, 0.000, 0.000, 0.000, 17:29:56.650
40, -3884.20, -4383.42, -4117.58, -3464.38, 0.000, 0.000, 0.000, 17:29:56.650
41, -3710.78, -4198.58, -3930.89, -3292.31, 0.000, 0.000, 0.000, 17:29:56.650
42, -3880.27, -4405.05, -4134.13, -3490.77, 0.000, 0.000, 0.000, 17:29:56.650
43, -4054.87, -4583.28, -4293.78, -3667.73, 0.000, 0.000, 0.000, 17:29:56.665
44, -3901.55, -4387.25, -4111.16, -3461.52, 0.000, 0.000, 0.000, 17:29:56.665
45, -3719.19, -4196.84, -3939.63, -3298.45, 0.000, 0.000, 0.000, 17:29:56.680
46, -3857.38, -4377.25, -4109.07, -3474.78, 0.000, 0.000, 0.000, 17:29:56.680
47, -4051.11, -4567.10, -4294.40, -3651.75, 0.000, 0.000, 0.000, 17:29:56.680
48, -3894.53, -4390.03, -4111.34, -3468.12, 0.000, 0.000, 0.000, 17:29:56.680
49, -3720.18, -4204.77, -3930.72, -3295.21, 0.000, 0.000, 0.000, 17:29:56.695
50, -3844.06, -4373.94, -4101.16, -3469.69, 0.000, 0.000, 0.000, 17:29:56.695
51, -4048.12, -4565.36, -4302.38, -3646.05, 0.000, 0.000, 0.000, 17:29:56.709
52, -3880.46, -4368.86, -4096.19, -3451.91, 0.000, 0.000, 0.000, 17:29:56.709
53, -3703.14, -4189.22, -3913.76, -3302.35, 0.000, 0.000, 0.000, 17:29:56.710
54, -3846.17, -4362.46, -4104.34, -3479.47, 0.000, 0.000, 0.000, 17:29:56.710
55, -4049.24, -4577.45, -4299.95, -3641.16, 0.000, 0.000, 0.000, 17:29:56.724
56, -3890.25, -4373.89, -4118.83, -3446.82, 0.000, 0.000, 0.000, 17:29:56.724
57, -3705.57, -4180.96, -3929.49, -3283.72, 0.000, 0.000, 0.000, 17:29:56.754
58, -3846.10, -4345.62, -4094.96, -3471.00, 0.000, 0.000, 0.000, 17:29:56.754
59, -4046.17, -4568.00, -4290.72, -3637.51, 0.000, 0.000, 0.000, 17:29:56.754
60, -3890.20, -4377.69, -4102.96, -3455.56, 0.000, 0.000, 0.000, 17:29:56.754
61, -3703.63, -4171.77, -3917.17, -3278.54, 0.000, 0.000, 0.000, 17:29:56.755
62, -3854.12, -4382.88, -4101.16, -3465.20, 0.000, 0.000, 0.000, 17:29:56.755
63, -4040.26, -4560.98, -4281.85, -3638.26, 0.000, 0.000, 0.000, 17:29:56.769
64, -3877.68, -4376.10, -4092.27, -3449.39, 0.000, 0.000, 0.000, 17:29:56.769
65, -3706.69, -4191.21, -3921.28, -3277.08, 0.000, 0.000, 0.000, 17:29:56.769
66, -3857.48, -4371.72, -4103.20, -3473.80, 0.000, 0.000, 0.000, 17:29:56.769
67, -4034.59, -4561.47, -4266.09, -3633.15, 0.000, 0.000, 0.000, 17:29:56.784
68, -3878.89, -4361.35, -4091.67, -3445.54, 0.000, 0.000, 0.000, 17:29:56.784
69, -3691.36, -4157.93, -3902.32, -3281.32, 0.000, 0.000, 0.000, 17:29:56.799
70, -3847.15, -4360.88, -4096.41, -3476.31, 0.000, 0.000, 0.000, 17:29:56.799
71, -4031.73, -4554.98, -4265.89, -3640.23, 0.000, 0.000, 0.000, 17:29:56.800
72, -3866.28, -4368.43, -4084.58, -3440.32, 0.000, 0.000, 0.000, 17:29:56.800
73, -3698.40, -4176.12, -3905.46, -3277.12, 0.000, 0.000, 0.000, 17:29:56.814
74, -3846.55, -4368.09, -4094.60, -3464.94, 0.000, 0.000, 0.000, 17:29:56.814
75, -4039.21, -4574.08, -4274.17, -3627.11, 0.000, 0.000, 0.000, 17:29:56.830
76, -3858.00, -4360.60, -4078.97, -3436.83, 0.000, 0.000, 0.000, 17:29:56.830
77, -3690.24, -4170.11, -3902.93, -3274.82, 0.000, 0.000, 0.000, 17:29:56.831
78, -3856.03, -4383.66, -4116.16, -3459.12, 0.000, 0.000, 0.000, 17:29:56.831
79, -4046.23, -4568.99, -4286.35, -3631.28, 0.000, 0.000, 0.000, 17:29:56.845
80, -3863.70, -4336.48, -4075.47, -3428.16, 0.000, 0.000, 0.000, 17:29:56.845
81, -3696.35, -4153.36, -3902.81, -3271.29, 0.000, 0.000, 0.000, 17:29:56.860
82, -3838.44, -4353.25, -4088.04, -3472.58, 0.000, 0.000, 0.000, 17:29:56.860
83, -4030.61, -4549.81, -4267.75, -3621.50, 0.000, 0.000, 0.000, 17:29:56.861
84, -3870.30, -4363.23, -4093.31, -3438.56, 0.000, 0.000, 0.000, 17:29:56.861
85, -3695.24, -4168.69, -3917.27, -3283.27, 0.000, 0.000, 0.000, 17:29:56.874
86, -3858.74, -4370.16, -4093.39, -3481.00, 0.000, 0.000, 0.000, 17:29:56.874
87, -4019.95, -4534.03, -4264.69, -3608.47, 0.000, 0.000, 0.000, 17:29:56.889
88, -3863.50, -4371.16, -4084.78, -3421.14, 0.000, 0.000, 0.000, 17:29:56.889
89, -3687.88, -4163.54, -3905.07, -3264.01, 0.000, 0.000, 0.000, 17:29:56.889
90, -3851.89, -4365.60, -4094.78, -3471.06, 0.000, 0.000, 0.000, 17:29:56.889
91, -4044.22, -4560.89, -4263.42, -3626.61, 0.000, 0.000, 0.000, 17:29:56.904
92, -3862.70, -4341.21, -4082.67, -3415.58, 0.000, 0.000, 0.000, 17:29:56.904
93, -3681.39, -4152.05, -3896.47, -3251.23, 0.000, 0.000, 0.000, 17:29:56.920
94, -3846.79, -4378.88, -4116.79, -3471.32, 0.000, 0.000, 0.000, 17:29:56.920
95, -4031.60, -4566.00, -4292.18, -3627.51, 0.000, 0.000, 0.000, 17:29:56.921
96, -3867.98, -4363.28, -4087.07, -3428.97, 0.000, 0.000, 0.000, 17:29:56.921
97, -3695.07, -4168.72, -3915.41, -3267.82, 0.000, 0.000, 0.000, 17:29:56.934
98, -3854.38, -4368.05, -4103.84, -3482.51, 0.000, 0.000, 0.000, 17:29:56.934
99, -4034.85, -4533.17, -4267.50, -3633.00, 0.000, 0.000, 0.000, 17:29:56.949
100, -3871.96, -4358.77, -4085.22, -3431.05, 0.000, 0.000, 0.000, 17:29:56.950
