%OpenBCI Raw EEG Data
%
%Sample Rate = 200.0 Hz
%First Column = SampleIndex
%Last Column = Timestamp 
%Other Columns = EEG data in microvolts followed by Accel Data (in G) interleaved with Aux Data
0, -4417.02, -4957.73, -4884.86, -4146.28, 0.000, 0.000, 0.000, 17:36:20.805
1, -4279.22, -4786.21, -4728.70, -3974.01, 0.000, 0.000, 0.000, 17:36:20.834
2, -4019.39, -4513.63, -4469.78, -3728.48, 0.000, 0.000, 0.000, 17:36:20.834
3, -4073.40, -4608.74, -4550.74, -3802.66, 0.000, 0.000, 0.000, 17:36:20.835
4, -4402.00, -4944.35, -4874.29, -4125.78, 0.000, 0.000, 0.000, 17:36:20.835
5, -4246.31, -4766.38, -4695.15, -3959.29, 0.000, 0.000, 0.000, 17:36:20.836
6, -3995.13, -4493.52, -4449.84, -3706.78, 0.000, 0.000, 0.000, 17:36:20.836
7, -4017.41, -4549.83, -4501.93, -3769.13, 0.000, 0.000, 0.000, 17:36:20.850
8, -4352.04, -4903.81, -4822.99, -4098.12, 0.000, 0.000, 0.000, 17:36:20.850
9, -4217.90, -4727.96, -4675.21, -3935.61, 0.000, 0.000, 0.000, 17:36:20.864
10, -3956.36, -4466.33, -4417.79, -3687.33, 0.000, 0.000, 0.000, 17:36:20.864
11, -4004.40, -4539.85, -4493.01, -3755.89, 0.000, 0.000, 0.000, 17:36:20.880
12, -4359.87, -4905.07, -4845.75, -4099.22, 0.000, 0.000, 0.000, 17:36:20.880
13, -4217.32, -4734.64, -4673.44, -3933.58, 0.000, 0.000, 0.000, 17:36:20.880
14, -3960.21, -4457.47, -4421.64, -3677.46, 0.000, 0.000, 0.000, 17:36:20.880
15, -3993.55, -4536.03, -4479.60, -3741.18, 0.000, 0.000, 0.000, 17:36:20.895
16, -4346.25, -4905.73, -4818.39, -4089.46, 0.000, 0.000, 0.000, 17:36:20.895
17, -4201.04, -4741.80, -4674.88, -3918.21, 0.000, 0.000, 0.000, 17:36:20.895
18, -3955.51, -4457.09, -4422.30, -3673.30, 0.000, 0.000, 0.000, 17:36:20.896
19, -3980.77, -4511.49, -4454.21, -3724.24, 0.000, 0.000, 0.000, 17:36:20.909
20, -4316.91, -4869.43, -4797.66, -4075.35, 0.000, 0.000, 0.000, 17:36:20.909
21, -4203.78, -4727.23, -4659.79, -3929.39, 0.000, 0.000, 0.000, 17:36:20.924
22, -3948.13, -4446.25, -4396.69, -3674.45, 0.000, 0.000, 0.000, 17:36:20.924
23, -3965.14, -4490.09, -4455.61, -3719.20, 0.000, 0.000, 0.000, 17:36:20.925
24, -4311.30, -4866.58, -4793.34, -4067.76, 0.000, 0.000, 0.000, 17:36:20.925
25, -4194.63, -4712.27, -4642.20, -3921.05, 0.000, 0.000, 0.000, 17:36:20.939
26, -3948.85, -4457.79, -4403.63, -3665.68, 0.000, 0.000, 0.000, 17:36:20.939
27, -3969.02, -4492.49, -4448.96, -3715.26, 0.000, 0.000, 0.000, 17:36:20.969
28, -4301.77, -4861.73, -4792.00, -4060.27, 0.000, 0.000, 0.000, 17:36:20.969
29, -4178.20, -4733.37, -4642.93, -3903.12, 0.000, 0.000, 0.000, 17:36:20.970
30, -3939.45, -4462.05, -4405.14, -3658.91, 0.000, 0.000, 0.000, 17:36:20.970
31, -3944.29, -4557.29, -4431.60, -3700.17, 0.000, 0.000, 0.000, 17:36:20.970
32, -4294.81, -4885.77, -4802.79, -4078.52, 0.000, 0.000, 0.000, 17:36:20.970
33, -4159.72, -4763.93, -4656.95, -3925.49, 0.000, 0.000, 0.000, 17:36:20.971
34, -3910.84, -4504.34, -4404.77, -3668.57, 0.000, 0.000, 0.000, 17:36:20.971
35, -3907.28, -4532.23, -4447.67, -3711.34, 0.000, 0.000, 0.000, 17:36:20.983
36, -4238.22, -4905.97, -4775.44, -4062.94, 0.000, 0.000, 0.000, 17:36:20.985
37, -4085.43, -4773.69, -4625.78, -3901.51, 0.000, 0.000, 0.000, 17:36:21.000
38, -3817.16, -4496.91, -4380.01, -3654.07, 0.000, 0.000, 0.000, 17:36:21.000
39, -3805.78, -4556.68, -4420.91, -3697.69, 0.000, 0.000, 0.000, 17:36:21.014
40, -4154.18, -4954.89, -4762.08, -4053.70, 0.000, 0.000, 0.000, 17:36:21.014
41, -4028.90, -4804.35, -4620.35, -3920.68, 0.000, 0.000, 0.000, 17:36:21.029
42, -3772.57, -4538.91, -4366.97, -3661.34, 0.000, 0.000, 0.000, 17:36:21.030
43, -3776.32, -4553.43, -4397.46, -3694.78, 0.000, 0.000, 0.000, 17:36:21.030
44, -4152.65, -4934.34, -4755.77, -4046.06, 0.000, 0.000, 0.000, 17:36:21.030
45, -4057.48, -4797.75, -4622.86, -3906.31, 0.000, 0.000, 0.000, 17:36:21.045
46, -3815.12, -4527.57, -4388.60, -3668.38, 0.000, 0.000, 0.000, 17:36:21.045
47, -3842.00, -4539.66, -4418.21, -3691.87, 0.000, 0.000, 0.000, 17:36:21.045
48, -4224.54, -4897.73, -4774.57, -4067.38, 0.000, 0.000, 0.000, 17:36:21.045
49, -4141.66, -4742.06, -4641.31, -3931.57, 0.000, 0.000, 0.000, 17:36:21.059
50, -3908.78, -4486.25, -4409.72, -3688.43, 0.000, 0.000, 0.000, 17:36:21.059
51, -3946.87, -4496.70, -4440.01, -3712.72, 0.000, 0.000, 0.000, 17:36:21.074
52, -4317.64, -4891.26, -4799.06, -4071.59, 0.000, 0.000, 0.000, 17:36:21.074
53, -4189.68, -4730.46, -4658.20, -3931.02, 0.000, 0.000, 0.000, 17:36:21.075
54, -3956.17, -4448.62, -4416.54, -3686.32, 0.000, 0.000, 0.000, 17:36:21.075
55, -3956.85, -4466.53, -4432.86, -3707.95, 0.000, 0.000, 0.000, 17:36:21.089
56, -4318.91, -4839.38, -4779.50, -4057.29, 0.000, 0.000, 0.000, 17:36:21.089
57, -4211.80, -4708.62, -4663.04, -3924.64, 0.000, 0.000, 0.000, 17:36:21.119
58, -3973.75, -4459.85, -4435.76, -3688.48, 0.000, 0.000, 0.000, 17:36:21.119
59, -3971.94, -4461.40, -4444.26, -3704.01, 0.000, 0.000, 0.000, 17:36:21.119
60, -4328.15, -4835.33, -4784.75, -4048.15, 0.000, 0.000, 0.000, 17:36:21.119
61, -4219.12, -4692.61, -4656.06, -3910.41, 0.000, 0.000, 0.000, 17:36:21.120
62, -3967.97, -4446.97, -4423.73, -3672.60, 0.000, 0.000, 0.000, 17:36:21.120
63, -3966.53, -4454.96, -4431.38, -3685.43, 0.000, 0.000, 0.000, 17:36:21.121
64, -4333.12, -4848.85, -4797.85, -4059.64, 0.000, 0.000, 0.000, 17:36:21.121
65, -4221.27, -4699.21, -4658.76, -3924.48, 0.000, 0.000, 0.000, 17:36:21.133
66, -3973.60, -4448.83, -4427.89, -3687.85, 0.000, 0.000, 0.000, 17:36:21.134
67, -3963.64, -4471.70, -4435.51, -3701.04, 0.000, 0.000, 0.000, 17:36:21.150
68, -4316.19, -4841.88, -4797.81, -4062.15, 0.000, 0.000, 0.000, 17:36:21.150
69, -4218.87, -4707.84, -4670.41, -3933.95, 0.000, 0.000, 0.000, 17:36:21.164
70, -3970.90, -4451.64, -4408.16, -3688.91, 0.000, 0.000, 0.000, 17:36:21.164
71, -3971.14, -4447.73, -4417.97, -3688.84, 0.000, 0.000, 0.000, 17:36:21.165
72, -4337.16, -4844.35, -4790.00, -4060.59, 0.000, 0.000, 0.000, 17:36:21.165
73, -4227.72, -4722.73, -4673.44, -3934.99, 0.000, 0.000, 0.000, 17:36:21.180
74, -3987.57, -4455.62, -4424.62, -3690.77, 0.000, 0.000, 0.000, 17:36:21.180
75, -3962.27, -4432.30, -4402.71, -3680.87, 0.000, 0.000, 0.000, 17:36:21.194
76, -4342.98, -4820.48, -4791.08, -4051.23, 0.000, 0.000, 0.000, 17:36:21.194
77, -4255.57, -4717.20, -4680.52, -3941.65, 0.000, 0.000, 0.000, 17:36:21.195
78, -4031.24, -4460.22, -4451.22, -3697.11, 0.000, 0.000, 0.000, 17:36:21.195
79, -3997.73, -4439.84, -4425.92, -3697.29, 0.000, 0.000, 0.000, 17:36:21.209
80, -4351.78, -4812.52, -4787.92, -4053.64, 0.000, 0.000, 0.000, 17:36:21.209
81, -4275.54, -4696.52, -4672.26, -3928.40, 0.000, 0.000, 0.000, 17:36:21.224
82, -4026.90, -4442.89, -4432.81, -3699.84, 0.000, 0.000, 0.000, 17:36:21.224
83, -4008.21, -4421.93, -4425.97, -3694.20, 0.000, 0.000, 0.000, 17:36:21.225
84, -4357.93, -4802.39, -4783.98, -4048.45, 0.000, 0.000, 0.000, 17:36:21.225
85, -4263.69, -4684.25, -4671.79, -3935.79, 0.000, 0.000, 0.000, 17:36:21.239
86, -4036.34, -4438.54, -4433.26, -3691.08, 0.000, 0.000, 0.000, 17:36:21.239
87, -3994.44, -4421.90, -4420.90, -3681.57, 0.000, 0.000, 0.000, 17:36:21.253
88, -4360.41, -4809.81, -4785.81, -4053.07, 0.000, 0.000, 0.000, 17:36:21.254
89, -4283.65, -4697.71, -4679.17, -3939.58, 0.000, 0.000, 0.000, 17:36:21.254
90, -4014.92, -4423.04, -4421.33, -3692.89, 0.000, 0.000, 0.000, 17:36:21.254
91, -3973.88, -4403.11, -4413.08, -3677.49, 0.000, 0.000, 0.000, 17:36:21.300
92, -4341.32, -4816.68, -4782.54, -4050.60, 0.000, 0.000, 0.000, 17:36:21.300
93, -4262.48, -4710.03, -4697.79, -3948.83, 0.000, 0.000, 0.000, 17:36:21.300
94, -4022.70, -4465.12, -4436.54, -3700.32, 0.000, 0.000, 0.000, 17:36:21.300
95, -3971.08, -4419.51, -4406.33, -3674.18, 0.000, 0.000, 0.000, 17:36:21.300
96, -4339.74, -4820.88, -4789.99, -4047.39, 0.000, 0.000, 0.000, 17:36:21.300
97, -4251.33, -4715.69, -4680.18, -3939.08, 0.000, 0.000, 0.000, 17:36:21.301
98, -4029.48, -4466.85, -4439.18, -3710.20, 0.000, 0.000, 0.000, 17:36:21.301
99, -3972.46, -4428.18, -4417.95, -3673.89, 0.000, 0.000, 0.000, 17:36:21.308
100, -4322.46, -4816.55, -4772.17, -4048.12, 0.000, 0.000, 0.000, 17:36:21.308
101, -4244.48, -4719.00, -4672.45, -3953.80, 0.000, 0.000, 0.000, 17:36:21.314
102, -4014.65, -4477.90, -4442.03, -3710.55, 0.000, 0.000, 0.000, 17:36:21.314
103, -3951.27, -4434.26, -4400.83, -3665.26, 0.000, 0.000, 0.000, 17:36:21.330
104, -4315.92, -4842.19, -4782.29, -4045.83, 0.000, 0.000, 0.000, 17:36:21.331
105, -4264.33, -4742.97, -4696.10, -3959.71, 0.000, 0.000, 0.000, 17:36:21.344
106, -4012.16, -4471.66, -4454.59, -3712.12, 0.000, 0.000, 0.000, 17:36:21.344
107, -3943.75, -4419.12, -4412.42, -3665.44, 0.000, 0.000, 0.000, 17:36:21.345
108, -4333.94, -4839.71, -4784.79, -4053.32, 0.000, 0.000, 0.000, 17:36:21.345
109, -4237.78, -4726.50, -4681.16, -3954.83, 0.000, 0.000, 0.000, 17:36:21.374
110, -4007.47, -4470.20, -4435.94, -3711.81, 0.000, 0.000, 0.000, 17:36:21.374
111, -3938.02, -4430.42, -4406.45, -3663.48, 0.000, 0.000, 0.000, 17:36:21.374
112, -4317.19, -4839.39, -4774.39, -4043.87, 0.000, 0.000, 0.000, 17:36:21.375
113, -4239.66, -4741.66, -4685.54, -3955.37, 0.000, 0.000, 0.000, 17:36:21.375
114, -4008.24, -4499.54, -4457.15, -3712.90, 0.000, 0.000, 0.000, 17:36:21.375
115, -3952.49, -4455.74, -4415.02, -3682.16, 0.000, 0.000, 0.000, 17:36:21.389
116, -4316.84, -4854.63, -4787.84, -4052.35, 0.000, 0.000, 0.000, 17:36:21.389
117, -4232.75, -4742.48, -4677.63, -3944.96, 0.000, 0.000, 0.000, 17:36:21.404
118, -4002.79, -4483.26, -4438.35, -3703.67, 0.000, 0.000, 0.000, 17:36:21.404
119, -3941.73, -4432.64, -4401.19, -3667.44, 0.000, 0.000, 0.000, 17:36:21.405
120, -4292.30, -4832.22, -4765.54, -4047.38, 0.000, 0.000, 0.000, 17:36:21.405
121, -4218.91, -4729.69, -4678.79, -3956.32, 0.000, 0.000, 0.000, 17:36:21.419
122, -3982.71, -4481.23, -4431.88, -3711.22, 0.000, 0.000, 0.000, 17:36:21.419
123, -3901.92, -4424.03, -4378.31, -3664.54, 0.000, 0.000, 0.000, 17:36:21.434
124, -4284.46, -4818.29, -4755.98, -4042.01, 0.000, 0.000, 0.000, 17:36:21.434
125, -4235.13, -4743.17, -4682.71, -3951.80, 0.000, 0.000, 0.000, 17:36:21.435
126, -3985.59, -4494.69, -4445.05, -3717.20, 0.000, 0.000, 0.000, 17:36:21.435
127, -3912.58, -4435.06, -4386.42, -3654.45, 0.000, 0.000, 0.000, 17:36:21.450
128, -4283.89, -4828.14, -4759.51, -4038.33, 0.000, 0.000, 0.000, 17:36:21.450
129, -4223.30, -4763.57, -4671.73, -3958.51, 0.000, 0.000, 0.000, 17:36:21.464
130, -3991.95, -4508.79, -4457.81, -3716.03, 0.000, 0.000, 0.000, 17:36:21.464
131, -3892.26, -4440.18, -4389.48, -3633.14, 0.000, 0.000, 0.000, 17:36:21.465
132, -4249.58, -4886.76, -4758.89, -4021.48, 0.000, 0.000, 0.000, 17:36:21.465
133, -4196.96, -4798.15, -4703.65, -3959.94, 0.000, 0.000, 0.000, 17:36:21.479
134, -3928.84, -4563.36, -4462.76, -3701.04, 0.000, 0.000, 0.000, 17:36:21.479
135, -3820.31, -4521.63, -4380.57, -3609.61, 0.000, 0.000, 0.000, 17:36:21.494
136, -4163.09, -4879.07, -4774.26, -4012.11, 0.000, 0.000, 0.000, 17:36:21.494
137, -4097.17, -4861.76, -4711.56, -3944.73, 0.000, 0.000, 0.000, 17:36:21.495
138, -3821.53, -4612.98, -4449.80, -3675.56, 0.000, 0.000, 0.000, 17:36:21.495
139, -3724.73, -4557.36, -4379.15, -3597.57, 0.000, 0.000, 0.000, 17:36:21.524
140, -4084.74, -4946.06, -4755.77, -3976.26, 0.000, 0.000, 0.000, 17:36:21.524
141, -4063.61, -4896.79, -4701.20, -3918.01, 0.000, 0.000, 0.000, 17:36:21.525
142, -3827.16, -4637.86, -4467.83, -3669.47, 0.000, 0.000, 0.000, 17:36:21.525
143, -3737.86, -4549.29, -4381.52, -3585.50, 0.000, 0.000, 0.000, 17:36:21.526
144, -4137.62, -4955.93, -4769.38, -3985.70, 0.000, 0.000, 0.000, 17:36:21.526
145, -4120.15, -4881.84, -4716.52, -3907.02, 0.000, 0.000, 0.000, 17:36:21.568
146, -3909.24, -4608.80, -4479.78, -3667.41, 0.000, 0.000, 0.000, 17:36:21.569
147, -3823.95, -4524.32, -4415.29, -3593.46, 0.000, 0.000, 0.000, 17:36:21.569
148, -4229.68, -4924.23, -4801.41, -3980.93, 0.000, 0.000, 0.000, 17:36:21.569
149, -4197.60, -4835.75, -4734.11, -3921.20, 0.000, 0.000, 0.000, 17:36:21.570
150, -3974.03, -4582.91, -4504.69, -3686.17, 0.000, 0.000, 0.000, 17:36:21.571
151, -3884.73, -4470.34, -4419.80, -3598.51, 0.000, 0.000, 0.000, 17:36:21.571
152, -4270.29, -4871.65, -4814.13, -3996.07, 0.000, 0.000, 0.000, 17:36:21.571
153, -4236.07, -4796.40, -4745.89, -3935.89, 0.000, 0.000, 0.000, 17:36:21.572
154, -4023.54, -4534.33, -4506.30, -3705.06, 0.000, 0.000, 0.000, 17:36:21.572
155, -3917.91, -4433.32, -4419.04, -3623.75, 0.000, 0.000, 0.000, 17:36:21.584
156, -4295.79, -4821.42, -4797.74, -4003.63, 0.000, 0.000, 0.000, 17:36:21.584
157, -4272.33, -4754.09, -4737.08, -3945.77, 0.000, 0.000, 0.000, 17:36:21.599
158, -4053.54, -4503.23, -4508.44, -3709.42, 0.000, 0.000, 0.000, 17:36:21.600
159, -3956.00, -4414.39, -4418.14, -3633.77, 0.000, 0.000, 0.000, 17:36:21.615
160, -4337.21, -4813.72, -4795.54, -4025.86, 0.000, 0.000, 0.000, 17:36:21.615
161, -4322.67, -4772.74, -4752.26, -3976.14, 0.000, 0.000, 0.000, 17:36:21.615
162, -4089.74, -4520.35, -4515.26, -3746.73, 0.000, 0.000, 0.000, 17:36:21.615
163, -3970.95, -4407.96, -4420.27, -3645.56, 0.000, 0.000, 0.000, 17:36:21.636
164, -4331.59, -4782.85, -4774.19, -4017.39, 0.000, 0.000, 0.000, 17:36:21.636
165, -4295.99, -4716.56, -4712.47, -3961.12, 0.000, 0.000, 0.000, 17:36:21.644
166, -4079.56, -4475.83, -4485.94, -3729.46, 0.000, 0.000, 0.000, 17:36:21.645
167, -3967.09, -4382.09, -4381.36, -3644.06, 0.000, 0.000, 0.000, 17:36:21.645
168, -4327.03, -4770.65, -4750.14, -4014.14, 0.000, 0.000, 0.000, 17:36:21.645
169, -4295.47, -4720.00, -4706.21, -3975.38, 0.000, 0.000, 0.000, 17:36:21.659
170, -4064.91, -4470.31, -4478.51, -3744.85, 0.000, 0.000, 0.000, 17:36:21.659
171, -3966.00, -4388.46, -4386.35, -3656.46, 0.000, 0.000, 0.000, 17:36:21.674
172, -4308.48, -4778.92, -4756.14, -4040.56, 0.000, 0.000, 0.000, 17:36:21.674
173, -4306.62, -4736.07, -4713.14, -3983.91, 0.000, 0.000, 0.000, 17:36:21.675
174, -4053.97, -4483.20, -4477.98, -3740.22, 0.000, 0.000, 0.000, 17:36:21.675
175, -3936.36, -4377.08, -4374.01, -3635.85, 0.000, 0.000, 0.000, 17:36:21.689
176, -4315.60, -4775.72, -4757.75, -4021.09, 0.000, 0.000, 0.000, 17:36:21.690
177, -4296.20, -4748.32, -4715.11, -3974.25, 0.000, 0.000, 0.000, 17:36:21.704
178, -4073.25, -4502.82, -4486.85, -3747.65, 0.000, 0.000, 0.000, 17:36:21.704
179, -3921.92, -4384.45, -4377.07, -3640.06, 0.000, 0.000, 0.000, 17:36:21.705
180, -4297.05, -4790.12, -4752.81, -4022.75, 0.000, 0.000, 0.000, 17:36:21.705
181, -4290.60, -4763.94, -4712.51, -3988.88, 0.000, 0.000, 0.000, 17:36:21.719
182, -4062.50, -4525.45, -4489.34, -3759.29, 0.000, 0.000, 0.000, 17:36:21.719
183, -3927.60, -4415.38, -4374.37, -3649.07, 0.000, 0.000, 0.000, 17:36:21.734
184, -4294.48, -4807.68, -4749.50, -4028.44, 0.000, 0.000, 0.000, 17:36:21.734
185, -4278.15, -4770.27, -4721.44, -3978.90, 0.000, 0.000, 0.000, 17:36:21.735
186, -4044.92, -4533.71, -4493.22, -3743.57, 0.000, 0.000, 0.000, 17:36:21.735
187, -3910.94, -4406.15, -4381.56, -3637.34, 0.000, 0.000, 0.000, 17:36:21.750
188, -4292.06, -4800.54, -4755.13, -4015.37, 0.000, 0.000, 0.000, 17:36:21.750
189, -4304.73, -4808.88, -4739.47, -3992.48, 0.000, 0.000, 0.000, 17:36:21.764
190, -4077.36, -4555.52, -4514.12, -3765.64, 0.000, 0.000, 0.000, 17:36:21.764
191, -3914.71, -4410.26, -4381.70, -3637.69, 0.000, 0.000, 0.000, 17:36:21.764
192, -4246.26, -4792.33, -4725.91, -4011.77, 0.000, 0.000, 0.000, 17:36:21.764
193, -4277.38, -4779.44, -4711.55, -3996.12, 0.000, 0.000, 0.000, 17:36:21.780
194, -4034.04, -4535.82, -4479.35, -3768.27, 0.000, 0.000, 0.000, 17:36:21.780
195, -3898.48, -4406.69, -4348.78, -3647.64, 0.000, 0.000, 0.000, 17:36:21.794
196, -4262.72, -4798.47, -4721.72, -4032.12, 0.000, 0.000, 0.000, 17:36:21.794
197, -4262.65, -4763.49, -4691.44, -4008.21, 0.000, 0.000, 0.000, 17:36:21.795
198, -4023.56, -4513.33, -4455.43, -3769.95, 0.000, 0.000, 0.000, 17:36:21.795
199, -3891.95, -4397.88, -4338.00, -3643.13, 0.000, 0.000, 0.000, 17:36:21.809
200, -4247.84, -4784.10, -4704.73, -4026.83, 0.000, 0.000, 0.000, 17:36:21.809
0, -4249.42, -4763.11, -4696.28, -3999.98, 0.000, 0.000, 0.000, 17:36:21.810
1, -4028.46, -4535.03, -4467.90, -3774.58, 0.000, 0.000, 0.000, 17:36:21.839
2, -3889.03, -4403.38, -4348.96, -3645.95, 0.000, 0.000, 0.000, 17:36:21.839
3, -4253.13, -4786.75, -4718.37, -4025.04, 0.000, 0.000, 0.000, 17:36:21.840
4, -4265.40, -4781.16, -4708.15, -4005.29, 0.000, 0.000, 0.000, 17:36:21.840
5, -4048.75, -4535.67, -4490.05, -3772.28, 0.000, 0.000, 0.000, 17:36:21.854
6, -3898.48, -4400.96, -4352.27, -3641.98, 0.000, 0.000, 0.000, 17:36:21.854
7, -4241.74, -4780.81, -4707.33, -4002.07, 0.000, 0.000, 0.000, 17:36:21.854
8, -4263.59, -4774.88, -4711.61, -3992.94, 0.000, 0.000, 0.000, 17:36:21.854
9, -4039.81, -4532.04, -4476.52, -3767.73, 0.000, 0.000, 0.000, 17:36:21.884
10, -3897.55, -4408.81, -4363.47, -3643.37, 0.000, 0.000, 0.000, 17:36:21.884
11, -4261.07, -4805.74, -4731.50, -4012.31, 0.000, 0.000, 0.000, 17:36:21.885
12, -4274.12, -4791.95, -4740.74, -4004.52, 0.000, 0.000, 0.000, 17:36:21.885
13, -4021.41, -4532.25, -4478.97, -3757.98, 0.000, 0.000, 0.000, 17:36:21.885
14, -3884.74, -4388.47, -4349.37, -3618.29, 0.000, 0.000, 0.000, 17:36:21.885
15, -4247.28, -4789.93, -4727.03, -4005.17, 0.000, 0.000, 0.000, 17:36:21.886
16, -4265.58, -4782.20, -4714.26, -3992.17, 0.000, 0.000, 0.000, 17:36:21.886
17, -4023.28, -4529.33, -4478.55, -3753.97, 0.000, 0.000, 0.000, 17:36:21.900
18, -3876.36, -4384.73, -4346.70, -3621.22, 0.000, 0.000, 0.000, 17:36:21.900
19, -4225.71, -4783.50, -4710.99, -3982.05, 0.000, 0.000, 0.000, 17:36:21.914
20, -4272.02, -4775.51, -4724.77, -3983.21, 0.000, 0.000, 0.000, 17:36:21.914
21, -4041.12, -4546.13, -4495.25, -3765.02, 0.000, 0.000, 0.000, 17:36:21.930
22, -3911.25, -4423.65, -4374.63, -3630.59, 0.000, 0.000, 0.000, 17:36:21.930
23, -4252.41, -4795.75, -4728.29, -4006.17, 0.000, 0.000, 0.000, 17:36:21.930
24, -4233.90, -4756.66, -4693.18, -3986.42, 0.000, 0.000, 0.000, 17:36:21.931
25, -4022.96, -4516.11, -4460.68, -3772.54, 0.000, 0.000, 0.000, 17:36:21.944
26, -3865.21, -4373.23, -4334.58, -3632.91, 0.000, 0.000, 0.000, 17:36:21.944
27, -4212.98, -4759.12, -4676.04, -3996.66, 0.000, 0.000, 0.000, 17:36:21.959
28, -4247.39, -4761.97, -4684.63, -4004.36, 0.000, 0.000, 0.000, 17:36:21.959
29, -4033.03, -4525.36, -4461.00, -3784.32, 0.000, 0.000, 0.000, 17:36:21.960
30, -3888.56, -4385.99, -4323.22, -3647.24, 0.000, 0.000, 0.000, 17:36:21.960
31, -4219.59, -4767.35, -4684.95, -4007.34, 0.000, 0.000, 0.000, 17:36:21.974
32, -4268.40, -4792.76, -4710.52, -4020.26, 0.000, 0.000, 0.000, 17:36:21.974
33, -4038.48, -4549.35, -4466.96, -3784.25, 0.000, 0.000, 0.000, 17:36:21.989
34, -3872.72, -4384.29, -4329.41, -3629.19, 0.000, 0.000, 0.000, 17:36:21.989
35, -4222.93, -4770.33, -4690.02, -4004.31, 0.000, 0.000, 0.000, 17:36:21.989
36, -4260.71, -4775.86, -4712.23, -4013.07, 0.000, 0.000, 0.000, 17:36:21.989
37, -4043.17, -4541.72, -4484.81, -3776.24, 0.000, 0.000, 0.000, 17:36:22.034
38, -3879.97, -4389.27, -4336.82, -3611.52, 0.000, 0.000, 0.000, 17:36:22.034
39, -4229.65, -4778.49, -4705.18, -3983.65, 0.000, 0.000, 0.000, 17:36:22.034
40, -4269.74, -4787.34, -4716.44, -4001.09, 0.000, 0.000, 0.000, 17:36:22.034
41, -4045.82, -4554.68, -4496.47, -3774.52, 0.000, 0.000, 0.000, 17:36:22.035
42, -3877.33, -4403.45, -4344.91, -3619.67, 0.000, 0.000, 0.000, 17:36:22.035
43, -4226.14, -4770.34, -4706.31, -3979.75, 0.000, 0.000, 0.000, 17:36:22.036
44, -4277.38, -4808.51, -4733.62, -4005.54, 0.000, 0.000, 0.000, 17:36:22.036
45, -4054.12, -4568.99, -4508.02, -3777.87, 0.000, 0.000, 0.000, 17:36:22.036
46, -3876.16, -4387.30, -4348.62, -3621.75, 0.000, 0.000, 0.000, 17:36:22.037
47, -4215.44, -4763.50, -4695.20, -3971.65, 0.000, 0.000, 0.000, 17:36:22.049
48, -4285.06, -4801.75, -4721.55, -4002.45, 0.000, 0.000, 0.000, 17:36:22.049
49, -4049.90, -4554.68, -4499.53, -3772.26, 0.000, 0.000, 0.000, 17:36:22.065
50, -3880.44, -4395.06, -4343.58, -3621.64, 0.000, 0.000, 0.000, 17:36:22.065
51, -4219.23, -4765.65, -4702.10, -3971.93, 0.000, 0.000, 0.000, 17:36:22.080
52, -4256.18, -4787.10, -4721.98, -4003.95, 0.000, 0.000, 0.000, 17:36:22.080
53, -4040.24, -4563.05, -4503.30, -3768.73, 0.000, 0.000, 0.000, 17:36:22.080
54, -3862.70, -4386.87, -4345.44, -3605.06, 0.000, 0.000, 0.000, 17:36:22.081
55, -4193.20, -4748.92, -4687.92, -3959.33, 0.000, 0.000, 0.000, 17:36:22.094
56, -4271.84, -4793.02, -4728.23, -3989.63, 0.000, 0.000, 0.000, 17:36:22.094
57, -4045.87, -4562.07, -4510.24, -3770.01, 0.000, 0.000, 0.000, 17:36:22.109
58, -3871.76, -4386.73, -4351.32, -3614.10, 0.000, 0.000, 0.000, 17:36:22.109
59, -4217.95, -4756.52, -4697.88, -3970.65, 0.000, 0.000, 0.000, 17:36:22.117
60, -4277.36, -4801.58, -4745.28, -4014.07, 0.000, 0.000, 0.000, 17:36:22.117
61, -4056.25, -4553.38, -4493.81, -3774.30, 0.000, 0.000, 0.000, 17:36:22.124
62, -3856.21, -4381.56, -4335.88, -3602.25, 0.000, 0.000, 0.000, 17:36:22.124
63, -4204.32, -4751.51, -4684.56, -3959.32, 0.000, 0.000, 0.000, 17:36:22.139
64, -4281.88, -4813.37, -4747.98, -4016.97, 0.000, 0.000, 0.000, 17:36:22.139
65, -4057.56, -4575.63, -4519.45, -3783.07, 0.000, 0.000, 0.000, 17:36:22.140
66, -3871.71, -4401.75, -4346.02, -3610.36, 0.000, 0.000, 0.000, 17:36:22.140
67, -4190.05, -4740.53, -4682.06, -3952.78, 0.000, 0.000, 0.000, 17:36:22.154
68, -4263.64, -4788.87, -4715.66, -3993.99, 0.000, 0.000, 0.000, 17:36:22.154
69, -4045.73, -4556.88, -4497.16, -3770.19, 0.000, 0.000, 0.000, 17:36:22.169
70, -3866.09, -4380.92, -4339.04, -3606.25, 0.000, 0.000, 0.000, 17:36:22.169
71, -4186.46, -4733.28, -4677.94, -3944.62, 0.000, 0.000, 0.000, 17:36:22.169
72, -4277.36, -4806.51, -4743.49, -4007.24, 0.000, 0.000, 0.000, 17:36:22.169
73, -4069.56, -4579.16, -4524.10, -3784.30, 0.000, 0.000, 0.000, 17:36:22.184
74, -3874.66, -4388.29, -4343.04, -3617.10, 0.000, 0.000, 0.000, 17:36:22.185
75, -4181.66, -4732.00, -4680.64, -3951.60, 0.000, 0.000, 0.000, 17:36:22.200
76, -4275.80, -4806.86, -4740.53, -4005.43, 0.000, 0.000, 0.000, 17:36:22.200
77, -4064.33, -4572.20, -4513.02, -3781.20, 0.000, 0.000, 0.000, 17:36:22.200
78, -3868.19, -4377.88, -4342.07, -3606.45, 0.000, 0.000, 0.000, 17:36:22.200
79, -4193.44, -4746.89, -4683.96, -3956.55, 0.000, 0.000, 0.000, 17:36:22.214
80, -4273.49, -4802.50, -4748.41, -4013.56, 0.000, 0.000, 0.000, 17:36:22.214
81, -4078.59, -4578.91, -4517.22, -3790.61, 0.000, 0.000, 0.000, 17:36:22.230
82, -3872.28, -4390.35, -4349.79, -3610.17, 0.000, 0.000, 0.000, 17:36:22.230
83, -4202.21, -4737.20, -4676.95, -3939.33, 0.000, 0.000, 0.000, 17:36:22.230
84, -4298.73, -4822.51, -4753.31, -4012.53, 0.000, 0.000, 0.000, 17:36:22.230
85, -4071.30, -4580.72, -4527.87, -3788.02, 0.000, 0.000, 0.000, 17:36:22.245
86, -3872.68, -4382.19, -4340.54, -3608.79, 0.000, 0.000, 0.000, 17:36:22.245
87, -4192.36, -4721.23, -4680.11, -3952.48, 0.000, 0.000, 0.000, 17:36:22.259
88, -4295.48, -4818.86, -4759.33, -4026.01, 0.000, 0.000, 0.000, 17:36:22.259
89, -4087.41, -4578.84, -4522.37, -3795.12, 0.000, 0.000, 0.000, 17:36:22.259
90, -3890.06, -4360.78, -4349.52, -3606.00, 0.000, 0.000, 0.000, 17:36:22.260
91, -4197.91, -4688.08, -4665.98, -3927.48, 0.000, 0.000, 0.000, 17:36:22.274
92, -4297.28, -4747.85, -4732.31, -3998.21, 0.000, 0.000, 0.000, 17:36:22.274
93, -4105.00, -4501.58, -4514.49, -3786.48, 0.000, 0.000, 0.000, 17:36:22.304
94, -3924.74, -4308.09, -4332.32, -3605.65, 0.000, 0.000, 0.000, 17:36:22.304
95, -4229.34, -4622.19, -4644.66, -3926.81, 0.000, 0.000, 0.000, 17:36:22.305
96, -4353.58, -4736.83, -4752.52, -4015.79, 0.000, 0.000, 0.000, 17:36:22.305
97, -4135.77, -4497.80, -4524.13, -3788.83, 0.000, 0.000, 0.000, 17:36:22.305
98, -3952.69, -4311.85, -4351.24, -3623.20, 0.000, 0.000, 0.000, 17:36:22.305
99, -4234.97, -4635.71, -4654.74, -3930.17, 0.000, 0.000, 0.000, 17:36:22.306
100, -4337.19, -4725.76, -4736.05, -4014.37, 0.000, 0.000, 0.000, 17:36:22.306
101, -4135.62, -4512.38, -4526.73, -3798.48, 0.000, 0.000, 0.000, 17:36:22.319
102, -3931.00, -4328.14, -4361.07, -3613.76, 0.000, 0.000, 0.000, 17:36:22.319
103, -4202.18, -4661.52, -4655.57, -3929.18, 0.000, 0.000, 0.000, 17:36:22.334
104, -4319.20, -4766.42, -4744.42, -4018.52, 0.000, 0.000, 0.000, 17:36:22.334
105, -4108.33, -4543.79, -4533.13, -3796.02, 0.000, 0.000, 0.000, 17:36:22.350
106, -3901.17, -4338.47, -4339.66, -3608.30, 0.000, 0.000, 0.000, 17:36:22.350
107, -4196.32, -4682.06, -4667.37, -3934.97, 0.000, 0.000, 0.000, 17:36:22.350
108, -4326.42, -4793.43, -4759.53, -4028.53, 0.000, 0.000, 0.000, 17:36:22.350
109, -4098.71, -4550.36, -4528.62, -3788.41, 0.000, 0.000, 0.000, 17:36:22.364
110, -3892.19, -4356.86, -4340.54, -3608.24, 0.000, 0.000, 0.000, 17:36:22.364
111, -4185.73, -4694.20, -4653.78, -3929.26, 0.000, 0.000, 0.000, 17:36:22.395
112, -4312.34, -4808.60, -4764.84, -4031.08, 0.000, 0.000, 0.000, 17:36:22.395
113, -4115.95, -4591.72, -4550.72, -3816.73, 0.000, 0.000, 0.000, 17:36:22.396
114, -3912.65, -4399.00, -4367.31, -3633.73, 0.000, 0.000, 0.000, 17:36:22.396
115, -4185.78, -4718.62, -4668.74, -3937.51, 0.000, 0.000, 0.000, 17:36:22.396
116, -4320.59, -4824.59, -4764.71, -4038.02, 0.000, 0.000, 0.000, 17:36:22.396
117, -4076.52, -4579.60, -4534.61, -3804.56, 0.000, 0.000, 0.000, 17:36:22.397
118, -3884.59, -4378.36, -4341.84, -3612.76, 0.000, 0.000, 0.000, 17:36:22.397
119, -4153.73, -4689.98, -4637.14, -3916.21, 0.000, 0.000, 0.000, 17:36:22.409
120, -4280.48, -4812.02, -4744.32, -4013.18, 0.000, 0.000, 0.000, 17:36:22.409
121, -4072.59, -4574.89, -4537.34, -3805.04, 0.000, 0.000, 0.000, 17:36:22.424
122, -3885.28, -4378.87, -4347.66, -3608.79, 0.000, 0.000, 0.000, 17:36:22.424
123, -4156.60, -4692.80, -4638.87, -3915.64, 0.000, 0.000, 0.000, 17:36:22.439
124, -4291.88, -4813.65, -4749.56, -4021.52, 0.000, 0.000, 0.000, 17:36:22.439
125, -4075.63, -4587.56, -4550.02, -3811.70, 0.000, 0.000, 0.000, 17:36:22.439
126, -3883.10, -4396.44, -4362.49, -3613.61, 0.000, 0.000, 0.000, 17:36:22.439
127, -4152.56, -4705.79, -4646.47, -3912.78, 0.000, 0.000, 0.000, 17:36:22.454
128, -4285.83, -4822.35, -4756.68, -4020.49, 0.000, 0.000, 0.000, 17:36:22.454
129, -4093.20, -4595.24, -4544.74, -3802.85, 0.000, 0.000, 0.000, 17:36:22.469
130, -3884.81, -4379.56, -4354.20, -3614.16, 0.000, 0.000, 0.000, 17:36:22.469
131, -4154.76, -4695.12, -4638.34, -3910.17, 0.000, 0.000, 0.000, 17:36:22.484
132, -4271.70, -4825.93, -4740.67, -4023.25, 0.000, 0.000, 0.000, 17:36:22.484
133, -4081.55, -4584.63, -4531.80, -3809.67, 0.000, 0.000, 0.000, 17:36:22.484
134, -3872.39, -4388.92, -4343.71, -3604.20, 0.000, 0.000, 0.000, 17:36:22.484
135, -4138.39, -4694.20, -4633.55, -3897.36, 0.000, 0.000, 0.000, 17:36:22.529
136, -4294.39, -4834.80, -4760.14, -4022.28, 0.000, 0.000, 0.000, 17:36:22.529
137, -4086.31, -4603.67, -4540.89, -3805.19, 0.000, 0.000, 0.000, 17:36:22.529
138, -3869.41, -4379.96, -4345.68, -3605.60, 0.000, 0.000, 0.000, 17:36:22.529
139, -4135.25, -4688.08, -4630.73, -3909.18, 0.000, 0.000, 0.000, 17:36:22.530
140, -4297.95, -4819.05, -4754.86, -4030.38, 0.000, 0.000, 0.000, 17:36:22.530
141, -4085.99, -4600.87, -4544.50, -3817.05, 0.000, 0.000, 0.000, 17:36:22.531
142, -3879.31, -4394.44, -4356.64, -3615.28, 0.000, 0.000, 0.000, 17:36:22.531
143, -4129.40, -4677.03, -4628.83, -3895.97, 0.000, 0.000, 0.000, 17:36:22.532
144, -4304.94, -4835.17, -4769.22, -4029.06, 0.000, 0.000, 0.000, 17:36:22.532
145, -4089.66, -4605.97, -4547.02, -3809.71, 0.000, 0.000, 0.000, 17:36:22.544
146, -3896.83, -4398.87, -4356.17, -3621.63, 0.000, 0.000, 0.000, 17:36:22.544
147, -4145.25, -4678.70, -4623.57, -3897.97, 0.000, 0.000, 0.000, 17:36:22.560
148, -4296.13, -4835.70, -4767.27, -4034.31, 0.000, 0.000, 0.000, 17:36:22.560
149, -4100.93, -4619.74, -4550.73, -3819.13, 0.000, 0.000, 0.000, 17:36:22.560
150, -3864.52, -4395.42, -4340.02, -3603.75, 0.000, 0.000, 0.000, 17:36:22.560
151, -4112.85, -4679.47, -4621.92, -3880.45, 0.000, 0.000, 0.000, 17:36:22.589
152, -4287.15, -4858.74, -4767.75, -4027.59, 0.000, 0.000, 0.000, 17:36:22.589
153, -4060.56, -4609.90, -4544.24, -3802.62, 0.000, 0.000, 0.000, 17:36:22.590
154, -3843.58, -4397.90, -4345.34, -3606.83, 0.000, 0.000, 0.000, 17:36:22.590
155, -4109.78, -4699.90, -4622.41, -3888.23, 0.000, 0.000, 0.000, 17:36:22.591
156, -4279.08, -4868.94, -4768.82, -4029.68, 0.000, 0.000, 0.000, 17:36:22.591
157, -4085.57, -4640.59, -4559.68, -3814.86, 0.000, 0.000, 0.000, 17:36:22.611
158, -3841.61, -4404.23, -4343.46, -3605.75, 0.000, 0.000, 0.000, 17:36:22.611
159, -4107.22, -4692.69, -4618.01, -3887.42, 0.000, 0.000, 0.000, 17:36:22.620
160, -4281.31, -4858.30, -4775.32, -4042.31, 0.000, 0.000, 0.000, 17:36:22.620
161, -4087.95, -4624.62, -4553.42, -3820.34, 0.000, 0.000, 0.000, 17:36:22.621
162, -3863.56, -4391.41, -4343.78, -3606.94, 0.000, 0.000, 0.000, 17:36:22.621
163, -4115.40, -4673.76, -4613.74, -3887.34, 0.000, 0.000, 0.000, 17:36:22.635
164, -4296.34, -4854.07, -4789.71, -4041.70, 0.000, 0.000, 0.000, 17:36:22.635
165, -4102.50, -4610.70, -4566.18, -3816.02, 0.000, 0.000, 0.000, 17:36:22.679
166, -3874.32, -4404.21, -4350.51, -3612.74, 0.000, 0.000, 0.000, 17:36:22.679
167, -4124.99, -4677.22, -4609.33, -3870.49, 0.000, 0.000, 0.000, 17:36:22.694
168, -4293.08, -4831.86, -4751.16, -4028.82, 0.000, 0.000, 0.000, 17:36:22.694
169, -4100.45, -4599.38, -4548.53, -3813.92, 0.000, 0.000, 0.000, 17:36:22.695
170, -3875.72, -4391.02, -4349.05, -3603.55, 0.000, 0.000, 0.000, 17:36:22.695
171, -4111.77, -4662.63, -4602.35, -3878.65, 0.000, 0.000, 0.000, 17:36:22.696
172, -4314.64, -4841.71, -4781.11, -4044.14, 0.000, 0.000, 0.000, 17:36:22.696
173, -4104.20, -4612.82, -4573.51, -3819.14, 0.000, 0.000, 0.000, 17:36:22.697
174, -3890.12, -4369.74, -4355.38, -3607.40, 0.000, 0.000, 0.000, 17:36:22.697
175, -4116.84, -4658.73, -4599.40, -3868.50, 0.000, 0.000, 0.000, 17:36:22.698
176, -4321.86, -4847.55, -4786.50, -4045.67, 0.000, 0.000, 0.000, 17:36:22.698
177, -4118.28, -4636.18, -4582.50, -3838.69, 0.000, 0.000, 0.000, 17:36:22.698
178, -3888.67, -4385.37, -4354.57, -3608.08, 0.000, 0.000, 0.000, 17:36:22.698
179, -4109.16, -4639.36, -4605.25, -3869.72, 0.000, 0.000, 0.000, 17:36:22.709
180, -4313.23, -4832.74, -4779.18, -4038.39, 0.000, 0.000, 0.000, 17:36:22.709
181, -4098.50, -4621.63, -4563.88, -3831.30, 0.000, 0.000, 0.000, 17:36:22.724
182, -3885.45, -4392.99, -4353.20, -3614.89, 0.000, 0.000, 0.000, 17:36:22.724
183, -4116.92, -4652.43, -4603.65, -3861.96, 0.000, 0.000, 0.000, 17:36:22.739
184, -4316.71, -4838.72, -4783.81, -4045.20, 0.000, 0.000, 0.000, 17:36:22.739
185, -4103.12, -4595.74, -4557.83, -3827.45, 0.000, 0.000, 0.000, 17:36:22.740
186, -3874.84, -4384.97, -4347.29, -3614.52, 0.000, 0.000, 0.000, 17:36:22.740
187, -4101.90, -4645.28, -4595.10, -3860.87, 0.000, 0.000, 0.000, 17:36:22.754
188, -4303.07, -4836.54, -4773.67, -4046.56, 0.000, 0.000, 0.000, 17:36:22.754
189, -4109.62, -4622.25, -4563.68, -3830.77, 0.000, 0.000, 0.000, 17:36:22.769
190, -3882.48, -4394.41, -4359.63, -3617.63, 0.000, 0.000, 0.000, 17:36:22.769
191, -4105.26, -4655.36, -4599.96, -3866.67, 0.000, 0.000, 0.000, 17:36:22.770
192, -4303.23, -4850.53, -4773.05, -4053.82, 0.000, 0.000, 0.000, 17:36:22.770
193, -4096.93, -4608.79, -4552.36, -3819.46, 0.000, 0.000, 0.000, 17:36:22.785
194, -3889.08, -4384.92, -4341.00, -3618.05, 0.000, 0.000, 0.000, 17:36:22.785
195, -4105.60, -4648.25, -4605.79, -3869.17, 0.000, 0.000, 0.000, 17:36:22.800
196, -4323.19, -4853.52, -4788.03, -4055.30, 0.000, 0.000, 0.000, 17:36:22.801
197, -4104.21, -4614.11, -4568.28, -3831.31, 0.000, 0.000, 0.000, 17:36:22.801
198, -3896.02, -4404.13, -4357.42, -3619.59, 0.000, 0.000, 0.000, 17:36:22.801
199, -4101.30, -4639.58, -4591.07, -3854.85, 0.000, 0.000, 0.000, 17:36:22.814
200, -4308.26, -4836.19, -4783.21, -4047.55, 0.000, 0.000, 0.000, 17:36:22.814
0, -4111.23, -4620.97, -4565.79, -3840.96, 0.000, 0.000, 0.000, 17:36:22.814
1, -3877.93, -4388.11, -4338.16, -3607.35, 0.000, 0.000, 0.000, 17:36:22.830
2, -4084.47, -4635.26, -4574.13, -3840.75, 0.000, 0.000, 0.000, 17:36:22.830
3, -4313.37, -4848.47, -4786.04, -4044.56, 0.000, 0.000, 0.000, 17:36:22.844
4, -4106.52, -4617.20, -4567.11, -3832.42, 0.000, 0.000, 0.000, 17:36:22.844
5, -3879.53, -4380.98, -4346.49, -3603.60, 0.000, 0.000, 0.000, 17:36:22.845
6, -4084.74, -4629.35, -4574.18, -3831.83, 0.000, 0.000, 0.000, 17:36:22.845
7, -4307.35, -4836.92, -4779.10, -4046.47, 0.000, 0.000, 0.000, 17:36:22.859
8, -4117.16, -4625.53, -4576.52, -3834.50, 0.000, 0.000, 0.000, 17:36:22.859
9, -3897.04, -4406.03, -4355.80, -3619.53, 0.000, 0.000, 0.000, 17:36:22.874
10, -4079.96, -4621.87, -4567.92, -3835.33, 0.000, 0.000, 0.000, 17:36:22.874
11, -4310.00, -4839.65, -4788.87, -4045.54, 0.000, 0.000, 0.000, 17:36:22.875
12, -4114.20, -4622.50, -4575.55, -3835.31, 0.000, 0.000, 0.000, 17:36:22.875
13, -3877.96, -4386.10, -4346.91, -3610.14, 0.000, 0.000, 0.000, 17:36:22.889
14, -4075.62, -4614.18, -4563.57, -3834.59, 0.000, 0.000, 0.000, 17:36:22.889
15, -4306.79, -4853.28, -4792.17, -4053.08, 0.000, 0.000, 0.000, 17:36:22.904
16, -4123.51, -4636.71, -4584.41, -3852.88, 0.000, 0.000, 0.000, 17:36:22.904
17, -3895.70, -4392.04, -4357.74, -3621.77, 0.000, 0.000, 0.000, 17:36:22.905
18, -4080.23, -4618.24, -4558.63, -3827.04, 0.000, 0.000, 0.000, 17:36:22.905
19, -4306.23, -4850.89, -4781.61, -4046.59, 0.000, 0.000, 0.000, 17:36:22.919
20, -4114.92, -4628.78, -4569.96, -3836.75, 0.000, 0.000, 0.000, 17:36:22.919
21, -3874.25, -4387.26, -4350.00, -3614.45, 0.000, 0.000, 0.000, 17:36:22.934
22, -4085.77, -4618.18, -4567.32, -3826.88, 0.000, 0.000, 0.000, 17:36:22.934
23, -4318.10, -4848.87, -4786.57, -4058.65, 0.000, 0.000, 0.000, 17:36:22.935
24, -4134.30, -4642.59, -4582.98, -3849.47, 0.000, 0.000, 0.000, 17:36:22.935
25, -3898.28, -4405.08, -4362.41, -3626.50, 0.000, 0.000, 0.000, 17:36:22.955
26, -4066.85, -4602.32, -4558.85, -3832.67, 0.000, 0.000, 0.000, 17:36:22.955
27, -4316.45, -4848.64, -4781.25, -4054.93, 0.000, 0.000, 0.000, 17:36:22.964
28, -4125.72, -4643.17, -4573.10, -3842.33, 0.000, 0.000, 0.000, 17:36:22.964
29, -3895.18, -4403.01, -4364.64, -3614.96, 0.000, 0.000, 0.000, 17:36:22.980
30, -4079.15, -4624.44, -4573.01, -3829.49, 0.000, 0.000, 0.000, 17:36:22.980
31, -4329.45, -4862.25, -4796.83, -4056.20, 0.000, 0.000, 0.000, 17:36:22.995
32, -4118.06, -4607.32, -4582.94, -3843.46, 0.000, 0.000, 0.000, 17:36:22.995
33, -3888.07, -4372.24, -4346.13, -3623.49, 0.000, 0.000, 0.000, 17:36:22.995
34, -4056.46, -4581.51, -4532.33, -3816.20, 0.000, 0.000, 0.000, 17:36:22.995
35, -4321.43, -4834.09, -4772.81, -4050.88, 0.000, 0.000, 0.000, 17:36:22.996
36, -4141.85, -4640.74, -4580.33, -3869.55, 0.000, 0.000, 0.000, 17:36:22.996
37, -3903.46, -4398.34, -4357.55, -3631.47, 0.000, 0.000, 0.000, 17:36:23.009
38, -4074.43, -4597.57, -4546.50, -3823.09, 0.000, 0.000, 0.000, 17:36:23.009
39, -4316.61, -4834.18, -4772.72, -4061.54, 0.000, 0.000, 0.000, 17:36:23.024
40, -4150.58, -4643.40, -4590.22, -3864.58, 0.000, 0.000, 0.000, 17:36:23.024
41, -3896.98, -4386.75, -4359.68, -3621.96, 0.000, 0.000, 0.000, 17:36:23.025
42, -4066.11, -4580.84, -4547.99, -3820.71, 0.000, 0.000, 0.000, 17:36:23.025
43, -4323.74, -4841.91, -4797.25, -4063.73, 0.000, 0.000, 0.000, 17:36:23.039
44, -4138.18, -4639.25, -4587.43, -3863.75, 0.000, 0.000, 0.000, 17:36:23.039
45, -3905.24, -4393.03, -4363.04, -3623.79, 0.000, 0.000, 0.000, 17:36:23.054
46, -4061.30, -4580.43, -4539.25, -3805.71, 0.000, 0.000, 0.000, 17:36:23.054
47, -4336.08, -4866.77, -4795.93, -4065.14, 0.000, 0.000, 0.000, 17:36:23.055
48, -4134.12, -4654.57, -4590.28, -3855.20, 0.000, 0.000, 0.000, 17:36:23.055
49, -3904.78, -4395.77, -4359.10, -3621.39, 0.000, 0.000, 0.000, 17:36:23.069
50, -4056.00, -4594.40, -4543.31, -3807.29, 0.000, 0.000, 0.000, 17:36:23.069
51, -4319.43, -4861.39, -4786.38, -4062.52, 0.000, 0.000, 0.000, 17:36:23.085
52, -4141.56, -4648.28, -4601.10, -3857.88, 0.000, 0.000, 0.000, 17:36:23.085
53, -3909.19, -4416.08, -4371.31, -3625.53, 0.000, 0.000, 0.000, 17:36:23.085
54, -4057.06, -4590.93, -4544.84, -3816.41, 0.000, 0.000, 0.000, 17:36:23.085
55, -4333.24, -4869.01, -4802.02, -4071.41, 0.000, 0.000, 0.000, 17:36:23.100
56, -4144.08, -4665.78, -4602.73, -3867.59, 0.000, 0.000, 0.000, 17:36:23.101
57, -3897.83, -4407.19, -4365.31, -3630.18, 0.000, 0.000, 0.000, 17:36:23.129
58, -4036.52, -4577.46, -4520.90, -3790.43, 0.000, 0.000, 0.000, 17:36:23.129
59, -4323.37, -4856.27, -4792.83, -4058.76, 0.000, 0.000, 0.000, 17:36:23.130
60, -4132.48, -4655.59, -4596.64, -3862.96, 0.000, 0.000, 0.000, 17:36:23.131
61, -3893.71, -4409.94, -4364.23, -3625.00, 0.000, 0.000, 0.000, 17:36:23.145
62, -4039.16, -4571.89, -4526.53, -3786.45, 0.000, 0.000, 0.000, 17:36:23.145
63, -4314.61, -4855.94, -4790.17, -4059.70, 0.000, 0.000, 0.000, 17:36:23.159
64, -4133.98, -4648.85, -4593.05, -3856.30, 0.000, 0.000, 0.000, 17:36:23.159
65, -3900.15, -4405.27, -4357.22, -3629.88, 0.000, 0.000, 0.000, 17:36:23.159
66, -4040.73, -4578.10, -4528.35, -3801.64, 0.000, 0.000, 0.000, 17:36:23.159
67, -4336.88, -4867.12, -4804.39, -4073.71, 0.000, 0.000, 0.000, 17:36:23.160
68, -4164.21, -4689.18, -4616.78, -3880.40, 0.000, 0.000, 0.000, 17:36:23.160
69, -3913.84, -4434.52, -4387.16, -3637.58, 0.000, 0.000, 0.000, 17:36:23.161
70, -4049.49, -4602.87, -4544.92, -3801.77, 0.000, 0.000, 0.000, 17:36:23.161
71, -4337.28, -4872.71, -4805.44, -4072.67, 0.000, 0.000, 0.000, 17:36:23.174
72, -4151.06, -4662.88, -4604.71, -3862.59, 0.000, 0.000, 0.000, 17:36:23.174
73, -3904.45, -4402.94, -4361.59, -3625.69, 0.000, 0.000, 0.000, 17:36:23.189
74, -4033.17, -4572.59, -4515.98, -3793.04, 0.000, 0.000, 0.000, 17:36:23.189
75, -4316.33, -4851.63, -4795.54, -4056.10, 0.000, 0.000, 0.000, 17:36:23.204
76, -4142.57, -4665.83, -4591.63, -3859.66, 0.000, 0.000, 0.000, 17:36:23.204
77, -3899.33, -4407.77, -4368.44, -3631.56, 0.000, 0.000, 0.000, 17:36:23.205
78, -4027.43, -4563.75, -4511.30, -3781.96, 0.000, 0.000, 0.000, 17:36:23.205
79, -4318.81, -4863.48, -4806.62, -4065.08, 0.000, 0.000, 0.000, 17:36:23.219
80, -4155.02, -4659.94, -4611.16, -3870.87, 0.000, 0.000, 0.000, 17:36:23.219
81, -3912.28, -4413.33, -4374.29, -3629.29, 0.000, 0.000, 0.000, 17:36:23.249
82, -4015.46, -4553.77, -4515.16, -3772.16, 0.000, 0.000, 0.000, 17:36:23.249
83, -4318.97, -4869.29, -4794.57, -4063.84, 0.000, 0.000, 0.000, 17:36:23.249
84, -4153.67, -4669.39, -4612.67, -3873.89, 0.000, 0.000, 0.000, 17:36:23.249
85, -3901.99, -4408.55, -4379.12, -3631.74, 0.000, 0.000, 0.000, 17:36:23.251
86, -4003.97, -4552.42, -4506.34, -3782.20, 0.000, 0.000, 0.000, 17:36:23.251
87, -4325.61, -4861.27, -4808.85, -4068.93, 0.000, 0.000, 0.000, 17:36:23.251
88, -4159.40, -4671.87, -4611.50, -3880.04, 0.000, 0.000, 0.000, 17:36:23.251
89, -3911.92, -4405.79, -4376.69, -3634.89, 0.000, 0.000, 0.000, 17:36:23.264
90, -4024.27, -4563.38, -4505.32, -3765.95, 0.000, 0.000, 0.000, 17:36:23.264
91, -4324.32, -4867.23, -4798.12, -4066.85, 0.000, 0.000, 0.000, 17:36:23.280
92, -4158.74, -4679.84, -4621.87, -3887.39, 0.000, 0.000, 0.000, 17:36:23.280
93, -3904.04, -4413.22, -4369.88, -3639.25, 0.000, 0.000, 0.000, 17:36:23.294
94, -4014.12, -4542.10, -4494.77, -3764.92, 0.000, 0.000, 0.000, 17:36:23.294
95, -4323.25, -4850.80, -4789.38, -4067.16, 0.000, 0.000, 0.000, 17:36:23.295
96, -4154.81, -4664.69, -4597.99, -3877.96, 0.000, 0.000, 0.000, 17:36:23.295
97, -3908.00, -4405.80, -4371.47, -3635.74, 0.000, 0.000, 0.000, 17:36:23.309
98, -4012.28, -4545.91, -4497.58, -3755.70, 0.000, 0.000, 0.000, 17:36:23.309
99, -4321.23, -4849.14, -4792.47, -4066.83, 0.000, 0.000, 0.000, 17:36:23.324
100, -4146.64, -4669.13, -4603.36, -3872.19, 0.000, 0.000, 0.000, 17:36:23.324
101, -3913.95, -4420.15, -4380.97, -3640.49, 0.000, 0.000, 0.000, 17:36:23.331
102, -4010.52, -4546.98, -4499.10, -3764.08, 0.000, 0.000, 0.000, 17:36:23.332
103, -4327.61, -4861.84, -4800.32, -4069.48, 0.000, 0.000, 0.000, 17:36:23.339
104, -4168.36, -4678.41, -4614.79, -3886.84, 0.000, 0.000, 0.000, 17:36:23.339
105, -3920.26, -4415.93, -4378.92, -3640.19, 0.000, 0.000, 0.000, 17:36:23.354
106, -4000.37, -4532.45, -4491.42, -3760.93, 0.000, 0.000, 0.000, 17:36:23.354
107, -4324.61, -4868.85, -4802.54, -4069.93, 0.000, 0.000, 0.000, 17:36:23.355
108, -4177.10, -4695.69, -4634.81, -3893.57, 0.000, 0.000, 0.000, 17:36:23.355
109, -3914.78, -4418.83, -4383.13, -3640.10, 0.000, 0.000, 0.000, 17:36:23.369
110, -4007.09, -4552.95, -4489.40, -3762.04, 0.000, 0.000, 0.000, 17:36:23.369
111, -4337.77, -4868.41, -4799.94, -4074.59, 0.000, 0.000, 0.000, 17:36:23.383
112, -4162.41, -4673.12, -4624.35, -3886.56, 0.000, 0.000, 0.000, 17:36:23.383
113, -3918.34, -4417.61, -4372.88, -3652.03, 0.000, 0.000, 0.000, 17:36:23.384
114, -3998.70, -4537.46, -4490.12, -3755.52, 0.000, 0.000, 0.000, 17:36:23.384
115, -4327.29, -4871.46, -4798.44, -4068.96, 0.000, 0.000, 0.000, 17:36:23.400
116, -4173.50, -4686.84, -4625.82, -3892.18, 0.000, 0.000, 0.000, 17:36:23.400
117, -3915.38, -4408.68, -4362.92, -3643.56, 0.000, 0.000, 0.000, 17:36:23.414
118, -4003.86, -4535.60, -4485.61, -3746.47, 0.000, 0.000, 0.000, 17:36:23.414
119, -4325.77, -4868.61, -4794.58, -4068.30, 0.000, 0.000, 0.000, 17:36:23.415
120, -4161.98, -4672.63, -4621.64, -3880.04, 0.000, 0.000, 0.000, 17:36:23.415
121, -3925.14, -4433.36, -4392.68, -3642.30, 0.000, 0.000, 0.000, 17:36:23.429
122, -3996.39, -4527.25, -4486.31, -3750.60, 0.000, 0.000, 0.000, 17:36:23.430
123, -4329.63, -4855.62, -4801.85, -4070.33, 0.000, 0.000, 0.000, 17:36:23.445
124, -4168.06, -4680.35, -4624.50, -3888.94, 0.000, 0.000, 0.000, 17:36:23.447
125, -3908.46, -4420.83, -4379.22, -3647.46, 0.000, 0.000, 0.000, 17:36:23.447
126, -3981.21, -4509.49, -4476.64, -3746.55, 0.000, 0.000, 0.000, 17:36:23.447
127, -4326.13, -4881.36, -4802.21, -4066.86, 0.000, 0.000, 0.000, 17:36:23.459
128, -4172.45, -4694.52, -4630.52, -3901.26, 0.000, 0.000, 0.000, 17:36:23.459
129, -3914.42, -4414.31, -4380.61, -3644.07, 0.000, 0.000, 0.000, 17:36:23.474
130, -3982.13, -4512.90, -4470.41, -3738.15, 0.000, 0.000, 0.000, 17:36:23.474
131, -4332.08, -4858.07, -4811.01, -4068.38, 0.000, 0.000, 0.000, 17:36:23.475
132, -4171.00, -4687.24, -4639.05, -3896.20, 0.000, 0.000, 0.000, 17:36:23.475
133, -3911.38, -4421.83, -4373.93, -3642.22, 0.000, 0.000, 0.000, 17:36:23.489
134, -3970.51, -4506.44, -4466.68, -3734.73, 0.000, 0.000, 0.000, 17:36:23.489
135, -4311.98, -4869.67, -4801.21, -4067.37, 0.000, 0.000, 0.000, 17:36:23.504
136, -4171.72, -4699.87, -4639.99, -3898.31, 0.000, 0.000, 0.000, 17:36:23.504
137, -3912.60, -4423.22, -4378.08, -3645.24, 0.000, 0.000, 0.000, 17:36:23.505
138, -3974.47, -4513.49, -4464.11, -3732.43, 0.000, 0.000, 0.000, 17:36:23.505
139, -4310.09, -4860.94, -4788.76, -4069.03, 0.000, 0.000, 0.000, 17:36:23.519
140, -4170.64, -4684.02, -4622.83, -3903.43, 0.000, 0.000, 0.000, 17:36:23.519
141, -3927.96, -4431.15, -4391.33, -3652.17, 0.000, 0.000, 0.000, 17:36:23.534
142, -3980.22, -4504.16, -4462.73, -3731.60, 0.000, 0.000, 0.000, 17:36:23.534
143, -4315.58, -4864.83, -4804.06, -4070.16, 0.000, 0.000, 0.000, 17:36:23.534
144, -4182.53, -4681.23, -4640.63, -3904.76, 0.000, 0.000, 0.000, 17:36:23.534
145, -3917.49, -4430.26, -4395.68, -3652.56, 0.000, 0.000, 0.000, 17:36:23.550
146, -3985.93, -4516.58, -4470.08, -3738.49, 0.000, 0.000, 0.000, 17:36:23.550
147, -4336.05, -4882.07, -4817.23, -4072.96, 0.000, 0.000, 0.000, 17:36:23.564
148, -4191.90, -4704.24, -4644.46, -3911.35, 0.000, 0.000, 0.000, 17:36:23.564
149, -3930.65, -4425.33, -4393.29, -3653.49, 0.000, 0.000, 0.000, 17:36:23.566
150, -3975.55, -4495.17, -4453.02, -3724.33, 0.000, 0.000, 0.000, 17:36:23.566
151, -4306.35, -4866.28, -4795.25, -4067.68, 0.000, 0.000, 0.000, 17:36:23.609
152, -4179.85, -4707.02, -4645.95, -3912.02, 0.000, 0.000, 0.000, 17:36:23.610
153, -3939.04, -4442.59, -4406.21, -3653.08, 0.000, 0.000, 0.000, 17:36:23.611
154, -3970.11, -4501.92, -4462.75, -3721.44, 0.000, 0.000, 0.000, 17:36:23.611
155, -4326.99, -4868.53, -4802.88, -4072.41, 0.000, 0.000, 0.000, 17:36:23.611
156, -4190.01, -4700.39, -4637.85, -3911.40, 0.000, 0.000, 0.000, 17:36:23.611
157, -3924.65, -4442.30, -4385.73, -3662.80, 0.000, 0.000, 0.000, 17:36:23.612
158, -3968.70, -4499.46, -4449.22, -3723.52, 0.000, 0.000, 0.000, 17:36:23.612
159, -4327.44, -4874.00, -4809.57, -4074.98, 0.000, 0.000, 0.000, 17:36:23.612
160, -4187.28, -4720.18, -4648.94, -3912.36, 0.000, 0.000, 0.000, 17:36:23.612
161, -3950.13, -4462.35, -4413.09, -3669.81, 0.000, 0.000, 0.000, 17:36:23.639
162, -3967.91, -4479.99, -4444.38, -3711.37, 0.000, 0.000, 0.000, 17:36:23.639
163, -4319.05, -4849.52, -4798.06, -4058.43, 0.000, 0.000, 0.000, 17:36:23.654
164, -4188.37, -4699.18, -4646.16, -3914.11, 0.000, 0.000, 0.000, 17:36:23.654
165, -3936.39, -4445.68, -4402.69, -3661.16, 0.000, 0.000, 0.000, 17:36:23.654
166, -3965.70, -4495.26, -4460.06, -3715.72, 0.000, 0.000, 0.000, 17:36:23.654
167, -4315.54, -4856.81, -4799.48, -4070.31, 0.000, 0.000, 0.000, 17:36:23.655
168, -4186.29, -4704.83, -4645.85, -3914.13, 0.000, 0.000, 0.000, 17:36:23.655
169, -3951.25, -4464.09, -4409.61, -3670.59, 0.000, 0.000, 0.000, 17:36:23.683
170, -3974.11, -4506.31, -4463.07, -3709.80, 0.000, 0.000, 0.000, 17:36:23.685
171, -4330.38, -4876.09, -4805.64, -4062.80, 0.000, 0.000, 0.000, 17:36:23.685
172, -4190.31, -4701.36, -4644.05, -3912.35, 0.000, 0.000, 0.000, 17:36:23.685
173, -3947.42, -4449.14, -4403.57, -3664.33, 0.000, 0.000, 0.000, 17:36:23.700
174, -3957.30, -4472.38, -4447.94, -3708.02, 0.000, 0.000, 0.000, 17:36:23.700
175, -4326.74, -4860.44, -4793.65, -4071.78, 0.000, 0.000, 0.000, 17:36:23.700
176, -4203.40, -4713.87, -4656.19, -3919.32, 0.000, 0.000, 0.000, 17:36:23.700
177, -3949.10, -4441.91, -4408.97, -3668.41, 0.000, 0.000, 0.000, 17:36:23.714
178, -3966.05, -4487.59, -4445.24, -3706.09, 0.000, 0.000, 0.000, 17:36:23.714
179, -4328.69, -4873.01, -4806.49, -4060.59, 0.000, 0.000, 0.000, 17:36:23.715
180, -4200.40, -4723.33, -4657.13, -3917.26, 0.000, 0.000, 0.000, 17:36:23.715
181, -3962.20, -4460.02, -4411.67, -3670.79, 0.000, 0.000, 0.000, 17:36:23.730
182, -3963.80, -4492.82, -4454.87, -3711.10, 0.000, 0.000, 0.000, 17:36:23.730
183, -4317.44, -4862.41, -4798.02, -4080.19, 0.000, 0.000, 0.000, 17:36:23.743
184, -4201.33, -4713.73, -4655.53, -3920.78, 0.000, 0.000, 0.000, 17:36:23.744
185, -3952.88, -4450.85, -4423.40, -3675.99, 0.000, 0.000, 0.000, 17:36:23.745
186, -3956.96, -4479.69, -4447.46, -3709.45, 0.000, 0.000, 0.000, 17:36:23.745
187, -4318.78, -4870.95, -4796.99, -4068.99, 0.000, 0.000, 0.000, 17:36:23.759
188, -4209.22, -4730.68, -4664.76, -3929.60, 0.000, 0.000, 0.000, 17:36:23.760
189, -3945.68, -4444.62, -4405.56, -3670.00, 0.000, 0.000, 0.000, 17:36:23.774
190, -3952.39, -4487.22, -4436.71, -3697.35, 0.000, 0.000, 0.000, 17:36:23.774
191, -4308.90, -4864.73, -4798.16, -4061.00, 0.000, 0.000, 0.000, 17:36:23.775
192, -4203.13, -4725.05, -4666.20, -3929.27, 0.000, 0.000, 0.000, 17:36:23.775
193, -3959.54, -4485.76, -4430.46, -3684.96, 0.000, 0.000, 0.000, 17:36:23.789
194, -3961.32, -4480.91, -4433.87, -3706.10, 0.000, 0.000, 0.000, 17:36:23.789
195, -4323.72, -4867.50, -4803.53, -4070.54, 0.000, 0.000, 0.000, 17:36:23.803
196, -4196.70, -4717.38, -4667.56, -3936.44, 0.000, 0.000, 0.000, 17:36:23.804
197, -3951.48, -4450.15, -4417.29, -3688.33, 0.000, 0.000, 0.000, 17:36:23.804
198, -3949.50, -4471.73, -4423.00, -3701.60, 0.000, 0.000, 0.000, 17:36:23.804
199, -4321.35, -4866.17, -4799.12, -4066.48, 0.000, 0.000, 0.000, 17:36:23.819
200, -4210.57, -4736.85, -4665.67, -3927.50, 0.000, 0.000, 0.000, 17:36:23.819
0, -3956.95, -4472.66, -4426.21, -3681.82, 0.000, 0.000, 0.000, 17:36:23.820
1, -3946.99, -4474.17, -4434.97, -3693.24, 0.000, 0.000, 0.000, 17:36:23.834
2, -4308.57, -4858.67, -4793.21, -4065.66, 0.000, 0.000, 0.000, 17:36:23.834
3, -4206.11, -4723.04, -4669.35, -3929.77, 0.000, 0.000, 0.000, 17:36:23.850
4, -3956.61, -4468.22, -4423.31, -3685.31, 0.000, 0.000, 0.000, 17:36:23.850
5, -3946.26, -4471.13, -4433.32, -3687.83, 0.000, 0.000, 0.000, 17:36:23.850
6, -4307.89, -4857.34, -4795.72, -4054.69, 0.000, 0.000, 0.000, 17:36:23.850
7, -4198.63, -4735.81, -4655.39, -3924.58, 0.000, 0.000, 0.000, 17:36:23.880
8, -3968.71, -4478.66, -4431.90, -3682.79, 0.000, 0.000, 0.000, 17:36:23.880
9, -3953.19, -4480.77, -4449.49, -3697.72, 0.000, 0.000, 0.000, 17:36:23.880
10, -4322.11, -4864.45, -4799.65, -4063.84, 0.000, 0.000, 0.000, 17:36:23.880
11, -4209.15, -4721.66, -4675.09, -3934.56, 0.000, 0.000, 0.000, 17:36:23.881
12, -3950.07, -4461.13, -4414.90, -3677.19, 0.000, 0.000, 0.000, 17:36:23.881
13, -3916.73, -4447.39, -4404.06, -3679.48, 0.000, 0.000, 0.000, 17:36:23.895
14, -4295.11, -4846.51, -4780.98, -4049.93, 0.000, 0.000, 0.000, 17:36:23.895
15, -4204.78, -4730.10, -4664.34, -3934.15, 0.000, 0.000, 0.000, 17:36:23.909
16, -3955.89, -4461.06, -4406.56, -3683.05, 0.000, 0.000, 0.000, 17:36:23.910
17, -3927.90, -4455.08, -4408.96, -3678.93, 0.000, 0.000, 0.000, 17:36:23.924
18, -4296.61, -4840.88, -4777.52, -4056.07, 0.000, 0.000, 0.000, 17:36:23.924
19, -4212.97, -4729.50, -4674.29, -3935.26, 0.000, 0.000, 0.000, 17:36:23.924
20, -3965.55, -4456.56, -4423.29, -3683.96, 0.000, 0.000, 0.000, 17:36:23.924
21, -3922.41, -4456.19, -4408.78, -3678.32, 0.000, 0.000, 0.000, 17:36:23.939
22, -4293.61, -4854.11, -4771.62, -4053.51, 0.000, 0.000, 0.000, 17:36:23.939
23, -4217.86, -4740.39, -4664.55, -3938.31, 0.000, 0.000, 0.000, 17:36:23.939
24, -3972.98, -4476.15, -4435.39, -3692.67, 0.000, 0.000, 0.000, 17:36:23.940
25, -3918.28, -4435.96, -4399.55, -3666.31, 0.000, 0.000, 0.000, 17:36:23.954
26, -4297.41, -4839.37, -4775.13, -4042.43, 0.000, 0.000, 0.000, 17:36:23.954
27, -4208.86, -4725.04, -4656.33, -3949.05, 0.000, 0.000, 0.000, 17:36:23.984
28, -3965.13, -4481.40, -4428.34, -3691.84, 0.000, 0.000, 0.000, 17:36:23.984
29, -3925.28, -4448.98, -4409.29, -3675.67, 0.000, 0.000, 0.000, 17:36:23.984
30, -4293.67, -4857.73, -4795.16, -4065.04, 0.000, 0.000, 0.000, 17:36:23.984
31, -4210.23, -4732.34, -4669.86, -3941.56, 0.000, 0.000, 0.000, 17:36:23.985
32, -3965.08, -4464.65, -4426.81, -3683.25, 0.000, 0.000, 0.000, 17:36:23.985
33, -3934.94, -4448.05, -4418.08, -3669.23, 0.000, 0.000, 0.000, 17:36:23.986
34, -4298.69, -4845.04, -4784.22, -4047.74, 0.000, 0.000, 0.000, 17:36:23.986
35, -4214.67, -4746.52, -4680.17, -3940.13, 0.000, 0.000, 0.000, 17:36:23.999
36, -3965.63, -4479.74, -4436.57, -3698.36, 0.000, 0.000, 0.000, 17:36:23.999
37, -3906.07, -4437.54, -4403.45, -3670.54, 0.000, 0.000, 0.000, 17:36:24.014
38, -4290.93, -4844.31, -4784.16, -4050.28, 0.000, 0.000, 0.000, 17:36:24.014
39, -4214.29, -4741.09, -4675.36, -3940.46, 0.000, 0.000, 0.000, 17:36:24.029
40, -3973.71, -4470.87, -4441.06, -3696.45, 0.000, 0.000, 0.000, 17:36:24.029
41, -3918.12, -4442.50, -4411.21, -3660.61, 0.000, 0.000, 0.000, 17:36:24.030
42, -4303.57, -4852.74, -4788.97, -4050.85, 0.000, 0.000, 0.000, 17:36:24.030
43, -4225.23, -4752.16, -4677.76, -3946.30, 0.000, 0.000, 0.000, 17:36:24.044
44, -3982.69, -4485.02, -4443.57, -3701.92, 0.000, 0.000, 0.000, 17:36:24.044
45, -3931.10, -4458.73, -4412.96, -3677.69, 0.000, 0.000, 0.000, 17:36:24.059
46, -4306.60, -4847.77, -4790.20, -4045.53, 0.000, 0.000, 0.000, 17:36:24.059
47, -4227.14, -4742.75, -4676.86, -3944.06, 0.000, 0.000, 0.000, 17:36:24.089
48, -3972.43, -4474.62, -4427.33, -3695.71, 0.000, 0.000, 0.000, 17:36:24.089
49, -3918.36, -4436.67, -4400.59, -3662.33, 0.000, 0.000, 0.000, 17:36:24.090
50, -4297.36, -4833.50, -4778.05, -4051.61, 0.000, 0.000, 0.000, 17:36:24.090
51, -4222.55, -4734.45, -4684.35, -3948.22, 0.000, 0.000, 0.000, 17:36:24.090
52, -3975.40, -4475.18, -4435.65, -3699.63, 0.000, 0.000, 0.000, 17:36:24.090
53, -3917.88, -4433.97, -4401.51, -3660.28, 0.000, 0.000, 0.000, 17:36:24.091
54, -4303.56, -4850.19, -4790.43, -4046.24, 0.000, 0.000, 0.000, 17:36:24.091
55, -4250.22, -4760.01, -4707.67, -3958.60, 0.000, 0.000, 0.000, 17:36:24.119
56, -3990.52, -4496.55, -4455.75, -3707.19, 0.000, 0.000, 0.000, 17:36:24.119
57, -3905.36, -4433.49, -4390.26, -3655.84, 0.000, 0.000, 0.000, 17:36:24.120
58, -4287.99, -4828.89, -4770.11, -4040.96, 0.000, 0.000, 0.000, 17:36:24.120
59, -4227.32, -4742.24, -4684.68, -3947.36, 0.000, 0.000, 0.000, 17:36:24.120
60, -3984.55, -4493.72, -4441.46, -3699.30, 0.000, 0.000, 0.000, 17:36:24.120
61, -3907.12, -4421.54, -4381.34, -3649.06, 0.000, 0.000, 0.000, 17:36:24.134
62, -4303.41, -4840.94, -4780.79, -4044.74, 0.000, 0.000, 0.000, 17:36:24.134
63, -4247.71, -4763.05, -4702.96, -3966.04, 0.000, 0.000, 0.000, 17:36:24.150
64, -3988.25, -4493.32, -4449.18, -3702.96, 0.000, 0.000, 0.000, 17:36:24.150
65, -3908.26, -4429.29, -4400.72, -3658.54, 0.000, 0.000, 0.000, 17:36:24.150
66, -4278.20, -4835.87, -4773.82, -4039.91, 0.000, 0.000, 0.000, 17:36:24.150
67, -4234.58, -4753.43, -4690.34, -3963.01, 0.000, 0.000, 0.000, 17:36:24.164
68, -4001.40, -4509.51, -4447.78, -3718.32, 0.000, 0.000, 0.000, 17:36:24.164
69, -3901.30, -4420.35, -4374.59, -3641.94, 0.000, 0.000, 0.000, 17:36:24.180
70, -4280.90, -4834.05, -4772.13, -4032.62, 0.000, 0.000, 0.000, 17:36:24.180
71, -4232.73, -4750.59, -4687.13, -3951.34, 0.000, 0.000, 0.000, 17:36:24.180
72, -3982.71, -4488.35, -4438.87, -3706.75, 0.000, 0.000, 0.000, 17:36:24.180
73, -3909.70, -4435.08, -4386.49, -3651.41, 0.000, 0.000, 0.000, 17:36:24.194
74, -4286.74, -4845.90, -4778.83, -4040.20, 0.000, 0.000, 0.000, 17:36:24.194
75, -4232.20, -4759.76, -4691.10, -3963.68, 0.000, 0.000, 0.000, 17:36:24.209
76, -3995.80, -4494.48, -4448.56, -3719.19, 0.000, 0.000, 0.000, 17:36:24.209
77, -3907.98, -4430.21, -4382.25, -3652.47, 0.000, 0.000, 0.000, 17:36:24.210
78, -4279.18, -4831.63, -4771.73, -4039.40, 0.000, 0.000, 0.000, 17:36:24.210
79, -4233.17, -4747.46, -4685.65, -3957.35, 0.000, 0.000, 0.000, 17:36:24.239
80, -3988.94, -4490.75, -4450.22, -3708.82, 0.000, 0.000, 0.000, 17:36:24.239
81, -3899.26, -4412.92, -4384.13, -3641.01, 0.000, 0.000, 0.000, 17:36:24.239
82, -4289.64, -4841.52, -4777.31, -4039.39, 0.000, 0.000, 0.000, 17:36:24.239
83, -4245.65, -4762.90, -4701.72, -3971.26, 0.000, 0.000, 0.000, 17:36:24.240
84, -3999.05, -4505.65, -4459.26, -3714.95, 0.000, 0.000, 0.000, 17:36:24.240
85, -3890.41, -4399.36, -4370.10, -3631.01, 0.000, 0.000, 0.000, 17:36:24.254
86, -4265.30, -4826.89, -4758.09, -4035.31, 0.000, 0.000, 0.000, 17:36:24.254
87, -4234.58, -4760.39, -4698.47, -3961.24, 0.000, 0.000, 0.000, 17:36:24.269
88, -3989.58, -4508.29, -4462.70, -3719.81, 0.000, 0.000, 0.000, 17:36:24.269
89, -3882.92, -4410.41, -4364.17, -3632.92, 0.000, 0.000, 0.000, 17:36:24.269
90, -4261.06, -4817.68, -4746.02, -4020.02, 0.000, 0.000, 0.000, 17:36:24.270
91, -4228.31, -4756.83, -4690.48, -3958.49, 0.000, 0.000, 0.000, 17:36:24.284
92, -3996.12, -4495.68, -4458.20, -3718.80, 0.000, 0.000, 0.000, 17:36:24.284
93, -3886.60, -4422.90, -4366.92, -3643.97, 0.000, 0.000, 0.000, 17:36:24.299
94, -4271.69, -4819.04, -4760.05, -4031.22, 0.000, 0.000, 0.000, 17:36:24.299
95, -4234.27, -4751.71, -4690.52, -3968.47, 0.000, 0.000, 0.000, 17:36:24.299
96, -4004.20, -4508.88, -4458.22, -3728.00, 0.000, 0.000, 0.000, 17:36:24.299
97, -3895.01, -4416.65, -4375.88, -3639.44, 0.000, 0.000, 0.000, 17:36:24.314
98, -4272.54, -4807.71, -4750.52, -4015.78, 0.000, 0.000, 0.000, 17:36:24.314
99, -4256.88, -4774.09, -4716.75, -3974.41, 0.000, 0.000, 0.000, 17:36:24.329
100, -4015.98, -4510.65, -4465.49, -3730.89, 0.000, 0.000, 0.000, 17:36:24.329
101, -3908.25, -4424.37, -4380.10, -3639.81, 0.000, 0.000, 0.000, 17:36:24.330
102, -4282.27, -4815.40, -4764.47, -4028.91, 0.000, 0.000, 0.000, 17:36:24.330
103, -4243.44, -4773.30, -4708.40, -3963.87, 0.000, 0.000, 0.000, 17:36:24.344
104, -4006.46, -4511.87, -4462.94, -3721.02, 0.000, 0.000, 0.000, 17:36:24.344
105, -3896.41, -4418.01, -4371.40, -3632.04, 0.000, 0.000, 0.000, 17:36:24.359
106, -4271.55, -4816.19, -4748.57, -4016.93, 0.000, 0.000, 0.000, 17:36:24.359
107, -4248.01, -4767.33, -4707.77, -3968.05, 0.000, 0.000, 0.000, 17:36:24.360
108, -4021.93, -4516.25, -4484.59, -3737.46, 0.000, 0.000, 0.000, 17:36:24.360
109, -3907.32, -4423.75, -4378.69, -3639.24, 0.000, 0.000, 0.000, 17:36:24.374
110, -4258.09, -4816.23, -4744.66, -4011.94, 0.000, 0.000, 0.000, 17:36:24.374
111, -4238.85, -4757.49, -4690.93, -3968.48, 0.000, 0.000, 0.000, 17:36:24.389
112, -4005.10, -4519.82, -4467.39, -3737.48, 0.000, 0.000, 0.000, 17:36:24.389
113, -3876.14, -4412.07, -4363.35, -3637.72, 0.000, 0.000, 0.000, 17:36:24.390
114, -4271.42, -4823.23, -4758.70, -4023.20, 0.000, 0.000, 0.000, 17:36:24.390
115, -4252.35, -4771.35, -4711.05, -3972.96, 0.000, 0.000, 0.000, 17:36:24.404
116, -4017.50, -4531.12, -4476.35, -3748.47, 0.000, 0.000, 0.000, 17:36:24.404
117, -3885.16, -4407.55, -4356.41, -3630.60, 0.000, 0.000, 0.000, 17:36:24.418
118, -4253.22, -4808.96, -4734.76, -4019.50, 0.000, 0.000, 0.000, 17:36:24.419
119, -4246.45, -4776.07, -4714.81, -3975.56, 0.000, 0.000, 0.000, 17:36:24.419
120, -4008.40, -4522.78, -4469.41, -3729.03, 0.000, 0.000, 0.000, 17:36:24.419
121, -3882.18, -4402.33, -4357.86, -3618.27, 0.000, 0.000, 0.000, 17:36:24.434
122, -4246.95, -4802.48, -4739.87, -4011.03, 0.000, 0.000, 0.000, 17:36:24.434
123, -4253.14, -4762.91, -4717.21, -3977.07, 0.000, 0.000, 0.000, 17:36:24.449
124, -4015.79, -4534.73, -4488.55, -3734.77, 0.000, 0.000, 0.000, 17:36:24.449
125, -3880.65, -4393.44, -4366.78, -3631.51, 0.000, 0.000, 0.000, 17:36:24.449
126, -4256.05, -4813.30, -4750.33, -4017.02, 0.000, 0.000, 0.000, 17:36:24.449
127, -4243.36, -4775.47, -4713.68, -3981.41, 0.000, 0.000, 0.000, 17:36:24.464
128, -4014.67, -4512.03, -4467.25, -3735.33, 0.000, 0.000, 0.000, 17:36:24.464
129, -3884.91, -4402.58, -4360.70, -3627.26, 0.000, 0.000, 0.000, 17:36:24.480
130, -4258.08, -4809.06, -4746.88, -4022.51, 0.000, 0.000, 0.000, 17:36:24.480
131, -4258.76, -4777.03, -4717.43, -3980.43, 0.000, 0.000, 0.000, 17:36:24.480
132, -4021.59, -4540.69, -4484.21, -3752.23, 0.000, 0.000, 0.000, 17:36:24.480
133, -3884.55, -4407.06, -4364.66, -3626.99, 0.000, 0.000, 0.000, 17:36:24.494
134, -4261.59, -4821.28, -4753.63, -4016.97, 0.000, 0.000, 0.000, 17:36:24.494
135, -4254.73, -4777.59, -4713.20, -3981.80, 0.000, 0.000, 0.000, 17:36:24.539
136, -4021.60, -4531.99, -4479.40, -3743.98, 0.000, 0.000, 0.000, 17:36:24.539
137, -3883.33, -4398.46, -4355.22, -3620.75, 0.000, 0.000, 0.000, 17:36:24.540
138, -4250.95, -4785.81, -4732.08, -4001.40, 0.000, 0.000, 0.000, 17:36:24.540
139, -4259.98, -4784.78, -4720.49, -3978.91, 0.000, 0.000, 0.000, 17:36:24.540
140, -4024.13, -4524.33, -4485.94, -3740.60, 0.000, 0.000, 0.000, 17:36:24.541
141, -3885.97, -4399.12, -4367.53, -3627.51, 0.000, 0.000, 0.000, 17:36:24.541
142, -4257.39, -4804.67, -4750.98, -4018.79, 0.000, 0.000, 0.000, 17:36:24.541
143, -4271.26, -4787.05, -4727.32, -3991.89, 0.000, 0.000, 0.000, 17:36:24.542
144, -4034.80, -4535.83, -4495.87, -3753.34, 0.000, 0.000, 0.000, 17:36:24.542
145, -3891.62, -4412.84, -4362.34, -3627.67, 0.000, 0.000, 0.000, 17:36:24.554
146, -4241.86, -4788.72, -4739.25, -3999.21, 0.000, 0.000, 0.000, 17:36:24.554
147, -4247.19, -4783.30, -4718.15, -3986.58, 0.000, 0.000, 0.000, 17:36:24.570
148, -4017.07, -4526.33, -4483.88, -3749.09, 0.000, 0.000, 0.000, 17:36:24.570
149, -3883.63, -4402.03, -4362.32, -3634.53, 0.000, 0.000, 0.000, 17:36:24.570
150, -4248.99, -4799.32, -4736.90, -4015.56, 0.000, 0.000, 0.000, 17:36:24.570
151, -4248.66, -4780.00, -4714.63, -3982.88, 0.000, 0.000, 0.000, 17:36:24.584
152, -4031.06, -4540.76, -4493.68, -3751.30, 0.000, 0.000, 0.000, 17:36:24.584
153, -3898.38, -4406.94, -4356.53, -3630.66, 0.000, 0.000, 0.000, 17:36:24.599
154, -4240.84, -4801.03, -4743.23, -4004.72, 0.000, 0.000, 0.000, 17:36:24.599
155, -4275.93, -4811.73, -4741.71, -4007.12, 0.000, 0.000, 0.000, 17:36:24.600
156, -4047.81, -4553.47, -4505.57, -3772.19, 0.000, 0.000, 0.000, 17:36:24.600
157, -3889.48, -4400.25, -4369.65, -3632.54, 0.000, 0.000, 0.000, 17:36:24.614
158, -4243.57, -4788.89, -4725.81, -4001.02, 0.000, 0.000, 0.000, 17:36:24.615
159, -4263.16, -4788.92, -4717.80, -3986.56, 0.000, 0.000, 0.000, 17:36:24.630
160, -4007.66, -4512.87, -4463.70, -3755.15, 0.000, 0.000, 0.000, 17:36:24.630
161, -3876.02, -4387.85, -4343.30, -3629.55, 0.000, 0.000, 0.000, 17:36:24.630
162, -4234.71, -4784.35, -4721.01, -3996.31, 0.000, 0.000, 0.000, 17:36:24.630
163, -4256.28, -4774.81, -4720.41, -3991.71, 0.000, 0.000, 0.000, 17:36:24.645
164, -4036.24, -4551.09, -4496.49, -3763.83, 0.000, 0.000, 0.000, 17:36:24.645
165, -3881.06, -4384.74, -4341.60, -3621.42, 0.000, 0.000, 0.000, 17:36:24.660
166, -4241.65, -4775.14, -4718.31, -3990.65, 0.000, 0.000, 0.000, 17:36:24.660
167, -4281.32, -4789.23, -4734.99, -3998.60, 0.000, 0.000, 0.000, 17:36:24.660
168, -4039.63, -4541.16, -4497.61, -3761.68, 0.000, 0.000, 0.000, 17:36:24.660
169, -3874.93, -4378.81, -4347.60, -3610.87, 0.000, 0.000, 0.000, 17:36:24.674
170, -4232.55, -4760.29, -4727.24, -3985.80, 0.000, 0.000, 0.000, 17:36:24.674
171, -4267.54, -4777.48, -4728.20, -3991.42, 0.000, 0.000, 0.000, 17:36:24.734
172, -4037.66, -4543.50, -4500.51, -3760.73, 0.000, 0.000, 0.000, 17:36:24.734
173, -3895.34, -4400.37, -4360.76, -3622.24, 0.000, 0.000, 0.000, 17:36:24.735
174, -4230.14, -4774.26, -4718.89, -3983.56, 0.000, 0.000, 0.000, 17:36:24.735
175, -4268.35, -4791.05, -4732.26, -3987.11, 0.000, 0.000, 0.000, 17:36:24.749
176, -4044.71, -4536.44, -4489.49, -3761.43, 0.000, 0.000, 0.000, 17:36:24.749
177, -3873.18, -4373.01, -4339.91, -3611.35, 0.000, 0.000, 0.000, 17:36:24.750
178, -4231.40, -4769.02, -4712.87, -3987.74, 0.000, 0.000, 0.000, 17:36:24.750
179, -4272.17, -4800.52, -4736.70, -3999.87, 0.000, 0.000, 0.000, 17:36:24.750
180, -4046.50, -4556.85, -4509.62, -3771.90, 0.000, 0.000, 0.000, 17:36:24.750
181, -3882.53, -4397.54, -4353.43, -3614.51, 0.000, 0.000, 0.000, 17:36:24.751
182, -4233.43, -4779.76, -4720.97, -3985.37, 0.000, 0.000, 0.000, 17:36:24.751
183, -4273.16, -4798.99, -4730.81, -3988.50, 0.000, 0.000, 0.000, 17:36:24.752
184, -4048.37, -4541.81, -4514.59, -3767.29, 0.000, 0.000, 0.000, 17:36:24.752
185, -3881.91, -4393.66, -4352.48, -3619.07, 0.000, 0.000, 0.000, 17:36:24.752
186, -4227.69, -4776.50, -4728.32, -3988.48, 0.000, 0.000, 0.000, 17:36:24.752
187, -4280.23, -4796.83, -4748.75, -4004.34, 0.000, 0.000, 0.000, 17:36:24.764
188, -4052.82, -4555.02, -4501.29, -3770.93, 0.000, 0.000, 0.000, 17:36:24.764
189, -3879.40, -4391.56, -4355.60, -3614.24, 0.000, 0.000, 0.000, 17:36:24.779
190, -4228.24, -4763.31, -4714.52, -3982.46, 0.000, 0.000, 0.000, 17:36:24.779
191, -4269.49, -4798.96, -4731.52, -3991.72, 0.000, 0.000, 0.000, 17:36:24.780
192, -4039.61, -4558.38, -4510.67, -3762.90, 0.000, 0.000, 0.000, 17:36:24.780
193, -3870.00, -4385.49, -4341.02, -3605.46, 0.000, 0.000, 0.000, 17:36:24.794
194, -4222.09, -4763.32, -4705.26, -3963.72, 0.000, 0.000, 0.000, 17:36:24.794
195, -4276.96, -4796.98, -4731.97, -4007.65, 0.000, 0.000, 0.000, 17:36:24.810
196, -4046.92, -4557.70, -4503.82, -3766.24, 0.000, 0.000, 0.000, 17:36:24.810
197, -3877.79, -4390.39, -4357.24, -3611.91, 0.000, 0.000, 0.000, 17:36:24.824
198, -4219.20, -4777.05, -4710.02, -3972.33, 0.000, 0.000, 0.000, 17:36:24.824
199, -4276.69, -4797.87, -4737.64, -4004.36, 0.000, 0.000, 0.000, 17:36:24.825
200, -4048.85, -4557.39, -4510.81, -3768.97, 0.000, 0.000, 0.000, 17:36:24.825
0, -3875.03, -4378.21, -4353.75, -3609.29, 0.000, 0.000, 0.000, 17:36:24.826
1, -4221.08, -4758.88, -4705.41, -3970.50, 0.000, 0.000, 0.000, 17:36:24.839
2, -4276.77, -4806.38, -4738.50, -4004.94, 0.000, 0.000, 0.000, 17:36:24.839
3, -4049.90, -4568.53, -4511.82, -3772.24, 0.000, 0.000, 0.000, 17:36:24.854
4, -3876.08, -4387.41, -4357.08, -3614.13, 0.000, 0.000, 0.000, 17:36:24.854
5, -4213.52, -4760.61, -4697.85, -3970.48, 0.000, 0.000, 0.000, 17:36:24.855
6, -4277.63, -4810.71, -4743.38, -4010.36, 0.000, 0.000, 0.000, 17:36:24.855
7, -4061.75, -4580.37, -4529.06, -3784.65, 0.000, 0.000, 0.000, 17:36:24.869
8, -3874.58, -4376.70, -4339.83, -3605.14, 0.000, 0.000, 0.000, 17:36:24.869
9, -4198.36, -4744.57, -4688.50, -3956.54, 0.000, 0.000, 0.000, 17:36:24.884
10, -4275.82, -4809.66, -4747.33, -4007.14, 0.000, 0.000, 0.000, 17:36:24.884
11, -4062.14, -4569.12, -4518.08, -3781.24, 0.000, 0.000, 0.000, 17:36:24.885
12, -3883.94, -4390.37, -4357.10, -3613.17, 0.000, 0.000, 0.000, 17:36:24.885
13, -4203.79, -4732.72, -4690.01, -3959.47, 0.000, 0.000, 0.000, 17:36:24.900
14, -4275.79, -4799.03, -4739.66, -4008.54, 0.000, 0.000, 0.000, 17:36:24.900
15, -4062.49, -4573.68, -4525.11, -3787.29, 0.000, 0.000, 0.000, 17:36:24.914
16, -3866.29, -4394.30, -4348.47, -3604.54, 0.000, 0.000, 0.000, 17:36:24.914
17, -4197.69, -4745.53, -4689.16, -3953.10, 0.000, 0.000, 0.000, 17:36:24.916
18, -4265.40, -4782.50, -4735.55, -3999.41, 0.000, 0.000, 0.000, 17:36:24.916
19, -4065.29, -4568.10, -4531.08, -3782.34, 0.000, 0.000, 0.000, 17:36:24.944
20, -3890.42, -4397.68, -4361.98, -3625.69, 0.000, 0.000, 0.000, 17:36:24.944
21, -4199.23, -4743.34, -4692.09, -3951.28, 0.000, 0.000, 0.000, 17:36:24.945
22, -4271.60, -4797.47, -4738.05, -4005.53, 0.000, 0.000, 0.000, 17:36:24.945
23, -4066.25, -4568.80, -4518.59, -3785.23, 0.000, 0.000, 0.000, 17:36:24.945
24, -3882.02, -4387.52, -4349.57, -3615.18, 0.000, 0.000, 0.000, 17:36:24.946
25, -4189.68, -4735.39, -4691.11, -3949.43, 0.000, 0.000, 0.000, 17:36:24.959
26, -4287.89, -4805.17, -4754.55, -4008.73, 0.000, 0.000, 0.000, 17:36:24.959
27, -4075.41, -4584.38, -4532.48, -3784.59, 0.000, 0.000, 0.000, 17:36:24.989
28, -3883.47, -4374.23, -4350.46, -3612.33, 0.000, 0.000, 0.000, 17:36:24.989
29, -4197.23, -4732.94, -4681.44, -3950.83, 0.000, 0.000, 0.000, 17:36:24.990
30, -4275.14, -4785.72, -4737.89, -4021.18, 0.000, 0.000, 0.000, 17:36:24.990
31, -4065.16, -4570.69, -4515.12, -3790.34, 0.000, 0.000, 0.000, 17:36:24.990
32, -3887.25, -4397.87, -4358.47, -3619.56, 0.000, 0.000, 0.000, 17:36:24.991
33, -4190.22, -4743.90, -4683.64, -3938.64, 0.000, 0.000, 0.000, 17:36:24.991
34, -4280.53, -4803.58, -4741.57, -4004.24, 0.000, 0.000, 0.000, 17:36:24.991
35, -4070.48, -4572.21, -4526.85, -3787.45, 0.000, 0.000, 0.000, 17:36:25.004
36, -3879.19, -4369.43, -4351.61, -3610.28, 0.000, 0.000, 0.000, 17:36:25.004
37, -4186.37, -4725.13, -4672.32, -3945.54, 0.000, 0.000, 0.000, 17:36:25.026
38, -4278.44, -4816.13, -4749.81, -4018.34, 0.000, 0.000, 0.000, 17:36:25.026
39, -4071.82, -4584.75, -4534.43, -3798.04, 0.000, 0.000, 0.000, 17:36:25.033
40, -3875.55, -4383.90, -4359.37, -3612.99, 0.000, 0.000, 0.000, 17:36:25.034
41, -4177.71, -4728.38, -4669.98, -3933.25, 0.000, 0.000, 0.000, 17:36:25.034
42, -4293.49, -4820.53, -4754.33, -4026.04, 0.000, 0.000, 0.000, 17:36:25.034
43, -4081.94, -4591.04, -4536.96, -3804.35, 0.000, 0.000, 0.000, 17:36:25.049
44, -3885.51, -4401.86, -4359.03, -3620.99, 0.000, 0.000, 0.000, 17:36:25.049
45, -4169.89, -4718.39, -4669.04, -3938.25, 0.000, 0.000, 0.000, 17:36:25.064
46, -4292.47, -4821.26, -4758.86, -4016.74, 0.000, 0.000, 0.000, 17:36:25.064
47, -4071.08, -4585.30, -4525.92, -3793.12, 0.000, 0.000, 0.000, 17:36:25.080
48, -3883.88, -4369.43, -4354.47, -3607.20, 0.000, 0.000, 0.000, 17:36:25.080
49, -4178.05, -4735.27, -4673.91, -3929.20, 0.000, 0.000, 0.000, 17:36:25.080
50, -4289.98, -4821.61, -4754.60, -4023.75, 0.000, 0.000, 0.000, 17:36:25.080
51, -4081.88, -4586.01, -4538.69, -3800.00, 0.000, 0.000, 0.000, 17:36:25.095
52, -3885.19, -4386.52, -4349.66, -3613.84, 0.000, 0.000, 0.000, 17:36:25.095
53, -4174.60, -4718.34, -4665.12, -3931.56, 0.000, 0.000, 0.000, 17:36:25.096
54, -4290.29, -4823.19, -4762.16, -4026.69, 0.000, 0.000, 0.000, 17:36:25.096
55, -4088.79, -4604.84, -4559.37, -3809.17, 0.000, 0.000, 0.000, 17:36:25.110
56, -3878.20, -4381.30, -4346.13, -3614.40, 0.000, 0.000, 0.000, 17:36:25.110
57, -4161.44, -4712.15, -4650.18, -3930.90, 0.000, 0.000, 0.000, 17:36:25.124
58, -4290.04, -4824.62, -4746.01, -4029.84, 0.000, 0.000, 0.000, 17:36:25.124
59, -4071.53, -4582.50, -4528.15, -3816.24, 0.000, 0.000, 0.000, 17:36:25.125
60, -3864.06, -4378.63, -4321.97, -3611.86, 0.000, 0.000, 0.000, 17:36:25.125
61, -4149.75, -4702.16, -4636.04, -3925.20, 0.000, 0.000, 0.000, 17:36:25.139
62, -4280.35, -4810.60, -4747.19, -4026.35, 0.000, 0.000, 0.000, 17:36:25.140
63, -4074.48, -4582.89, -4532.19, -3807.67, 0.000, 0.000, 0.000, 17:36:25.154
64, -3867.80, -4379.34, -4344.56, -3612.19, 0.000, 0.000, 0.000, 17:36:25.154
65, -4158.23, -4712.46, -4646.46, -3925.63, 0.000, 0.000, 0.000, 17:36:25.155
66, -4299.10, -4819.83, -4757.04, -4030.27, 0.000, 0.000, 0.000, 17:36:25.155
67, -4081.99, -4591.76, -4534.64, -3802.46, 0.000, 0.000, 0.000, 17:36:25.169
68, -3870.69, -4387.40, -4339.08, -3608.52, 0.000, 0.000, 0.000, 17:36:25.169
69, -4164.10, -4703.73, -4646.49, -3920.03, 0.000, 0.000, 0.000, 17:36:25.184
70, -4298.05, -4834.04, -4757.08, -4031.48, 0.000, 0.000, 0.000, 17:36:25.184
71, -4089.23, -4600.80, -4540.91, -3807.05, 0.000, 0.000, 0.000, 17:36:25.185
72, -3869.21, -4383.38, -4341.15, -3608.50, 0.000, 0.000, 0.000, 17:36:25.186
73, -4155.05, -4690.59, -4644.67, -3922.14, 0.000, 0.000, 0.000, 17:36:25.199
74, -4300.05, -4827.47, -4767.65, -4039.29, 0.000, 0.000, 0.000, 17:36:25.199
75, -4090.84, -4594.33, -4546.82, -3818.77, 0.000, 0.000, 0.000, 17:36:25.214
76, -3866.44, -4361.91, -4338.61, -3603.77, 0.000, 0.000, 0.000, 17:36:25.214
77, -4155.08, -4692.15, -4640.44, -3902.56, 0.000, 0.000, 0.000, 17:36:25.215
78, -4291.45, -4820.42, -4760.69, -4015.29, 0.000, 0.000, 0.000, 17:36:25.215
79, -4072.67, -4573.68, -4537.86, -3800.66, 0.000, 0.000, 0.000, 17:36:25.229
80, -3863.06, -4369.43, -4331.86, -3597.90, 0.000, 0.000, 0.000, 17:36:25.229
81, -4140.78, -4679.75, -4627.11, -3897.96, 0.000, 0.000, 0.000, 17:36:25.244
82, -4286.63, -4808.64, -4750.60, -4023.20, 0.000, 0.000, 0.000, 17:36:25.244
83, -4080.36, -4593.54, -4539.90, -3807.13, 0.000, 0.000, 0.000, 17:36:25.244
84, -3869.39, -4389.35, -4354.24, -3602.61, 0.000, 0.000, 0.000, 17:36:25.246
85, -4148.66, -4705.16, -4644.89, -3908.11, 0.000, 0.000, 0.000, 17:36:25.259
86, -4291.43, -4825.84, -4761.05, -4026.63, 0.000, 0.000, 0.000, 17:36:25.259
87, -4074.04, -4585.96, -4540.78, -3803.74, 0.000, 0.000, 0.000, 17:36:25.274
88, -3869.84, -4389.15, -4344.89, -3605.69, 0.000, 0.000, 0.000, 17:36:25.274
89, -4140.83, -4686.81, -4635.48, -3903.95, 0.000, 0.000, 0.000, 17:36:25.274
90, -4293.07, -4836.50, -4765.69, -4028.44, 0.000, 0.000, 0.000, 17:36:25.274
91, -4076.58, -4593.94, -4547.33, -3802.94, 0.000, 0.000, 0.000, 17:36:25.289
92, -3876.26, -4383.71, -4341.67, -3603.24, 0.000, 0.000, 0.000, 17:36:25.290
93, -4142.71, -4685.87, -4627.26, -3908.16, 0.000, 0.000, 0.000, 17:36:25.304
94, -4311.36, -4836.22, -4768.58, -4048.03, 0.000, 0.000, 0.000, 17:36:25.304
95, -4099.62, -4613.85, -4555.13, -3820.62, 0.000, 0.000, 0.000, 17:36:25.305
96, -3881.42, -4393.77, -4356.78, -3620.14, 0.000, 0.000, 0.000, 17:36:25.305
97, -4135.42, -4677.85, -4625.94, -3891.95, 0.000, 0.000, 0.000, 17:36:25.319
98, -4301.69, -4830.01, -4765.94, -4041.93, 0.000, 0.000, 0.000, 17:36:25.319
99, -4104.81, -4620.68, -4565.90, -3819.45, 0.000, 0.000, 0.000, 17:36:25.334
100, -3877.20, -4371.91, -4338.48, -3598.62, 0.000, 0.000, 0.000, 17:36:25.334
101, -4136.56, -4681.20, -4637.05, -3888.06, 0.000, 0.000, 0.000, 17:36:25.334
102, -4321.84, -4843.51, -4777.01, -4029.38, 0.000, 0.000, 0.000, 17:36:25.334
103, -4101.86, -4616.59, -4560.57, -3808.19, 0.000, 0.000, 0.000, 17:36:25.364
104, -3875.85, -4379.46, -4352.16, -3596.55, 0.000, 0.000, 0.000, 17:36:25.364
105, -4131.44, -4672.53, -4632.91, -3883.07, 0.000, 0.000, 0.000, 17:36:25.366
106, -4314.15, -4852.56, -4776.61, -4048.97, 0.000, 0.000, 0.000, 17:36:25.366
107, -4096.35, -4602.60, -4554.95, -3818.99, 0.000, 0.000, 0.000, 17:36:25.366
108, -3886.98, -4386.12, -4368.51, -3615.32, 0.000, 0.000, 0.000, 17:36:25.366
109, -4135.62, -4677.97, -4628.92, -3888.72, 0.000, 0.000, 0.000, 17:36:25.380
110, -4318.34, -4853.00, -4779.88, -4046.58, 0.000, 0.000, 0.000, 17:36:25.380
111, -4101.21, -4612.53, -4564.72, -3821.02, 0.000, 0.000, 0.000, 17:36:25.395
112, -3896.69, -4413.68, -4370.67, -3631.98, 0.000, 0.000, 0.000, 17:36:25.395
113, -4148.62, -4699.85, -4646.42, -3909.95, 0.000, 0.000, 0.000, 17:36:25.395
114, -4312.32, -4837.09, -4775.53, -4035.71, 0.000, 0.000, 0.000, 17:36:25.395
115, -4098.29, -4622.14, -4565.67, -3814.94, 0.000, 0.000, 0.000, 17:36:25.409
116, -3881.33, -4386.39, -4347.87, -3606.80, 0.000, 0.000, 0.000, 17:36:25.409
117, -4118.11, -4666.87, -4610.73, -3874.21, 0.000, 0.000, 0.000, 17:36:25.424
118, -4299.41, -4814.95, -4758.59, -4034.86, 0.000, 0.000, 0.000, 17:36:25.424
119, -4104.88, -4607.13, -4558.85, -3820.16, 0.000, 0.000, 0.000, 17:36:25.432
120, -3880.29, -4384.76, -4354.73, -3612.89, 0.000, 0.000, 0.000, 17:36:25.432
121, -4128.62, -4663.28, -4612.73, -3881.84, 0.000, 0.000, 0.000, 17:36:25.440
122, -4302.71, -4834.89, -4775.35, -4039.39, 0.000, 0.000, 0.000, 17:36:25.440
123, -4099.08, -4620.81, -4567.76, -3822.78, 0.000, 0.000, 0.000, 17:36:25.455
124, -3877.76, -4390.95, -4342.07, -3608.94, 0.000, 0.000, 0.000, 17:36:25.455
125, -4102.38, -4652.84, -4598.38, -3866.50, 0.000, 0.000, 0.000, 17:36:25.469
126, -4317.00, -4847.00, -4780.10, -4043.53, 0.000, 0.000, 0.000, 17:36:25.469
127, -4116.11, -4630.50, -4573.13, -3828.84, 0.000, 0.000, 0.000, 17:36:25.470
128, -3896.17, -4394.79, -4364.71, -3614.50, 0.000, 0.000, 0.000, 17:36:25.471
129, -4120.71, -4655.43, -4612.94, -3877.87, 0.000, 0.000, 0.000, 17:36:25.500
130, -4316.26, -4830.48, -4784.25, -4049.37, 0.000, 0.000, 0.000, 17:36:25.500
131, -4103.92, -4616.64, -4571.44, -3827.30, 0.000, 0.000, 0.000, 17:36:25.500
132, -3889.43, -4396.66, -4359.72, -3612.00, 0.000, 0.000, 0.000, 17:36:25.500
133, -4126.61, -4660.54, -4609.94, -3870.90, 0.000, 0.000, 0.000, 17:36:25.501
134, -4312.92, -4846.62, -4783.51, -4045.43, 0.000, 0.000, 0.000, 17:36:25.501
135, -4118.90, -4617.72, -4569.28, -3835.88, 0.000, 0.000, 0.000, 17:36:25.501
136, -3880.81, -4389.67, -4345.12, -3615.51, 0.000, 0.000, 0.000, 17:36:25.501
137, -4098.92, -4649.52, -4600.09, -3865.91, 0.000, 0.000, 0.000, 17:36:25.515
138, -4317.17, -4847.09, -4784.50, -4045.81, 0.000, 0.000, 0.000, 17:36:25.515
139, -4106.20, -4613.31, -4573.92, -3831.49, 0.000, 0.000, 0.000, 17:36:25.530
140, -3874.87, -4388.46, -4346.01, -3612.58, 0.000, 0.000, 0.000, 17:36:25.530
141, -4106.85, -4650.28, -4594.07, -3861.89, 0.000, 0.000, 0.000, 17:36:25.560
142, -4318.41, -4841.27, -4779.29, -4045.69, 0.000, 0.000, 0.000, 17:36:25.560
143, -4118.34, -4622.61, -4576.30, -3833.17, 0.000, 0.000, 0.000, 17:36:25.560
144, -3879.59, -4381.64, -4343.69, -3615.15, 0.000, 0.000, 0.000, 17:36:25.560
145, -4091.19, -4630.83, -4590.99, -3850.37, 0.000, 0.000, 0.000, 17:36:25.561
146, -4311.70, -4856.41, -4786.54, -4048.98, 0.000, 0.000, 0.000, 17:36:25.561
147, -4116.72, -4631.43, -4579.64, -3841.01, 0.000, 0.000, 0.000, 17:36:25.561
148, -3895.82, -4407.29, -4370.83, -3620.84, 0.000, 0.000, 0.000, 17:36:25.561
149, -4100.82, -4643.26, -4583.68, -3850.04, 0.000, 0.000, 0.000, 17:36:25.588
150, -4314.67, -4852.27, -4781.21, -4058.54, 0.000, 0.000, 0.000, 17:36:25.589
151, -4114.99, -4628.23, -4587.97, -3840.02, 0.000, 0.000, 0.000, 17:36:25.589
152, -3888.33, -4390.62, -4351.93, -3609.39, 0.000, 0.000, 0.000, 17:36:25.589
153, -4101.43, -4648.88, -4593.56, -3851.49, 0.000, 0.000, 0.000, 17:36:25.604
154, -4316.79, -4844.69, -4779.69, -4052.41, 0.000, 0.000, 0.000, 17:36:25.604
155, -4112.33, -4625.20, -4574.65, -3845.65, 0.000, 0.000, 0.000, 17:36:25.605
156, -3885.15, -4392.15, -4342.43, -3611.84, 0.000, 0.000, 0.000, 17:36:25.605
157, -4083.50, -4615.87, -4564.15, -3849.61, 0.000, 0.000, 0.000, 17:36:25.619
158, -4310.08, -4841.97, -4780.23, -4051.99, 0.000, 0.000, 0.000, 17:36:25.619
159, -4105.71, -4634.34, -4567.61, -3841.07, 0.000, 0.000, 0.000, 17:36:25.649
160, -3888.45, -4389.03, -4347.96, -3618.15, 0.000, 0.000, 0.000, 17:36:25.649
161, -4090.97, -4632.91, -4585.92, -3850.12, 0.000, 0.000, 0.000, 17:36:25.650
162, -4313.13, -4851.25, -4782.70, -4048.89, 0.000, 0.000, 0.000, 17:36:25.650
163, -4124.01, -4633.62, -4591.17, -3844.36, 0.000, 0.000, 0.000, 17:36:25.650
164, -3889.91, -4400.37, -4358.16, -3619.20, 0.000, 0.000, 0.000, 17:36:25.650
165, -4088.18, -4628.63, -4581.51, -3854.46, 0.000, 0.000, 0.000, 17:36:25.651
166, -4330.73, -4870.33, -4794.42, -4065.60, 0.000, 0.000, 0.000, 17:36:25.651
167, -4126.05, -4642.09, -4595.62, -3855.17, 0.000, 0.000, 0.000, 17:36:25.664
168, -3900.87, -4400.51, -4360.56, -3626.18, 0.000, 0.000, 0.000, 17:36:25.664
169, -4086.05, -4617.43, -4569.79, -3836.22, 0.000, 0.000, 0.000, 17:36:25.680
170, -4312.12, -4854.63, -4787.12, -4055.01, 0.000, 0.000, 0.000, 17:36:25.680
171, -4126.35, -4640.97, -4582.36, -3845.28, 0.000, 0.000, 0.000, 17:36:25.695
172, -3881.03, -4382.16, -4350.00, -3614.12, 0.000, 0.000, 0.000, 17:36:25.695
173, -4080.40, -4624.14, -4575.83, -3838.68, 0.000, 0.000, 0.000, 17:36:25.696
174, -4320.53, -4852.72, -4777.89, -4053.23, 0.000, 0.000, 0.000, 17:36:25.696
175, -4120.60, -4637.04, -4574.33, -3845.75, 0.000, 0.000, 0.000, 17:36:25.709
176, -3901.92, -4409.60, -4362.84, -3623.66, 0.000, 0.000, 0.000, 17:36:25.709
177, -4069.86, -4610.99, -4557.38, -3830.44, 0.000, 0.000, 0.000, 17:36:25.724
178, -4321.97, -4850.67, -4779.35, -4051.28, 0.000, 0.000, 0.000, 17:36:25.724
179, -4118.08, -4630.75, -4573.26, -3843.49, 0.000, 0.000, 0.000, 17:36:25.725
180, -3886.74, -4397.52, -4360.72, -3613.27, 0.000, 0.000, 0.000, 17:36:25.725
181, -4078.81, -4604.65, -4569.18, -3829.53, 0.000, 0.000, 0.000, 17:36:25.739
182, -4319.82, -4853.83, -4789.25, -4050.45, 0.000, 0.000, 0.000, 17:36:25.739
183, -4133.11, -4647.25, -4597.69, -3855.33, 0.000, 0.000, 0.000, 17:36:25.754
184, -3896.29, -4403.68, -4363.58, -3622.08, 0.000, 0.000, 0.000, 17:36:25.754
185, -4082.52, -4633.55, -4574.25, -3831.11, 0.000, 0.000, 0.000, 17:36:25.755
186, -4320.27, -4856.82, -4797.50, -4056.58, 0.000, 0.000, 0.000, 17:36:25.755
187, -4134.22, -4637.63, -4579.69, -3845.79, 0.000, 0.000, 0.000, 17:36:25.769
188, -3886.78, -4393.26, -4358.93, -3622.90, 0.000, 0.000, 0.000, 17:36:25.769
189, -4070.95, -4598.10, -4559.12, -3821.13, 0.000, 0.000, 0.000, 17:36:25.784
190, -4319.94, -4854.11, -4797.32, -4053.50, 0.000, 0.000, 0.000, 17:36:25.784
191, -4136.85, -4651.09, -4606.00, -3863.64, 0.000, 0.000, 0.000, 17:36:25.785
192, -3899.17, -4393.37, -4356.06, -3624.73, 0.000, 0.000, 0.000, 17:36:25.785
193, -4058.77, -4592.36, -4553.81, -3817.21, 0.000, 0.000, 0.000, 17:36:25.799
194, -4327.89, -4865.02, -4798.01, -4066.94, 0.000, 0.000, 0.000, 17:36:25.799
195, -4139.90, -4646.04, -4599.83, -3858.80, 0.000, 0.000, 0.000, 17:36:25.814
196, -3904.32, -4417.71, -4374.20, -3633.17, 0.000, 0.000, 0.000, 17:36:25.814
197, -4070.92, -4619.18, -4566.27, -3820.00, 0.000, 0.000, 0.000, 17:36:25.815
198, -4321.94, -4868.59, -4797.92, -4063.78, 0.000, 0.000, 0.000, 17:36:25.815
199, -4130.97, -4634.18, -4592.25, -3850.35, 0.000, 0.000, 0.000, 17:36:25.830
200, -3896.22, -4407.79, -4357.50, -3628.69, 0.000, 0.000, 0.000, 17:36:25.830
0, -4062.60, -4596.80, -4555.51, -3817.76, 0.000, 0.000, 0.000, 17:36:25.830
1, -4339.59, -4879.34, -4808.10, -4070.59, 0.000, 0.000, 0.000, 17:36:25.844
2, -4135.33, -4642.96, -4599.24, -3858.93, 0.000, 0.000, 0.000, 17:36:25.845
3, -3895.02, -4389.94, -4358.50, -3624.89, 0.000, 0.000, 0.000, 17:36:25.860
4, -4055.16, -4592.42, -4545.35, -3817.00, 0.000, 0.000, 0.000, 17:36:25.860
5, -4316.42, -4862.86, -4794.65, -4061.38, 0.000, 0.000, 0.000, 17:36:25.861
6, -4137.73, -4656.73, -4604.32, -3858.08, 0.000, 0.000, 0.000, 17:36:25.861
7, -3899.98, -4409.37, -4373.37, -3627.62, 0.000, 0.000, 0.000, 17:36:25.874
8, -4066.64, -4603.38, -4551.16, -3813.89, 0.000, 0.000, 0.000, 17:36:25.875
9, -4321.49, -4864.67, -4805.22, -4072.02, 0.000, 0.000, 0.000, 17:36:25.889
10, -4137.41, -4651.69, -4604.63, -3869.86, 0.000, 0.000, 0.000, 17:36:25.889
11, -3900.24, -4405.69, -4365.39, -3632.43, 0.000, 0.000, 0.000, 17:36:25.896
12, -4044.92, -4592.55, -4553.69, -3811.49, 0.000, 0.000, 0.000, 17:36:25.896
13, -4319.35, -4850.87, -4795.42, -4066.22, 0.000, 0.000, 0.000, 17:36:25.905
14, -4153.23, -4658.00, -4604.03, -3865.02, 0.000, 0.000, 0.000, 17:36:25.905
15, -3906.05, -4415.47, -4382.56, -3628.75, 0.000, 0.000, 0.000, 17:36:25.919
16, -4064.33, -4604.03, -4547.06, -3812.71, 0.000, 0.000, 0.000, 17:36:25.919
17, -4326.25, -4866.70, -4800.04, -4064.49, 0.000, 0.000, 0.000, 17:36:25.920
18, -4134.39, -4650.16, -4589.95, -3861.21, 0.000, 0.000, 0.000, 17:36:25.920
19, -3886.86, -4405.67, -4364.93, -3620.70, 0.000, 0.000, 0.000, 17:36:25.934
20, -4032.58, -4573.90, -4527.54, -3799.63, 0.000, 0.000, 0.000, 17:36:25.934
21, -4314.89, -4867.05, -4794.64, -4072.98, 0.000, 0.000, 0.000, 17:36:25.949
22, -4124.31, -4653.60, -4605.67, -3855.80, 0.000, 0.000, 0.000, 17:36:25.949
23, -3896.36, -4399.90, -4363.10, -3634.86, 0.000, 0.000, 0.000, 17:36:25.950
24, -4049.81, -4585.72, -4543.18, -3799.17, 0.000, 0.000, 0.000, 17:36:25.950
25, -4333.30, -4873.56, -4806.05, -4073.41, 0.000, 0.000, 0.000, 17:36:25.965
26, -4142.32, -4659.89, -4611.32, -3867.32, 0.000, 0.000, 0.000, 17:36:25.965
27, -3919.51, -4427.81, -4391.76, -3641.48, 0.000, 0.000, 0.000, 17:36:26.009
28, -4048.08, -4580.06, -4547.42, -3803.74, 0.000, 0.000, 0.000, 17:36:26.009
29, -4331.85, -4865.59, -4800.84, -4069.89, 0.000, 0.000, 0.000, 17:36:26.009
30, -4143.87, -4664.49, -4605.68, -3868.26, 0.000, 0.000, 0.000, 17:36:26.010
31, -3893.04, -4402.35, -4364.69, -3628.97, 0.000, 0.000, 0.000, 17:36:26.010
32, -4038.21, -4590.91, -4534.99, -3791.49, 0.000, 0.000, 0.000, 17:36:26.010
33, -4328.14, -4864.83, -4801.30, -4066.03, 0.000, 0.000, 0.000, 17:36:26.010
34, -4152.93, -4651.59, -4611.52, -3871.36, 0.000, 0.000, 0.000, 17:36:26.011
35, -3906.16, -4402.31, -4371.94, -3632.46, 0.000, 0.000, 0.000, 17:36:26.012
36, -4031.17, -4568.76, -4529.08, -3786.34, 0.000, 0.000, 0.000, 17:36:26.012
37, -4326.08, -4856.03, -4791.81, -4071.36, 0.000, 0.000, 0.000, 17:36:26.024
38, -4142.88, -4657.89, -4598.24, -3873.33, 0.000, 0.000, 0.000, 17:36:26.024
39, -3907.61, -4422.08, -4373.75, -3627.98, 0.000, 0.000, 0.000, 17:36:26.039
40, -4027.46, -4570.48, -4513.34, -3776.91, 0.000, 0.000, 0.000, 17:36:26.039
41, -4322.96, -4856.30, -4787.88, -4071.51, 0.000, 0.000, 0.000, 17:36:26.040
42, -4143.22, -4652.33, -4602.06, -3863.91, 0.000, 0.000, 0.000, 17:36:26.040
43, -3894.81, -4395.77, -4363.02, -3620.46, 0.000, 0.000, 0.000, 17:36:26.054
44, -4031.77, -4558.62, -4513.89, -3785.31, 0.000, 0.000, 0.000, 17:36:26.054
45, -4323.65, -4871.21, -4804.16, -4062.31, 0.000, 0.000, 0.000, 17:36:26.069
46, -4144.54, -4658.62, -4608.63, -3873.57, 0.000, 0.000, 0.000, 17:36:26.070
47, -3914.18, -4414.31, -4376.90, -3634.54, 0.000, 0.000, 0.000, 17:36:26.070
48, -4018.96, -4552.64, -4496.23, -3773.46, 0.000, 0.000, 0.000, 17:36:26.070
49, -4319.81, -4875.37, -4796.90, -4063.22, 0.000, 0.000, 0.000, 17:36:26.084
50, -4160.10, -4668.02, -4605.22, -3878.34, 0.000, 0.000, 0.000, 17:36:26.085
51, -3922.19, -4423.06, -4388.22, -3638.05, 0.000, 0.000, 0.000, 17:36:26.099
52, -4024.59, -4559.61, -4511.76, -3775.72, 0.000, 0.000, 0.000, 17:36:26.099
53, -4327.19, -4868.99, -4800.87, -4059.18, 0.000, 0.000, 0.000, 17:36:26.100
54, -4158.04, -4668.63, -4617.72, -3872.65, 0.000, 0.000, 0.000, 17:36:26.100
55, -3910.69, -4404.13, -4372.61, -3628.01, 0.000, 0.000, 0.000, 17:36:26.114
56, -4013.84, -4551.40, -4504.43, -3767.26, 0.000, 0.000, 0.000, 17:36:26.114
57, -4327.72, -4870.42, -4810.76, -4062.72, 0.000, 0.000, 0.000, 17:36:26.129
58, -4172.79, -4683.63, -4627.34, -3886.75, 0.000, 0.000, 0.000, 17:36:26.129
59, -3912.54, -4427.87, -4377.75, -3639.57, 0.000, 0.000, 0.000, 17:36:26.129
60, -4017.64, -4560.59, -4511.00, -3762.59, 0.000, 0.000, 0.000, 17:36:26.129
61, -4331.78, -4869.89, -4811.82, -4076.72, 0.000, 0.000, 0.000, 17:36:26.144
62, -4163.32, -4684.48, -4619.55, -3890.46, 0.000, 0.000, 0.000, 17:36:26.144
63, -3896.93, -4411.16, -4360.98, -3628.36, 0.000, 0.000, 0.000, 17:36:26.159
64, -3990.45, -4524.30, -4483.24, -3751.10, 0.000, 0.000, 0.000, 17:36:26.159
65, -4314.17, -4853.74, -4801.37, -4059.99, 0.000, 0.000, 0.000, 17:36:26.159
66, -4152.29, -4664.98, -4619.62, -3877.29, 0.000, 0.000, 0.000, 17:36:26.159
67, -3910.61, -4416.20, -4377.66, -3634.64, 0.000, 0.000, 0.000, 17:36:26.174
68, -3995.85, -4521.12, -4492.56, -3759.71, 0.000, 0.000, 0.000, 17:36:26.174
69, -4319.24, -4850.94, -4787.81, -4064.95, 0.000, 0.000, 0.000, 17:36:26.189
70, -4150.21, -4657.13, -4615.40, -3877.65, 0.000, 0.000, 0.000, 17:36:26.189
71, -3903.75, -4413.87, -4364.34, -3630.64, 0.000, 0.000, 0.000, 17:36:26.190
72, -3987.03, -4524.35, -4479.49, -3746.57, 0.000, 0.000, 0.000, 17:36:26.190
73, -4304.89, -4832.89, -4771.50, -4050.66, 0.000, 0.000, 0.000, 17:36:26.204
74, -4151.75, -4664.99, -4609.12, -3877.44, 0.000, 0.000, 0.000, 17:36:26.204
75, -3912.94, -4418.73, -4391.85, -3633.51, 0.000, 0.000, 0.000, 17:36:26.219
76, -4003.60, -4542.77, -4500.60, -3756.46, 0.000, 0.000, 0.000, 17:36:26.219
77, -4327.12, -4876.54, -4812.86, -4075.89, 0.000, 0.000, 0.000, 17:36:26.227
78, -4167.66, -4684.58, -4632.94, -3893.13, 0.000, 0.000, 0.000, 17:36:26.227
79, -3919.92, -4423.07, -4397.83, -3645.43, 0.000, 0.000, 0.000, 17:36:26.234
80, -4006.12, -4542.42, -4496.88, -3757.53, 0.000, 0.000, 0.000, 17:36:26.234
81, -4329.44, -4872.64, -4814.24, -4071.83, 0.000, 0.000, 0.000, 17:36:26.249
82, -4172.95, -4695.36, -4641.36, -3899.31, 0.000, 0.000, 0.000, 17:36:26.249
83, -3936.68, -4438.27, -4399.31, -3651.80, 0.000, 0.000, 0.000, 17:36:26.250
84, -4000.64, -4540.18, -4497.17, -3762.91, 0.000, 0.000, 0.000, 17:36:26.250
85, -4342.70, -4882.54, -4813.59, -4076.70, 0.000, 0.000, 0.000, 17:36:26.265
86, -4161.55, -4695.62, -4624.34, -3888.66, 0.000, 0.000, 0.000, 17:36:26.265
87, -3916.83, -4417.06, -4373.47, -3648.30, 0.000, 0.000, 0.000, 17:36:26.279
88, -3991.16, -4524.63, -4479.52, -3752.22, 0.000, 0.000, 0.000, 17:36:26.279
89, -4331.29, -4874.78, -4806.01, -4076.88, 0.000, 0.000, 0.000, 17:36:26.310
90, -4172.60, -4683.95, -4633.26, -3892.36, 0.000, 0.000, 0.000, 17:36:26.310
91, -3938.86, -4436.72, -4400.92, -3657.53, 0.000, 0.000, 0.000, 17:36:26.310
92, -4002.45, -4525.98, -4496.03, -3753.30, 0.000, 0.000, 0.000, 17:36:26.310
93, -4342.31, -4876.98, -4810.47, -4083.33, 0.000, 0.000, 0.000, 17:36:26.311
94, -4173.54, -4708.35, -4645.92, -3905.19, 0.000, 0.000, 0.000, 17:36:26.311
95, -3933.57, -4434.97, -4396.56, -3656.63, 0.000, 0.000, 0.000, 17:36:26.311
96, -4001.92, -4525.48, -4494.18, -3754.58, 0.000, 0.000, 0.000, 17:36:26.311
97, -4342.61, -4883.42, -4817.63, -4083.29, 0.000, 0.000, 0.000, 17:36:26.324
98, -4183.30, -4691.18, -4647.06, -3906.77, 0.000, 0.000, 0.000, 17:36:26.324
99, -3934.64, -4439.60, -4396.09, -3658.39, 0.000, 0.000, 0.000, 17:36:26.339
100, -3985.84, -4527.05, -4466.11, -3740.91, 0.000, 0.000, 0.000, 17:36:26.339
101, -4312.33, -4862.33, -4800.74, -4070.78, 0.000, 0.000, 0.000, 17:36:26.341
102, -4176.76, -4696.76, -4643.51, -3905.90, 0.000, 0.000, 0.000, 17:36:26.341
103, -3933.25, -4432.03, -4400.67, -3656.37, 0.000, 0.000, 0.000, 17:36:26.354
104, -3994.56, -4524.79, -4488.77, -3734.20, 0.000, 0.000, 0.000, 17:36:26.354
105, -4327.12, -4873.41, -4816.54, -4072.90, 0.000, 0.000, 0.000, 17:36:26.369
106, -4184.62, -4696.27, -4647.69, -3905.12, 0.000, 0.000, 0.000, 17:36:26.369
107, -3937.73, -4421.00, -4388.64, -3660.97, 0.000, 0.000, 0.000, 17:36:26.370
108, -3975.44, -4518.86, -4464.56, -3728.92, 0.000, 0.000, 0.000, 17:36:26.370
109, -4320.77, -4864.37, -4801.35, -4071.25, 0.000, 0.000, 0.000, 17:36:26.384
110, -4184.25, -4693.74, -4641.32, -3902.85, 0.000, 0.000, 0.000, 17:36:26.384
111, -3942.23, -4431.77, -4410.77, -3666.07, 0.000, 0.000, 0.000, 17:36:26.399
112, -3973.22, -4513.41, -4466.19, -3723.74, 0.000, 0.000, 0.000, 17:36:26.399
113, -4323.72, -4872.62, -4802.78, -4069.27, 0.000, 0.000, 0.000, 17:36:26.399
114, -4179.47, -4697.89, -4645.63, -3909.49, 0.000, 0.000, 0.000, 17:36:26.399
115, -3932.66, -4433.37, -4401.75, -3658.92, 0.000, 0.000, 0.000, 17:36:26.415
116, -3975.20, -4510.86, -4478.58, -3737.75, 0.000, 0.000, 0.000, 17:36:26.415
117, -4325.14, -4864.85, -4803.33, -4072.02, 0.000, 0.000, 0.000, 17:36:26.430
118, -4177.09, -4684.47, -4642.12, -3897.40, 0.000, 0.000, 0.000, 17:36:26.430
119, -3932.71, -4434.44, -4393.83, -3654.48, 0.000, 0.000, 0.000, 17:36:26.430
120, -3977.57, -4489.99, -4456.52, -3721.71, 0.000, 0.000, 0.000, 17:36:26.430
121, -4325.45, -4865.95, -4809.87, -4068.38, 0.000, 0.000, 0.000, 17:36:26.445
122, -4178.60, -4699.21, -4637.21, -3906.42, 0.000, 0.000, 0.000, 17:36:26.445
123, -3934.65, -4429.53, -4392.22, -3658.90, 0.000, 0.000, 0.000, 17:36:26.459
124, -3977.77, -4499.57, -4464.89, -3721.33, 0.000, 0.000, 0.000, 17:36:26.459
125, -4330.81, -4871.51, -4809.15, -4060.91, 0.000, 0.000, 0.000, 17:36:26.460
126, -4198.28, -4717.13, -4655.26, -3915.32, 0.000, 0.000, 0.000, 17:36:26.460
127, -3946.40, -4450.42, -4411.20, -3665.45, 0.000, 0.000, 0.000, 17:36:26.474
128, -3972.41, -4497.98, -4459.68, -3723.26, 0.000, 0.000, 0.000, 17:36:26.475
129, -4334.79, -4877.49, -4809.18, -4070.79, 0.000, 0.000, 0.000, 17:36:26.489
130, -4194.78, -4708.13, -4658.15, -3919.09, 0.000, 0.000, 0.000, 17:36:26.489
131, -3944.93, -4437.01, -4412.07, -3669.81, 0.000, 0.000, 0.000, 17:36:26.490
132, -3972.14, -4498.98, -4460.24, -3721.82, 0.000, 0.000, 0.000, 17:36:26.490
133, -4327.19, -4872.14, -4810.61, -4069.83, 0.000, 0.000, 0.000, 17:36:26.505
134, -4191.89, -4714.46, -4655.18, -3916.47, 0.000, 0.000, 0.000, 17:36:26.505
135, -3951.73, -4457.42, -4416.28, -3670.54, 0.000, 0.000, 0.000, 17:36:26.519
136, -3971.01, -4502.79, -4463.65, -3727.10, 0.000, 0.000, 0.000, 17:36:26.519
137, -4325.21, -4880.87, -4812.65, -4070.61, 0.000, 0.000, 0.000, 17:36:26.520
138, -4188.58, -4700.63, -4646.87, -3917.66, 0.000, 0.000, 0.000, 17:36:26.520
139, -3940.85, -4439.27, -4412.83, -3663.40, 0.000, 0.000, 0.000, 17:36:26.534
140, -3959.59, -4482.53, -4439.22, -3715.92, 0.000, 0.000, 0.000, 17:36:26.534
141, -4312.63, -4853.27, -4796.15, -4061.04, 0.000, 0.000, 0.000, 17:36:26.550
142, -4202.46, -4720.83, -4664.67, -3915.81, 0.000, 0.000, 0.000, 17:36:26.550
143, -3945.93, -4456.40, -4406.62, -3664.78, 0.000, 0.000, 0.000, 17:36:26.550
144, -3963.62, -4478.48, -4447.50, -3713.50, 0.000, 0.000, 0.000, 17:36:26.550
145, -4336.32, -4880.99, -4806.37, -4071.68, 0.000, 0.000, 0.000, 17:36:26.564
146, -4195.62, -4716.93, -4656.82, -3921.93, 0.000, 0.000, 0.000, 17:36:26.565
147, -3958.88, -4462.36, -4412.45, -3678.53, 0.000, 0.000, 0.000, 17:36:26.579
148, -3968.02, -4490.35, -4458.22, -3714.01, 0.000, 0.000, 0.000, 17:36:26.580
149, -4322.68, -4865.28, -4801.54, -4080.40, 0.000, 0.000, 0.000, 17:36:26.580
150, -4203.69, -4707.74, -4647.76, -3921.76, 0.000, 0.000, 0.000, 17:36:26.580
151, -3945.65, -4445.05, -4403.96, -3669.60, 0.000, 0.000, 0.000, 17:36:26.594
152, -3967.00, -4488.23, -4443.17, -3704.64, 0.000, 0.000, 0.000, 17:36:26.594
153, -4328.05, -4863.55, -4809.80, -4066.53, 0.000, 0.000, 0.000, 17:36:26.609
154, -4208.29, -4730.51, -4669.53, -3919.83, 0.000, 0.000, 0.000, 17:36:26.609
155, -3954.25, -4459.05, -4416.74, -3676.70, 0.000, 0.000, 0.000, 17:36:26.610
156, -3962.98, -4483.81, -4445.26, -3707.06, 0.000, 0.000, 0.000, 17:36:26.610
157, -4321.22, -4866.93, -4796.42, -4073.28, 0.000, 0.000, 0.000, 17:36:26.624
158, -4212.12, -4722.72, -4667.43, -3930.61, 0.000, 0.000, 0.000, 17:36:26.624
159, -3957.85, -4470.58, -4420.21, -3679.95, 0.000, 0.000, 0.000, 17:36:26.638
160, -3958.60, -4483.70, -4448.13, -3705.83, 0.000, 0.000, 0.000, 17:36:26.639
161, -4323.14, -4864.47, -4809.59, -4070.68, 0.000, 0.000, 0.000, 17:36:26.639
162, -4208.86, -4723.32, -4670.37, -3926.29, 0.000, 0.000, 0.000, 17:36:26.639
163, -3963.95, -4460.92, -4419.24, -3679.81, 0.000, 0.000, 0.000, 17:36:26.669
164, -3939.56, -4468.13, -4434.93, -3692.06, 0.000, 0.000, 0.000, 17:36:26.669
165, -4309.20, -4854.06, -4793.15, -4061.24, 0.000, 0.000, 0.000, 17:36:26.669
166, -4225.11, -4732.59, -4681.97, -3930.32, 0.000, 0.000, 0.000, 17:36:26.669
167, -3953.14, -4451.62, -4413.42, -3674.62, 0.000, 0.000, 0.000, 17:36:26.670
168, -3955.16, -4471.98, -4433.12, -3700.08, 0.000, 0.000, 0.000, 17:36:26.670
169, -4316.32, -4856.60, -4803.90, -4060.58, 0.000, 0.000, 0.000, 17:36:26.684
170, -4208.65, -4723.58, -4672.40, -3929.32, 0.000, 0.000, 0.000, 17:36:26.684
171, -3962.78, -4470.82, -4428.99, -3682.72, 0.000, 0.000, 0.000, 17:36:26.700
172, -3936.71, -4451.39, -4417.43, -3688.57, 0.000, 0.000, 0.000, 17:36:26.700
173, -4312.03, -4851.09, -4798.94, -4059.83, 0.000, 0.000, 0.000, 17:36:26.700
174, -4218.01, -4727.88, -4677.40, -3930.58, 0.000, 0.000, 0.000, 17:36:26.700
175, -3957.80, -4460.45, -4421.78, -3677.45, 0.000, 0.000, 0.000, 17:36:26.715
176, -3951.66, -4470.71, -4420.01, -3688.79, 0.000, 0.000, 0.000, 17:36:26.715
177, -4305.38, -4849.68, -4789.62, -4060.55, 0.000, 0.000, 0.000, 17:36:26.730
178, -4213.81, -4727.65, -4670.03, -3943.80, 0.000, 0.000, 0.000, 17:36:26.730
179, -3956.12, -4468.69, -4414.38, -3694.57, 0.000, 0.000, 0.000, 17:36:26.730
180, -3952.95, -4466.93, -4436.73, -3698.55, 0.000, 0.000, 0.000, 17:36:26.730
181, -4318.69, -4847.75, -4795.58, -4064.41, 0.000, 0.000, 0.000, 17:36:26.745
182, -4210.66, -4721.84, -4670.98, -3933.11, 0.000, 0.000, 0.000, 17:36:26.745
183, -3960.59, -4471.85, -4423.62, -3682.43, 0.000, 0.000, 0.000, 17:36:26.759
184, -3925.86, -4465.88, -4419.25, -3692.71, 0.000, 0.000, 0.000, 17:36:26.759
185, -4325.17, -4863.04, -4804.73, -4072.19, 0.000, 0.000, 0.000, 17:36:26.760
186, -4208.18, -4743.31, -4676.66, -3935.26, 0.000, 0.000, 0.000, 17:36:26.760
187, -3963.95, -4469.61, -4427.70, -3697.50, 0.000, 0.000, 0.000, 17:36:26.774
188, -3928.17, -4457.85, -4420.28, -3684.43, 0.000, 0.000, 0.000, 17:36:26.774
189, -4319.80, -4855.61, -4795.98, -4065.58, 0.000, 0.000, 0.000, 17:36:26.789
190, -4211.58, -4727.72, -4668.84, -3940.40, 0.000, 0.000, 0.000, 17:36:26.789
191, -3973.19, -4479.80, -4433.49, -3693.95, 0.000, 0.000, 0.000, 17:36:26.789
192, -3945.09, -4472.77, -4423.09, -3686.06, 0.000, 0.000, 0.000, 17:36:26.789
193, -4316.48, -4852.21, -4782.98, -4064.28, 0.000, 0.000, 0.000, 17:36:26.804
194, -4218.42, -4732.76, -4674.36, -3943.18, 0.000, 0.000, 0.000, 17:36:26.804
195, -3967.36, -4466.26, -4414.59, -3688.30, 0.000, 0.000, 0.000, 17:36:26.819
196, -3938.79, -4455.69, -4412.37, -3677.98, 0.000, 0.000, 0.000, 17:36:26.819
197, -4314.34, -4852.54, -4785.52, -4056.66, 0.000, 0.000, 0.000, 17:36:26.820
198, -4235.28, -4747.75, -4689.10, -3944.44, 0.000, 0.000, 0.000, 17:36:26.820
199, -3983.24, -4503.36, -4450.60, -3700.72, 0.000, 0.000, 0.000, 17:36:26.834
200, -3952.08, -4482.67, -4432.91, -3696.42, 0.000, 0.000, 0.000, 17:36:26.834
0, -4316.49, -4880.43, -4800.99, -4065.44, 0.000, 0.000, 0.000, 17:36:26.835
1, -4212.05, -4737.12, -4672.61, -3939.01, 0.000, 0.000, 0.000, 17:36:26.849
2, -3970.51, -4477.13, -4428.34, -3688.52, 0.000, 0.000, 0.000, 17:36:26.849
3, -3927.91, -4453.12, -4402.74, -3669.61, 0.000, 0.000, 0.000, 17:36:26.865
4, -4307.48, -4839.65, -4777.10, -4053.51, 0.000, 0.000, 0.000, 17:36:26.865
5, -4208.64, -4728.84, -4669.74, -3938.27, 0.000, 0.000, 0.000, 17:36:26.865
6, -3965.40, -4466.40, -4410.16, -3683.56, 0.000, 0.000, 0.000, 17:36:26.865
7, -3931.31, -4453.59, -4419.38, -3674.24, 0.000, 0.000, 0.000, 17:36:26.880
8, -4289.37, -4847.61, -4774.67, -4048.72, 0.000, 0.000, 0.000, 17:36:26.880
9, -4211.93, -4729.71, -4666.82, -3933.01, 0.000, 0.000, 0.000, 17:36:26.894
10, -3971.81, -4465.16, -4428.32, -3689.43, 0.000, 0.000, 0.000, 17:36:26.895
11, -3928.22, -4440.03, -4410.12, -3673.76, 0.000, 0.000, 0.000, 17:36:26.895
12, -4299.76, -4854.58, -4789.63, -4052.42, 0.000, 0.000, 0.000, 17:36:26.895
13, -4219.63, -4727.66, -4678.10, -3938.64, 0.000, 0.000, 0.000, 17:36:26.909
14, -3964.38, -4468.51, -4429.57, -3697.31, 0.000, 0.000, 0.000, 17:36:26.910
15, -3918.33, -4444.46, -4400.88, -3669.23, 0.000, 0.000, 0.000, 17:36:26.924
16, -4291.89, -4848.16, -4788.24, -4047.88, 0.000, 0.000, 0.000, 17:36:26.924
17, -4223.74, -4734.79, -4690.49, -3947.66, 0.000, 0.000, 0.000, 17:36:26.924
18, -3980.61, -4491.34, -4435.70, -3698.10, 0.000, 0.000, 0.000, 17:36:26.924
19, -3925.62, -4444.57, -4406.52, -3668.64, 0.000, 0.000, 0.000, 17:36:26.939
20, -4308.84, -4841.18, -4780.16, -4046.20, 0.000, 0.000, 0.000, 17:36:26.939
21, -4215.94, -4737.28, -4681.44, -3937.35, 0.000, 0.000, 0.000, 17:36:26.954
22, -3975.18, -4479.74, -4438.21, -3696.56, 0.000, 0.000, 0.000, 17:36:26.955
23, -3925.65, -4442.47, -4409.97, -3664.71, 0.000, 0.000, 0.000, 17:36:26.955
24, -4300.80, -4853.50, -4785.26, -4045.08, 0.000, 0.000, 0.000, 17:36:26.955
25, -4221.52, -4738.83, -4683.79, -3946.33, 0.000, 0.000, 0.000, 17:36:26.970
26, -3979.74, -4474.25, -4435.35, -3700.19, 0.000, 0.000, 0.000, 17:36:26.970
27, -3920.08, -4429.72, -4397.44, -3657.37, 0.000, 0.000, 0.000, 17:36:26.984
28, -4287.12, -4834.91, -4766.37, -4047.49, 0.000, 0.000, 0.000, 17:36:26.985
29, -4214.48, -4744.95, -4679.30, -3951.92, 0.000, 0.000, 0.000, 17:36:26.985
30, -3981.93, -4478.21, -4438.83, -3705.79, 0.000, 0.000, 0.000, 17:36:26.985
31, -3913.51, -4428.01, -4397.51, -3658.55, 0.000, 0.000, 0.000, 17:36:26.999
32, -4281.25, -4824.22, -4772.99, -4043.44, 0.000, 0.000, 0.000, 17:36:27.000
33, -4205.29, -4734.31, -4676.61, -3938.12, 0.000, 0.000, 0.000, 17:36:27.045
34, -3967.88, -4479.68, -4430.73, -3698.47, 0.000, 0.000, 0.000, 17:36:27.045
35, -3900.52, -4427.26, -4392.35, -3649.89, 0.000, 0.000, 0.000, 17:36:27.045
36, -4296.57, -4847.27, -4779.92, -4042.14, 0.000, 0.000, 0.000, 17:36:27.045
37, -4224.90, -4737.42, -4692.06, -3947.07, 0.000, 0.000, 0.000, 17:36:27.059
38, -3986.22, -4487.78, -4454.32, -3707.80, 0.000, 0.000, 0.000, 17:36:27.059
39, -3904.46, -4444.98, -4395.10, -3655.16, 0.000, 0.000, 0.000, 17:36:27.060
40, -4286.92, -4827.08, -4766.10, -4039.54, 0.000, 0.000, 0.000, 17:36:27.060
41, -4234.30, -4748.95, -4691.80, -3953.95, 0.000, 0.000, 0.000, 17:36:27.061
42, -3986.39, -4493.55, -4451.87, -3712.79, 0.000, 0.000, 0.000, 17:36:27.061
43, -3907.96, -4436.29, -4394.62, -3656.69, 0.000, 0.000, 0.000, 17:36:27.061
44, -4286.55, -4833.86, -4775.97, -4048.13, 0.000, 0.000, 0.000, 17:36:27.061
45, -4224.38, -4748.40, -4692.96, -3957.08, 0.000, 0.000, 0.000, 17:36:27.062
46, -3982.61, -4501.41, -4447.14, -3717.02, 0.000, 0.000, 0.000, 17:36:27.062
47, -3916.53, -4437.07, -4392.95, -3649.58, 0.000, 0.000, 0.000, 17:36:27.074
48, -4275.55, -4833.35, -4775.97, -4028.14, 0.000, 0.000, 0.000, 17:36:27.075
49, -4226.35, -4746.21, -4681.86, -3948.72, 0.000, 0.000, 0.000, 17:36:27.089
50, -3987.01, -4502.10, -4451.90, -3703.73, 0.000, 0.000, 0.000, 17:36:27.089
51, -3916.22, -4425.43, -4386.46, -3649.85, 0.000, 0.000, 0.000, 17:36:27.104
52, -4275.90, -4840.34, -4763.15, -4029.14, 0.000, 0.000, 0.000, 17:36:27.104
53, -4227.46, -4743.68, -4688.48, -3958.39, 0.000, 0.000, 0.000, 17:36:27.104
54, -3993.16, -4484.91, -4454.85, -3716.10, 0.000, 0.000, 0.000, 17:36:27.104
55, -3903.82, -4424.17, -4385.44, -3653.66, 0.000, 0.000, 0.000, 17:36:27.119
56, -4280.51, -4821.70, -4757.62, -4034.61, 0.000, 0.000, 0.000, 17:36:27.120
57, -4222.05, -4746.01, -4685.98, -3948.64, 0.000, 0.000, 0.000, 17:36:27.134
58, -3987.33, -4498.81, -4451.68, -3711.68, 0.000, 0.000, 0.000, 17:36:27.134
59, -3910.04, -4436.85, -4400.14, -3649.93, 0.000, 0.000, 0.000, 17:36:27.141
60, -4274.23, -4824.19, -4768.56, -4029.38, 0.000, 0.000, 0.000, 17:36:27.141
61, -4240.07, -4777.66, -4705.26, -3965.80, 0.000, 0.000, 0.000, 17:36:27.149
62, -3982.05, -4493.87, -4454.38, -3719.60, 0.000, 0.000, 0.000, 17:36:27.149
63, -3894.90, -4414.57, -4379.97, -3647.53, 0.000, 0.000, 0.000, 17:36:27.165
64, -4258.85, -4824.49, -4748.93, -4032.30, 0.000, 0.000, 0.000, 17:36:27.165
65, -4223.24, -4753.03, -4687.36, -3965.46, 0.000, 0.000, 0.000, 17:36:27.166
66, -4004.26, -4515.26, -4464.60, -3722.56, 0.000, 0.000, 0.000, 17:36:27.166
67, -3907.10, -4424.62, -4390.61, -3652.27, 0.000, 0.000, 0.000, 17:36:27.180
68, -4285.39, -4837.08, -4770.22, -4029.33, 0.000, 0.000, 0.000, 17:36:27.180
69, -4234.80, -4764.88, -4698.02, -3968.05, 0.000, 0.000, 0.000, 17:36:27.209
70, -3988.04, -4496.76, -4452.03, -3719.10, 0.000, 0.000, 0.000, 17:36:27.210
71, -3892.63, -4413.33, -4372.94, -3644.82, 0.000, 0.000, 0.000, 17:36:27.210
72, -4272.22, -4809.30, -4755.61, -4020.64, 0.000, 0.000, 0.000, 17:36:27.211
73, -4234.50, -4758.79, -4709.34, -3961.41, 0.000, 0.000, 0.000, 17:36:27.211
74, -3993.04, -4505.60, -4459.70, -3728.28, 0.000, 0.000, 0.000, 17:36:27.211
75, -3909.75, -4429.41, -4390.13, -3654.18, 0.000, 0.000, 0.000, 17:36:27.214
76, -4254.41, -4817.66, -4750.40, -4026.83, 0.000, 0.000, 0.000, 17:36:27.214
77, -4217.70, -4754.57, -4681.09, -3960.67, 0.000, 0.000, 0.000, 17:36:27.224
78, -3989.07, -4510.62, -4450.98, -3719.73, 0.000, 0.000, 0.000, 17:36:27.224
79, -3897.37, -4418.89, -4369.51, -3644.35, 0.000, 0.000, 0.000, 17:36:27.239
80, -4261.22, -4817.86, -4759.14, -4022.31, 0.000, 0.000, 0.000, 17:36:27.239
81, -4237.56, -4770.08, -4698.08, -3966.57, 0.000, 0.000, 0.000, 17:36:27.254
82, -4016.49, -4517.79, -4467.67, -3736.46, 0.000, 0.000, 0.000, 17:36:27.254
83, -3885.11, -4414.62, -4381.30, -3644.05, 0.000, 0.000, 0.000, 17:36:27.254
84, -4277.16, -4811.36, -4753.44, -4022.54, 0.000, 0.000, 0.000, 17:36:27.254
85, -4233.33, -4748.79, -4692.00, -3957.15, 0.000, 0.000, 0.000, 17:36:27.270
86, -4006.99, -4514.53, -4469.08, -3729.50, 0.000, 0.000, 0.000, 17:36:27.270
87, -3889.02, -4417.55, -4384.44, -3643.04, 0.000, 0.000, 0.000, 17:36:27.284
88, -4267.44, -4806.20, -4753.38, -4014.67, 0.000, 0.000, 0.000, 17:36:27.284
89, -4239.74, -4761.43, -4704.05, -3961.16, 0.000, 0.000, 0.000, 17:36:27.285
90, -4016.72, -4521.24, -4474.71, -3745.67, 0.000, 0.000, 0.000, 17:36:27.285
91, -3914.59, -4434.76, -4393.90, -3653.67, 0.000, 0.000, 0.000, 17:36:27.299
92, -4264.75, -4809.73, -4753.84, -4021.51, 0.000, 0.000, 0.000, 17:36:27.300
93, -4232.00, -4765.40, -4702.26, -3968.80, 0.000, 0.000, 0.000, 17:36:27.315
94, -4020.86, -4521.28, -4471.32, -3735.60, 0.000, 0.000, 0.000, 17:36:27.315
95, -3902.47, -4417.35, -4378.28, -3640.78, 0.000, 0.000, 0.000, 17:36:27.316
96, -4259.60, -4813.19, -4748.60, -4020.11, 0.000, 0.000, 0.000, 17:36:27.316
97, -4241.65, -4763.66, -4694.60, -3972.28, 0.000, 0.000, 0.000, 17:36:27.329
98, -4010.80, -4510.04, -4470.93, -3732.50, 0.000, 0.000, 0.000, 17:36:27.329
99, -3906.32, -4413.16, -4380.07, -3642.41, 0.000, 0.000, 0.000, 17:36:27.344
100, -4254.48, -4829.14, -4762.66, -4016.77, 0.000, 0.000, 0.000, 17:36:27.344
101, -4245.02, -4772.48, -4723.30, -3978.34, 0.000, 0.000, 0.000, 17:36:27.345
102, -4022.16, -4535.64, -4486.78, -3740.50, 0.000, 0.000, 0.000, 17:36:27.345
103, -3902.64, -4422.63, -4378.21, -3640.55, 0.000, 0.000, 0.000, 17:36:27.360
104, -4255.60, -4795.09, -4745.18, -4015.71, 0.000, 0.000, 0.000, 17:36:27.360
105, -4252.97, -4776.14, -4720.35, -3966.76, 0.000, 0.000, 0.000, 17:36:27.374
106, -4018.96, -4538.28, -4471.52, -3741.89, 0.000, 0.000, 0.000, 17:36:27.375
107, -3895.45, -4406.79, -4369.64, -3643.36, 0.000, 0.000, 0.000, 17:36:27.375
108, -4250.02, -4787.08, -4743.83, -4008.97, 0.000, 0.000, 0.000, 17:36:27.375
109, -4249.45, -4766.30, -4711.03, -3978.56, 0.000, 0.000, 0.000, 17:36:27.389
110, -4027.97, -4526.53, -4482.42, -3748.29, 0.000, 0.000, 0.000, 17:36:27.390
111, -3904.89, -4435.01, -4379.38, -3642.32, 0.000, 0.000, 0.000, 17:36:27.404
112, -4257.40, -4809.81, -4740.51, -4009.11, 0.000, 0.000, 0.000, 17:36:27.404
113, -4248.92, -4767.78, -4703.25, -3966.07, 0.000, 0.000, 0.000, 17:36:27.404
114, -4015.98, -4520.06, -4476.59, -3740.34, 0.000, 0.000, 0.000, 17:36:27.404
115, -3900.08, -4413.90, -4379.93, -3634.74, 0.000, 0.000, 0.000, 17:36:27.420
116, -4258.29, -4804.37, -4749.18, -4002.80, 0.000, 0.000, 0.000, 17:36:27.420
117, -4239.92, -4773.40, -4709.84, -3967.35, 0.000, 0.000, 0.000, 17:36:27.434
118, -4021.80, -4521.91, -4484.78, -3738.23, 0.000, 0.000, 0.000, 17:36:27.434
119, -3893.88, -4423.95, -4373.37, -3635.85, 0.000, 0.000, 0.000, 17:36:27.435
120, -4246.90, -4795.18, -4734.47, -4010.60, 0.000, 0.000, 0.000, 17:36:27.435
121, -4243.62, -4782.53, -4704.64, -3974.06, 0.000, 0.000, 0.000, 17:36:27.450
122, -4016.67, -4535.29, -4478.15, -3741.26, 0.000, 0.000, 0.000, 17:36:27.450
123, -3893.62, -4398.93, -4368.50, -3642.83, 0.000, 0.000, 0.000, 17:36:27.465
124, -4248.15, -4793.94, -4725.89, -4007.15, 0.000, 0.000, 0.000, 17:36:27.465
125, -4249.60, -4775.41, -4712.30, -3971.72, 0.000, 0.000, 0.000, 17:36:27.465
126, -4031.31, -4541.79, -4495.91, -3747.53, 0.000, 0.000, 0.000, 17:36:27.466
127, -3894.58, -4427.19, -4382.67, -3638.33, 0.000, 0.000, 0.000, 17:36:27.485
128, -4240.57, -4791.48, -4732.01, -4002.94, 0.000, 0.000, 0.000, 17:36:27.485
129, -4239.56, -4763.99, -4705.05, -3970.89, 0.000, 0.000, 0.000, 17:36:27.495
130, -4024.33, -4534.68, -4489.33, -3752.68, 0.000, 0.000, 0.000, 17:36:27.495
131, -3888.29, -4407.81, -4365.44, -3631.31, 0.000, 0.000, 0.000, 17:36:27.495
132, -4250.28, -4805.25, -4739.94, -4005.38, 0.000, 0.000, 0.000, 17:36:27.495
133, -4260.25, -4785.94, -4723.16, -3974.41, 0.000, 0.000, 0.000, 17:36:27.509
134, -4030.27, -4537.72, -4491.68, -3743.70, 0.000, 0.000, 0.000, 17:36:27.509
135, -3887.75, -4404.42, -4369.79, -3625.27, 0.000, 0.000, 0.000, 17:36:27.524
136, -4227.46, -4775.25, -4725.03, -3985.92, 0.000, 0.000, 0.000, 17:36:27.524
137, -4252.20, -4793.55, -4709.63, -3977.27, 0.000, 0.000, 0.000, 17:36:27.525
138, -4037.13, -4543.82, -4487.74, -3748.65, 0.000, 0.000, 0.000, 17:36:27.525
139, -3895.32, -4400.83, -4363.21, -3637.33, 0.000, 0.000, 0.000, 17:36:27.539
140, -4240.48, -4777.52, -4726.46, -4000.38, 0.000, 0.000, 0.000, 17:36:27.539
141, -4249.49, -4768.95, -4710.33, -3983.65, 0.000, 0.000, 0.000, 17:36:27.554
142, -4039.13, -4540.09, -4490.98, -3755.90, 0.000, 0.000, 0.000, 17:36:27.554
143, -3878.72, -4405.91, -4369.25, -3633.25, 0.000, 0.000, 0.000, 17:36:27.554
144, -4244.32, -4804.44, -4733.92, -3989.83, 0.000, 0.000, 0.000, 17:36:27.555
145, -4276.92, -4808.94, -4737.42, -3984.86, 0.000, 0.000, 0.000, 17:36:27.569
146, -4056.88, -4573.73, -4519.94, -3776.00, 0.000, 0.000, 0.000, 17:36:27.569
147, -3907.21, -4433.00, -4386.88, -3639.11, 0.000, 0.000, 0.000, 17:36:27.584
148, -4227.06, -4768.72, -4710.59, -3984.17, 0.000, 0.000, 0.000, 17:36:27.584
149, -4235.66, -4765.47, -4707.66, -3978.44, 0.000, 0.000, 0.000, 17:36:27.585
150, -4019.04, -4534.52, -4481.77, -3756.41, 0.000, 0.000, 0.000, 17:36:27.585
151, -3884.38, -4404.78, -4369.10, -3616.11, 0.000, 0.000, 0.000, 17:36:27.600
152, -4231.55, -4784.66, -4718.42, -3976.85, 0.000, 0.000, 0.000, 17:36:27.600
153, -4248.37, -4765.61, -4707.13, -3983.47, 0.000, 0.000, 0.000, 17:36:27.615
154, -4038.31, -4542.05, -4504.08, -3753.67, 0.000, 0.000, 0.000, 17:36:27.615
155, -3891.15, -4412.22, -4365.52, -3630.63, 0.000, 0.000, 0.000, 17:36:27.616
156, -4228.50, -4788.28, -4725.23, -3998.79, 0.000, 0.000, 0.000, 17:36:27.616
157, -4262.09, -4788.67, -4718.84, -3984.17, 0.000, 0.000, 0.000, 17:36:27.630
158, -4036.66, -4533.12, -4481.10, -3757.52, 0.000, 0.000, 0.000, 17:36:27.630
159, -3878.88, -4399.99, -4354.98, -3627.62, 0.000, 0.000, 0.000, 17:36:27.644
160, -4227.11, -4776.86, -4715.22, -3983.51, 0.000, 0.000, 0.000, 17:36:27.645
161, -4253.77, -4770.71, -4719.96, -3992.59, 0.000, 0.000, 0.000, 17:36:27.645
162, -4051.66, -4561.10, -4500.69, -3771.55, 0.000, 0.000, 0.000, 17:36:27.645
163, -3899.39, -4422.09, -4375.22, -3632.20, 0.000, 0.000, 0.000, 17:36:27.659
164, -4215.53, -4774.70, -4711.31, -3974.53, 0.000, 0.000, 0.000, 17:36:27.659
165, -4238.23, -4776.38, -4719.47, -3974.60, 0.000, 0.000, 0.000, 17:36:27.674
166, -4052.10, -4553.84, -4509.25, -3777.07, 0.000, 0.000, 0.000, 17:36:27.674
167, -3890.39, -4404.07, -4365.20, -3628.26, 0.000, 0.000, 0.000, 17:36:27.674
168, -4212.04, -4761.16, -4701.47, -3976.04, 0.000, 0.000, 0.000, 17:36:27.674
169, -4259.08, -4778.66, -4723.29, -3989.79, 0.000, 0.000, 0.000, 17:36:27.689
170, -4044.10, -4560.08, -4511.13, -3763.78, 0.000, 0.000, 0.000, 17:36:27.689
171, -3895.76, -4393.75, -4369.27, -3628.43, 0.000, 0.000, 0.000, 17:36:27.704
172, -4223.72, -4757.07, -4712.06, -3974.83, 0.000, 0.000, 0.000, 17:36:27.704
173, -4260.01, -4780.27, -4725.61, -3982.83, 0.000, 0.000, 0.000, 17:36:27.704
174, -4043.20, -4554.41, -4503.28, -3766.43, 0.000, 0.000, 0.000, 17:36:27.705
175, -3882.88, -4416.01, -4357.50, -3629.53, 0.000, 0.000, 0.000, 17:36:27.719
176, -4220.65, -4766.82, -4699.82, -3977.28, 0.000, 0.000, 0.000, 17:36:27.719
177, -4263.91, -4781.85, -4729.22, -3989.17, 0.000, 0.000, 0.000, 17:36:27.734
178, -4053.17, -4558.06, -4515.29, -3769.62, 0.000, 0.000, 0.000, 17:36:27.734
179, -3890.40, -4397.86, -4367.16, -3627.36, 0.000, 0.000, 0.000, 17:36:27.734
180, -4201.67, -4758.56, -4708.12, -3972.57, 0.000, 0.000, 0.000, 17:36:27.735
181, -4260.89, -4804.19, -4739.81, -3994.59, 0.000, 0.000, 0.000, 17:36:27.749
182, -4041.91, -4569.85, -4505.49, -3770.24, 0.000, 0.000, 0.000, 17:36:27.749
183, -3896.39, -4413.04, -4367.59, -3627.50, 0.000, 0.000, 0.000, 17:36:27.765
184, -4220.07, -4782.83, -4728.88, -3975.70, 0.000, 0.000, 0.000, 17:36:27.765
185, -4270.82, -4783.01, -4727.38, -3992.80, 0.000, 0.000, 0.000, 17:36:27.772
186, -4042.50, -4558.37, -4504.03, -3768.09, 0.000, 0.000, 0.000, 17:36:27.772
187, -3873.86, -4390.13, -4349.51, -3619.53, 0.000, 0.000, 0.000, 17:36:27.780
188, -4199.35, -4751.13, -4691.04, -3969.63, 0.000, 0.000, 0.000, 17:36:27.780
189, -4276.76, -4800.83, -4742.19, -3996.92, 0.000, 0.000, 0.000, 17:36:27.794
190, -4062.55, -4568.09, -4510.54, -3776.70, 0.000, 0.000, 0.000, 17:36:27.794
191, -3883.85, -4400.30, -4361.39, -3627.86, 0.000, 0.000, 0.000, 17:36:27.810
192, -4210.24, -4756.11, -4705.04, -3960.21, 0.000, 0.000, 0.000, 17:36:27.810
193, -4276.60, -4797.60, -4736.58, -4008.40, 0.000, 0.000, 0.000, 17:36:27.811
194, -4063.52, -4563.26, -4510.13, -3781.47, 0.000, 0.000, 0.000, 17:36:27.811
195, -3884.84, -4392.19, -4350.13, -3624.47, 0.000, 0.000, 0.000, 17:36:27.824
196, -4211.65, -4762.83, -4691.78, -3965.23, 0.000, 0.000, 0.000, 17:36:27.824
197, -4280.09, -4813.59, -4734.54, -4006.21, 0.000, 0.000, 0.000, 17:36:27.824
198, -4054.85, -4564.09, -4518.74, -3776.85, 0.000, 0.000, 0.000, 17:36:27.824
199, -3903.69, -4393.79, -4356.14, -3631.02, 0.000, 0.000, 0.000, 17:36:27.839
200, -4206.51, -4750.38, -4701.99, -3966.78, 0.000, 0.000, 0.000, 17:36:27.840
0, -4271.01, -4790.64, -4729.29, -3995.04, 0.000, 0.000, 0.000, 17:36:27.840
1, -4061.82, -4554.44, -4508.68, -3779.74, 0.000, 0.000, 0.000, 17:36:27.854
2, -3880.98, -4390.81, -4356.74, -3625.38, 0.000, 0.000, 0.000, 17:36:27.854
3, -4181.58, -4740.88, -4673.20, -3951.48, 0.000, 0.000, 0.000, 17:36:27.869
4, -4258.50, -4783.44, -4722.87, -3989.55, 0.000, 0.000, 0.000, 17:36:27.869
5, -4056.75, -4559.85, -4513.53, -3769.85, 0.000, 0.000, 0.000, 17:36:27.870
6, -3883.63, -4393.83, -4362.34, -3629.38, 0.000, 0.000, 0.000, 17:36:27.870
7, -4199.97, -4739.19, -4686.78, -3958.16, 0.000, 0.000, 0.000, 17:36:27.884
8, -4283.71, -4801.10, -4734.89, -4003.14, 0.000, 0.000, 0.000, 17:36:27.884
9, -4060.21, -4573.36, -4519.02, -3798.42, 0.000, 0.000, 0.000, 17:36:27.899
10, -3880.30, -4397.03, -4358.90, -3626.98, 0.000, 0.000, 0.000, 17:36:27.900
11, -4192.94, -4748.07, -4686.64, -3960.49, 0.000, 0.000, 0.000, 17:36:27.900
12, -4286.80, -4806.53, -4747.21, -4015.67, 0.000, 0.000, 0.000, 17:36:27.900
13, -4063.21, -4570.06, -4523.33, -3788.86, 0.000, 0.000, 0.000, 17:36:27.915
14, -3874.89, -4401.08, -4366.02, -3627.68, 0.000, 0.000, 0.000, 17:36:27.915
15, -4198.75, -4749.50, -4690.32, -3956.93, 0.000, 0.000, 0.000, 17:36:27.929
16, -4287.92, -4800.48, -4741.58, -4004.75, 0.000, 0.000, 0.000, 17:36:27.929
17, -4054.64, -4562.64, -4532.21, -3780.65, 0.000, 0.000, 0.000, 17:36:27.929
18, -3874.67, -4395.10, -4349.99, -3626.36, 0.000, 0.000, 0.000, 17:36:27.929
19, -4173.89, -4727.43, -4664.47, -3946.70, 0.000, 0.000, 0.000, 17:36:27.946
20, -4270.60, -4799.64, -4733.40, -4007.95, 0.000, 0.000, 0.000, 17:36:27.946
21, -4073.27, -4583.54, -4532.67, -3792.11, 0.000, 0.000, 0.000, 17:36:27.959
22, -3902.69, -4409.13, -4376.55, -3635.59, 0.000, 0.000, 0.000, 17:36:27.959
23, -4180.17, -4731.10, -4684.51, -3943.34, 0.000, 0.000, 0.000, 17:36:27.961
24, -4287.47, -4817.01, -4739.89, -4001.61, 0.000, 0.000, 0.000, 17:36:27.961
25, -4068.59, -4588.66, -4535.27, -3795.74, 0.000, 0.000, 0.000, 17:36:27.974
26, -3896.12, -4408.12, -4361.49, -3626.31, 0.000, 0.000, 0.000, 17:36:27.974
27, -4182.29, -4714.96, -4674.49, -3946.82, 0.000, 0.000, 0.000, 17:36:27.989
28, -4274.32, -4796.54, -4743.34, -4002.23, 0.000, 0.000, 0.000, 17:36:27.989
29, -4080.19, -4584.59, -4532.29, -3796.30, 0.000, 0.000, 0.000, 17:36:27.989
30, -3895.19, -4419.73, -4364.33, -3635.58, 0.000, 0.000, 0.000, 17:36:27.989
31, -4194.50, -4741.39, -4692.32, -3950.79, 0.000, 0.000, 0.000, 17:36:28.004
32, -4278.38, -4811.42, -4740.13, -4009.34, 0.000, 0.000, 0.000, 17:36:28.004
33, -4080.73, -4603.50, -4541.46, -3798.42, 0.000, 0.000, 0.000, 17:36:28.019
34, -3893.08, -4422.62, -4361.43, -3631.02, 0.000, 0.000, 0.000, 17:36:28.019
35, -4176.36, -4713.00, -4659.93, -3935.96, 0.000, 0.000, 0.000, 17:36:28.020
36, -4268.87, -4787.46, -4728.71, -4002.74, 0.000, 0.000, 0.000, 17:36:28.020
37, -4078.68, -4581.21, -4533.38, -3806.82, 0.000, 0.000, 0.000, 17:36:28.034
38, -3892.21, -4413.64, -4373.01, -3636.81, 0.000, 0.000, 0.000, 17:36:28.034
39, -4179.06, -4720.50, -4657.98, -3931.49, 0.000, 0.000, 0.000, 17:36:28.049
40, -4293.17, -4814.44, -4751.55, -4016.59, 0.000, 0.000, 0.000, 17:36:28.049
41, -4077.72, -4584.29, -4527.86, -3795.10, 0.000, 0.000, 0.000, 17:36:28.050
42, -3900.46, -4411.51, -4363.71, -3637.58, 0.000, 0.000, 0.000, 17:36:28.050
43, -4193.37, -4718.93, -4672.65, -3943.00, 0.000, 0.000, 0.000, 17:36:28.064
44, -4290.81, -4824.09, -4761.27, -4018.41, 0.000, 0.000, 0.000, 17:36:28.064
45, -4079.87, -4589.77, -4535.19, -3801.64, 0.000, 0.000, 0.000, 17:36:28.080
46, -3891.38, -4407.46, -4372.33, -3639.60, 0.000, 0.000, 0.000, 17:36:28.080
47, -4175.90, -4731.95, -4676.46, -3938.63, 0.000, 0.000, 0.000, 17:36:28.080
48, -4272.03, -4807.54, -4749.03, -4006.43, 0.000, 0.000, 0.000, 17:36:28.082
49, -4074.75, -4583.16, -4535.88, -3799.22, 0.000, 0.000, 0.000, 17:36:28.095
50, -3892.14, -4400.28, -4362.67, -3629.19, 0.000, 0.000, 0.000, 17:36:28.095
51, -4173.93, -4719.88, -4663.46, -3929.34, 0.000, 0.000, 0.000, 17:36:28.110
52, -4276.89, -4812.01, -4752.20, -4010.02, 0.000, 0.000, 0.000, 17:36:28.110
53, -4078.55, -4588.30, -4536.56, -3799.14, 0.000, 0.000, 0.000, 17:36:28.110
54, -3881.67, -4391.65, -4356.01, -3619.59, 0.000, 0.000, 0.000, 17:36:28.111
55, -4157.59, -4722.90, -4658.26, -3925.65, 0.000, 0.000, 0.000, 17:36:28.124
56, -4284.73, -4822.00, -4754.46, -4018.10, 0.000, 0.000, 0.000, 17:36:28.124
57, -4080.54, -4600.33, -4552.41, -3800.55, 0.000, 0.000, 0.000, 17:36:28.139
58, -3899.14, -4406.00, -4364.68, -3626.07, 0.000, 0.000, 0.000, 17:36:28.139
59, -4164.11, -4706.77, -4654.70, -3920.78, 0.000, 0.000, 0.000, 17:36:28.139
60, -4276.01, -4816.24, -4745.34, -4018.35, 0.000, 0.000, 0.000, 17:36:28.139
61, -4088.72, -4593.88, -4544.55, -3807.30, 0.000, 0.000, 0.000, 17:36:28.155
62, -3900.36, -4417.85, -4363.94, -3629.13, 0.000, 0.000, 0.000, 17:36:28.155
63, -4156.60, -4700.01, -4643.73, -3921.78, 0.000, 0.000, 0.000, 17:36:28.169
64, -4285.73, -4819.29, -4745.07, -4017.41, 0.000, 0.000, 0.000, 17:36:28.169
65, -4085.50, -4602.88, -4546.76, -3810.11, 0.000, 0.000, 0.000, 17:36:28.170
66, -3899.05, -4410.83, -4362.15, -3629.02, 0.000, 0.000, 0.000, 17:36:28.170
67, -4169.34, -4711.73, -4661.12, -3928.54, 0.000, 0.000, 0.000, 17:36:28.184
68, -4292.29, -4820.02, -4768.83, -4031.26, 0.000, 0.000, 0.000, 17:36:28.184
69, -4085.09, -4607.72, -4543.65, -3810.64, 0.000, 0.000, 0.000, 17:36:28.199
70, -3893.31, -4403.56, -4363.65, -3618.11, 0.000, 0.000, 0.000, 17:36:28.199
71, -4143.05, -4695.42, -4642.97, -3907.48, 0.000, 0.000, 0.000, 17:36:28.206
72, -4275.02, -4808.09, -4753.98, -4005.46, 0.000, 0.000, 0.000, 17:36:28.206
73, -4080.46, -4587.09, -4542.69, -3796.76, 0.000, 0.000, 0.000, 17:36:28.215
74, -3894.19, -4423.54, -4372.08, -3627.14, 0.000, 0.000, 0.000, 17:36:28.215
75, -4156.02, -4692.87, -4643.79, -3912.95, 0.000, 0.000, 0.000, 17:36:28.230
76, -4286.30, -4812.40, -4752.16, -4020.64, 0.000, 0.000, 0.000, 17:36:28.230
77, -4082.76, -4602.60, -4546.24, -3810.89, 0.000, 0.000, 0.000, 17:36:28.230
78, -3891.54, -4394.79, -4366.94, -3629.26, 0.000, 0.000, 0.000, 17:36:28.230
79, -4152.60, -4694.62, -4648.37, -3917.78, 0.000, 0.000, 0.000, 17:36:28.245
80, -4289.50, -4822.94, -4763.76, -4026.12, 0.000, 0.000, 0.000, 17:36:28.245
81, -4070.57, -4597.59, -4542.08, -3803.12, 0.000, 0.000, 0.000, 17:36:28.259
82, -3886.92, -4401.72, -4353.40, -3625.75, 0.000, 0.000, 0.000, 17:36:28.259
83, -4132.31, -4680.37, -4630.54, -3895.71, 0.000, 0.000, 0.000, 17:36:28.260
84, -4272.85, -4808.15, -4756.26, -4020.29, 0.000, 0.000, 0.000, 17:36:28.260
85, -4086.68, -4599.81, -4554.77, -3811.05, 0.000, 0.000, 0.000, 17:36:28.274
86, -3887.94, -4394.73, -4365.35, -3626.68, 0.000, 0.000, 0.000, 17:36:28.274
87, -4131.03, -4689.84, -4626.32, -3903.74, 0.000, 0.000, 0.000, 17:36:28.289
88, -4289.97, -4808.99, -4751.31, -4016.65, 0.000, 0.000, 0.000, 17:36:28.289
89, -4090.58, -4602.76, -4554.55, -3808.62, 0.000, 0.000, 0.000, 17:36:28.290
90, -3895.12, -4421.49, -4381.57, -3637.05, 0.000, 0.000, 0.000, 17:36:28.290
91, -4148.41, -4707.35, -4654.80, -3911.32, 0.000, 0.000, 0.000, 17:36:28.304
92, -4312.39, -4861.13, -4788.06, -4038.38, 0.000, 0.000, 0.000, 17:36:28.304
93, -4110.72, -4618.24, -4554.25, -3825.44, 0.000, 0.000, 0.000, 17:36:28.319
94, -3875.30, -4412.33, -4356.10, -3631.99, 0.000, 0.000, 0.000, 17:36:28.319
95, -4134.15, -4685.93, -4626.13, -3901.07, 0.000, 0.000, 0.000, 17:36:28.320
96, -4287.45, -4820.41, -4765.03, -4029.83, 0.000, 0.000, 0.000, 17:36:28.320
97, -4083.09, -4613.15, -4551.07, -3809.12, 0.000, 0.000, 0.000, 17:36:28.334
98, -3873.43, -4382.35, -4346.67, -3615.54, 0.000, 0.000, 0.000, 17:36:28.334
99, -4122.50, -4668.33, -4629.91, -3893.92, 0.000, 0.000, 0.000, 17:36:28.365
100, -4298.14, -4826.66, -4782.57, -4033.88, 0.000, 0.000, 0.000, 17:36:28.365
