%OpenBCI Raw EEG Data
%
%Sample Rate = 200.0 Hz
%First Column = SampleIndex
%Last Column = Timestamp 
%Other Columns = EEG data in microvolts followed by Accel Data (in G) interleaved with Aux Data
0, -3951.26, -4488.13, -4264.50, -3612.46, 0.000, 0.000, 0.000, 17:31:25.301
1, -4178.89, -4733.87, -4502.41, -3827.29, 0.000, 0.000, 0.000, 17:31:25.315
2, -4018.61, -4551.47, -4318.19, -3623.44, 0.000, 0.000, 0.000, 17:31:25.315
3, -3834.59, -4346.29, -4117.10, -3447.26, 0.000, 0.000, 0.000, 17:31:25.331
4, -3932.84, -4475.30, -4262.86, -3587.72, 0.000, 0.000, 0.000, 17:31:25.331
5, -4149.28, -4698.57, -4479.35, -3786.68, 0.000, 0.000, 0.000, 17:31:25.331
6, -3977.10, -4505.66, -4296.43, -3592.88, 0.000, 0.000, 0.000, 17:31:25.331
7, -3798.41, -4310.65, -4105.08, -3413.65, 0.000, 0.000, 0.000, 17:31:25.345
8, -3896.44, -4450.98, -4225.15, -3570.11, 0.000, 0.000, 0.000, 17:31:25.345
9, -4118.24, -4691.23, -4453.40, -3774.04, 0.000, 0.000, 0.000, 17:31:25.361
10, -3976.56, -4490.45, -4280.30, -3601.58, 0.000, 0.000, 0.000, 17:31:25.361
11, -3795.13, -4323.03, -4112.28, -3412.89, 0.000, 0.000, 0.000, 17:31:25.361
12, -3896.08, -4436.43, -4229.59, -3553.46, 0.000, 0.000, 0.000, 17:31:25.361
13, -4124.04, -4670.33, -4439.88, -3770.95, 0.000, 0.000, 0.000, 17:31:25.375
14, -3973.16, -4496.87, -4293.26, -3585.98, 0.000, 0.000, 0.000, 17:31:25.375
15, -3785.45, -4275.34, -4082.25, -3410.33, 0.000, 0.000, 0.000, 17:31:25.391
16, -3893.15, -4438.13, -4226.82, -3564.71, 0.000, 0.000, 0.000, 17:31:25.391
17, -4117.42, -4685.49, -4433.04, -3766.76, 0.000, 0.000, 0.000, 17:31:25.391
18, -3942.31, -4468.45, -4252.08, -3577.76, 0.000, 0.000, 0.000, 17:31:25.392
19, -3768.64, -4290.26, -4067.55, -3405.58, 0.000, 0.000, 0.000, 17:31:25.405
20, -3877.25, -4431.54, -4233.44, -3543.90, 0.000, 0.000, 0.000, 17:31:25.405
21, -4110.38, -4673.84, -4457.23, -3769.93, 0.000, 0.000, 0.000, 17:31:25.435
22, -3962.48, -4483.65, -4282.80, -3580.45, 0.000, 0.000, 0.000, 17:31:25.435
23, -3779.81, -4289.63, -4083.24, -3412.27, 0.000, 0.000, 0.000, 17:31:25.435
24, -3886.31, -4441.68, -4227.15, -3564.47, 0.000, 0.000, 0.000, 17:31:25.436
25, -4115.37, -4657.31, -4435.70, -3770.43, 0.000, 0.000, 0.000, 17:31:25.436
26, -3962.68, -4509.93, -4277.13, -3583.42, 0.000, 0.000, 0.000, 17:31:25.436
27, -3776.08, -4288.54, -4085.10, -3402.60, 0.000, 0.000, 0.000, 17:31:25.437
28, -3873.10, -4416.18, -4232.10, -3568.72, 0.000, 0.000, 0.000, 17:31:25.437
29, -4118.71, -4673.85, -4457.87, -3791.99, 0.000, 0.000, 0.000, 17:31:25.450
30, -3994.42, -4519.38, -4275.95, -3611.58, 0.000, 0.000, 0.000, 17:31:25.450
31, -3790.53, -4304.09, -4106.09, -3411.83, 0.000, 0.000, 0.000, 17:31:25.465
32, -3904.28, -4446.07, -4248.24, -3570.64, 0.000, 0.000, 0.000, 17:31:25.466
33, -4123.22, -4673.11, -4460.89, -3781.21, 0.000, 0.000, 0.000, 17:31:25.480
34, -3976.19, -4489.50, -4282.59, -3602.28, 0.000, 0.000, 0.000, 17:31:25.480
35, -3800.57, -4308.95, -4107.80, -3425.39, 0.000, 0.000, 0.000, 17:31:25.481
36, -3900.52, -4453.98, -4243.60, -3573.87, 0.000, 0.000, 0.000, 17:31:25.481
37, -4114.48, -4680.53, -4445.80, -3782.80, 0.000, 0.000, 0.000, 17:31:25.495
38, -3977.02, -4511.16, -4282.16, -3607.19, 0.000, 0.000, 0.000, 17:31:25.495
39, -3798.92, -4301.50, -4106.06, -3418.84, 0.000, 0.000, 0.000, 17:31:25.511
40, -3912.26, -4463.71, -4252.70, -3588.12, 0.000, 0.000, 0.000, 17:31:25.511
41, -4133.83, -4698.15, -4479.17, -3785.46, 0.000, 0.000, 0.000, 17:31:25.511
42, -4000.42, -4541.23, -4310.95, -3609.78, 0.000, 0.000, 0.000, 17:31:25.511
43, -3811.32, -4325.17, -4115.93, -3430.12, 0.000, 0.000, 0.000, 17:31:25.526
44, -3908.92, -4455.63, -4257.42, -3579.64, 0.000, 0.000, 0.000, 17:31:25.526
45, -4118.89, -4666.18, -4461.73, -3773.83, 0.000, 0.000, 0.000, 17:31:25.540
46, -3975.27, -4497.02, -4271.85, -3588.73, 0.000, 0.000, 0.000, 17:31:25.541
47, -3781.30, -4281.32, -4067.91, -3411.09, 0.000, 0.000, 0.000, 17:31:25.541
48, -3892.68, -4450.71, -4238.63, -3566.49, 0.000, 0.000, 0.000, 17:31:25.541
49, -4127.37, -4686.04, -4456.43, -3780.24, 0.000, 0.000, 0.000, 17:31:25.562
50, -3961.90, -4495.98, -4264.96, -3588.30, 0.000, 0.000, 0.000, 17:31:25.562
51, -3787.82, -4313.64, -4095.24, -3403.21, 0.000, 0.000, 0.000, 17:31:25.570
52, -3910.87, -4452.79, -4239.58, -3565.49, 0.000, 0.000, 0.000, 17:31:25.571
53, -4119.72, -4673.92, -4452.97, -3772.99, 0.000, 0.000, 0.000, 17:31:25.571
54, -3965.52, -4489.28, -4283.46, -3591.82, 0.000, 0.000, 0.000, 17:31:25.571
55, -3766.61, -4283.33, -4078.80, -3410.31, 0.000, 0.000, 0.000, 17:31:25.585
56, -3874.83, -4434.96, -4234.02, -3563.23, 0.000, 0.000, 0.000, 17:31:25.585
57, -4110.27, -4672.03, -4440.55, -3769.63, 0.000, 0.000, 0.000, 17:31:25.600
58, -3966.18, -4494.45, -4284.41, -3593.93, 0.000, 0.000, 0.000, 17:31:25.600
59, -3789.87, -4305.17, -4079.52, -3415.83, 0.000, 0.000, 0.000, 17:31:25.600
60, -3899.58, -4435.13, -4241.79, -3577.59, 0.000, 0.000, 0.000, 17:31:25.601
61, -4106.13, -4666.15, -4437.61, -3772.69, 0.000, 0.000, 0.000, 17:31:25.616
62, -3968.93, -4492.26, -4284.96, -3584.32, 0.000, 0.000, 0.000, 17:31:25.616
63, -3787.59, -4297.72, -4089.01, -3412.62, 0.000, 0.000, 0.000, 17:31:25.630
64, -3896.70, -4449.78, -4233.06, -3559.63, 0.000, 0.000, 0.000, 17:31:25.630
65, -4109.21, -4664.88, -4439.50, -3770.52, 0.000, 0.000, 0.000, 17:31:25.631
66, -3969.36, -4495.42, -4276.59, -3590.91, 0.000, 0.000, 0.000, 17:31:25.631
67, -3783.39, -4293.38, -4080.16, -3410.09, 0.000, 0.000, 0.000, 17:31:25.661
68, -3889.90, -4437.48, -4233.06, -3572.39, 0.000, 0.000, 0.000, 17:31:25.661
69, -4107.29, -4660.79, -4444.65, -3768.50, 0.000, 0.000, 0.000, 17:31:25.661
70, -3969.46, -4501.76, -4278.39, -3602.26, 0.000, 0.000, 0.000, 17:31:25.661
71, -3797.73, -4305.75, -4099.83, -3422.14, 0.000, 0.000, 0.000, 17:31:25.662
72, -3912.30, -4474.95, -4260.93, -3579.00, 0.000, 0.000, 0.000, 17:31:25.662
73, -4116.47, -4662.00, -4446.51, -3760.30, 0.000, 0.000, 0.000, 17:31:25.676
74, -3970.43, -4489.12, -4265.57, -3570.18, 0.000, 0.000, 0.000, 17:31:25.676
75, -3767.73, -4281.85, -4064.51, -3407.41, 0.000, 0.000, 0.000, 17:31:25.691
76, -3897.89, -4447.86, -4235.31, -3576.54, 0.000, 0.000, 0.000, 17:31:25.691
77, -4112.40, -4665.13, -4444.00, -3769.76, 0.000, 0.000, 0.000, 17:31:25.691
78, -3961.04, -4481.42, -4278.65, -3583.45, 0.000, 0.000, 0.000, 17:31:25.691
79, -3786.05, -4306.58, -4097.02, -3414.95, 0.000, 0.000, 0.000, 17:31:25.706
80, -3896.04, -4438.46, -4229.44, -3566.59, 0.000, 0.000, 0.000, 17:31:25.706
81, -4102.94, -4669.72, -4441.98, -3754.07, 0.000, 0.000, 0.000, 17:31:25.720
82, -3954.35, -4478.79, -4265.86, -3585.91, 0.000, 0.000, 0.000, 17:31:25.720
83, -3787.54, -4311.71, -4076.70, -3410.08, 0.000, 0.000, 0.000, 17:31:25.721
84, -3907.48, -4458.82, -4252.52, -3575.22, 0.000, 0.000, 0.000, 17:31:25.721
85, -4116.76, -4663.29, -4446.88, -3768.88, 0.000, 0.000, 0.000, 17:31:25.736
86, -3963.12, -4490.52, -4274.52, -3584.04, 0.000, 0.000, 0.000, 17:31:25.736
87, -3794.32, -4305.93, -4106.53, -3420.38, 0.000, 0.000, 0.000, 17:31:25.750
88, -3911.56, -4460.85, -4244.37, -3584.33, 0.000, 0.000, 0.000, 17:31:25.750
89, -4106.97, -4655.84, -4450.59, -3766.54, 0.000, 0.000, 0.000, 17:31:25.750
90, -3962.42, -4490.41, -4250.33, -3580.32, 0.000, 0.000, 0.000, 17:31:25.751
91, -3796.00, -4300.45, -4077.97, -3417.93, 0.000, 0.000, 0.000, 17:31:25.765
92, -3910.62, -4457.26, -4237.13, -3590.20, 0.000, 0.000, 0.000, 17:31:25.765
93, -4107.11, -4649.40, -4426.88, -3763.74, 0.000, 0.000, 0.000, 17:31:25.780
94, -3955.96, -4496.64, -4273.52, -3582.57, 0.000, 0.000, 0.000, 17:31:25.780
95, -3776.61, -4291.07, -4089.63, -3407.41, 0.000, 0.000, 0.000, 17:31:25.781
96, -3900.31, -4442.85, -4245.73, -3574.98, 0.000, 0.000, 0.000, 17:31:25.781
97, -4110.65, -4655.43, -4448.56, -3771.28, 0.000, 0.000, 0.000, 17:31:25.795
98, -3955.23, -4474.57, -4261.31, -3580.36, 0.000, 0.000, 0.000, 17:31:25.795
99, -3785.43, -4292.15, -4091.52, -3402.21, 0.000, 0.000, 0.000, 17:31:25.811
100, -3898.23, -4459.00, -4239.46, -3575.68, 0.000, 0.000, 0.000, 17:31:25.811
101, -4093.21, -4654.92, -4430.93, -3759.38, 0.000, 0.000, 0.000, 17:31:25.811
102, -3957.77, -4474.00, -4251.96, -3576.31, 0.000, 0.000, 0.000, 17:31:25.811
103, -3774.42, -4280.51, -4088.22, -3401.19, 0.000, 0.000, 0.000, 17:31:25.826
104, -3896.67, -4446.22, -4246.99, -3575.65, 0.000, 0.000, 0.000, 17:31:25.826
105, -4113.83, -4670.22, -4446.40, -3758.54, 0.000, 0.000, 0.000, 17:31:25.841
106, -3948.02, -4464.78, -4259.56, -3568.49, 0.000, 0.000, 0.000, 17:31:25.841
107, -3782.58, -4290.21, -4081.61, -3404.37, 0.000, 0.000, 0.000, 17:31:25.842
108, -3908.44, -4453.19, -4232.56, -3574.53, 0.000, 0.000, 0.000, 17:31:25.842
109, -4113.31, -4658.42, -4433.74, -3760.34, 0.000, 0.000, 0.000, 17:31:25.855
110, -3956.05, -4478.15, -4263.88, -3569.88, 0.000, 0.000, 0.000, 17:31:25.855
111, -3783.67, -4292.79, -4083.16, -3401.76, 0.000, 0.000, 0.000, 17:31:25.870
112, -3912.78, -4468.27, -4259.49, -3580.38, 0.000, 0.000, 0.000, 17:31:25.870
113, -4113.92, -4657.00, -4444.66, -3761.57, 0.000, 0.000, 0.000, 17:31:25.871
114, -3949.98, -4472.18, -4250.07, -3564.81, 0.000, 0.000, 0.000, 17:31:25.871
115, -3770.16, -4287.80, -4084.46, -3391.28, 0.000, 0.000, 0.000, 17:31:25.885
116, -3901.49, -4457.35, -4246.28, -3579.93, 0.000, 0.000, 0.000, 17:31:25.885
117, -4104.78, -4658.29, -4433.59, -3758.48, 0.000, 0.000, 0.000, 17:31:25.901
118, -3949.18, -4479.11, -4261.34, -3570.68, 0.000, 0.000, 0.000, 17:31:25.901
119, -3776.16, -4298.00, -4093.21, -3406.64, 0.000, 0.000, 0.000, 17:31:25.901
120, -3906.68, -4462.35, -4252.65, -3576.98, 0.000, 0.000, 0.000, 17:31:25.901
121, -4107.42, -4672.10, -4433.62, -3774.25, 0.000, 0.000, 0.000, 17:31:25.916
122, -3955.97, -4484.90, -4252.70, -3582.69, 0.000, 0.000, 0.000, 17:31:25.916
123, -3774.86, -4285.91, -4094.16, -3402.29, 0.000, 0.000, 0.000, 17:31:25.930
124, -3919.47, -4477.77, -4252.04, -3592.80, 0.000, 0.000, 0.000, 17:31:25.930
125, -4108.27, -4673.17, -4447.10, -3763.55, 0.000, 0.000, 0.000, 17:31:25.930
126, -3953.97, -4491.22, -4263.24, -3573.98, 0.000, 0.000, 0.000, 17:31:25.930
127, -3770.25, -4295.28, -4088.04, -3409.77, 0.000, 0.000, 0.000, 17:31:25.945
128, -3903.05, -4455.40, -4260.66, -3583.26, 0.000, 0.000, 0.000, 17:31:25.945
129, -4109.79, -4664.53, -4442.34, -3758.86, 0.000, 0.000, 0.000, 17:31:25.961
130, -3958.18, -4467.65, -4275.85, -3577.82, 0.000, 0.000, 0.000, 17:31:25.961
131, -3778.39, -4293.85, -4080.11, -3397.73, 0.000, 0.000, 0.000, 17:31:25.961
132, -3908.42, -4456.50, -4245.81, -3578.11, 0.000, 0.000, 0.000, 17:31:25.961
133, -4105.23, -4649.99, -4431.96, -3750.04, 0.000, 0.000, 0.000, 17:31:25.975
134, -3957.12, -4479.17, -4265.48, -3567.46, 0.000, 0.000, 0.000, 17:31:25.975
135, -3779.63, -4303.42, -4086.46, -3407.26, 0.000, 0.000, 0.000, 17:31:25.990
136, -3907.65, -4471.25, -4251.94, -3589.75, 0.000, 0.000, 0.000, 17:31:25.991
137, -4113.09, -4673.52, -4455.66, -3770.22, 0.000, 0.000, 0.000, 17:31:25.991
138, -3958.24, -4485.17, -4268.89, -3579.89, 0.000, 0.000, 0.000, 17:31:25.991
139, -3774.48, -4289.79, -4083.41, -3405.20, 0.000, 0.000, 0.000, 17:31:26.005
140, -3914.84, -4459.43, -4248.15, -3590.74, 0.000, 0.000, 0.000, 17:31:26.005
141, -4098.16, -4645.96, -4433.87, -3754.32, 0.000, 0.000, 0.000, 17:31:26.020
142, -3949.56, -4467.69, -4260.10, -3564.69, 0.000, 0.000, 0.000, 17:31:26.020
143, -3773.78, -4289.81, -4063.81, -3404.75, 0.000, 0.000, 0.000, 17:31:26.021
144, -3904.77, -4457.64, -4240.33, -3582.03, 0.000, 0.000, 0.000, 17:31:26.022
145, -4098.48, -4658.79, -4430.03, -3753.64, 0.000, 0.000, 0.000, 17:31:26.035
146, -3969.17, -4495.91, -4279.80, -3584.38, 0.000, 0.000, 0.000, 17:31:26.035
147, -3793.98, -4312.21, -4105.59, -3416.87, 0.000, 0.000, 0.000, 17:31:26.050
148, -3922.07, -4471.97, -4254.21, -3595.62, 0.000, 0.000, 0.000, 17:31:26.050
149, -4097.31, -4668.98, -4430.83, -3760.56, 0.000, 0.000, 0.000, 17:31:26.050
150, -3937.84, -4458.30, -4244.82, -3579.80, 0.000, 0.000, 0.000, 17:31:26.050
151, -3771.05, -4290.20, -4060.64, -3407.68, 0.000, 0.000, 0.000, 17:31:26.065
152, -3913.97, -4469.07, -4240.15, -3597.97, 0.000, 0.000, 0.000, 17:31:26.066
153, -4102.89, -4658.93, -4438.29, -3755.50, 0.000, 0.000, 0.000, 17:31:26.080
154, -3939.69, -4462.81, -4250.02, -3573.64, 0.000, 0.000, 0.000, 17:31:26.080
155, -3769.66, -4287.47, -4080.45, -3409.17, 0.000, 0.000, 0.000, 17:31:26.081
156, -3899.17, -4456.60, -4249.95, -3582.55, 0.000, 0.000, 0.000, 17:31:26.081
157, -4101.10, -4661.28, -4440.53, -3766.87, 0.000, 0.000, 0.000, 17:31:26.095
158, -3934.36, -4470.35, -4256.28, -3573.18, 0.000, 0.000, 0.000, 17:31:26.095
159, -3769.84, -4289.69, -4074.71, -3398.13, 0.000, 0.000, 0.000, 17:31:26.111
160, -3925.64, -4473.95, -4259.21, -3602.35, 0.000, 0.000, 0.000, 17:31:26.111
161, -4109.95, -4670.00, -4436.73, -3761.19, 0.000, 0.000, 0.000, 17:31:26.111
162, -3958.81, -4488.66, -4258.83, -3574.78, 0.000, 0.000, 0.000, 17:31:26.111
163, -3780.40, -4295.67, -4095.22, -3394.58, 0.000, 0.000, 0.000, 17:31:26.125
164, -3920.01, -4483.41, -4279.35, -3599.46, 0.000, 0.000, 0.000, 17:31:26.125
165, -4111.66, -4652.36, -4443.00, -3771.74, 0.000, 0.000, 0.000, 17:31:26.141
166, -3952.93, -4469.44, -4267.21, -3576.35, 0.000, 0.000, 0.000, 17:31:26.141
167, -3776.87, -4308.83, -4086.57, -3413.16, 0.000, 0.000, 0.000, 17:31:26.142
168, -3925.33, -4482.08, -4277.74, -3591.79, 0.000, 0.000, 0.000, 17:31:26.142
169, -4113.88, -4665.95, -4444.06, -3763.71, 0.000, 0.000, 0.000, 17:31:26.156
170, -3940.73, -4480.93, -4264.48, -3564.73, 0.000, 0.000, 0.000, 17:31:26.156
171, -3776.35, -4287.62, -4088.77, -3401.11, 0.000, 0.000, 0.000, 17:31:26.170
172, -3923.10, -4480.20, -4272.47, -3602.12, 0.000, 0.000, 0.000, 17:31:26.170
173, -4113.09, -4677.88, -4442.58, -3759.33, 0.000, 0.000, 0.000, 17:31:26.171
174, -3948.28, -4475.56, -4266.08, -3569.56, 0.000, 0.000, 0.000, 17:31:26.171
175, -3772.16, -4296.21, -4084.05, -3407.84, 0.000, 0.000, 0.000, 17:31:26.186
176, -3915.00, -4471.31, -4260.72, -3597.36, 0.000, 0.000, 0.000, 17:31:26.186
177, -4099.40, -4667.09, -4446.29, -3767.08, 0.000, 0.000, 0.000, 17:31:26.200
178, -3950.57, -4488.41, -4265.28, -3565.71, 0.000, 0.000, 0.000, 17:31:26.200
179, -3773.66, -4287.37, -4086.93, -3404.68, 0.000, 0.000, 0.000, 17:31:26.201
180, -3941.47, -4491.54, -4280.67, -3616.07, 0.000, 0.000, 0.000, 17:31:26.201
181, -4123.93, -4675.22, -4446.00, -3764.46, 0.000, 0.000, 0.000, 17:31:26.215
182, -3948.30, -4461.35, -4260.60, -3577.73, 0.000, 0.000, 0.000, 17:31:26.215
183, -3775.49, -4305.28, -4093.02, -3414.73, 0.000, 0.000, 0.000, 17:31:26.230
184, -3932.50, -4508.49, -4269.30, -3611.62, 0.000, 0.000, 0.000, 17:31:26.230
185, -4115.83, -4683.48, -4446.14, -3761.85, 0.000, 0.000, 0.000, 17:31:26.230
186, -3955.21, -4494.21, -4275.74, -3576.96, 0.000, 0.000, 0.000, 17:31:26.231
187, -3777.79, -4312.51, -4084.60, -3410.85, 0.000, 0.000, 0.000, 17:31:26.246
188, -3901.40, -4456.96, -4246.40, -3590.21, 0.000, 0.000, 0.000, 17:31:26.246
189, -4094.91, -4647.89, -4426.15, -3749.07, 0.000, 0.000, 0.000, 17:31:26.261
190, -3926.67, -4458.75, -4233.20, -3555.13, 0.000, 0.000, 0.000, 17:31:26.261
191, -3766.31, -4289.30, -4075.72, -3405.76, 0.000, 0.000, 0.000, 17:31:26.261
192, -3911.14, -4480.40, -4266.37, -3597.65, 0.000, 0.000, 0.000, 17:31:26.261
193, -4096.57, -4660.36, -4431.73, -3748.74, 0.000, 0.000, 0.000, 17:31:26.275
194, -3932.76, -4484.88, -4263.48, -3574.17, 0.000, 0.000, 0.000, 17:31:26.276
195, -3767.06, -4311.96, -4088.59, -3404.81, 0.000, 0.000, 0.000, 17:31:26.291
196, -3906.77, -4483.77, -4263.57, -3604.20, 0.000, 0.000, 0.000, 17:31:26.291
197, -4098.36, -4668.28, -4441.51, -3759.67, 0.000, 0.000, 0.000, 17:31:26.292
198, -3946.10, -4475.31, -4266.29, -3583.39, 0.000, 0.000, 0.000, 17:31:26.292
199, -3762.87, -4305.81, -4071.92, -3411.08, 0.000, 0.000, 0.000, 17:31:26.306
200, -3911.34, -4491.39, -4265.79, -3602.25, 0.000, 0.000, 0.000, 17:31:26.306
0, -4093.39, -4664.76, -4437.30, -3754.46, 0.000, 0.000, 0.000, 17:31:26.320
1, -3950.34, -4481.54, -4253.52, -3565.18, 0.000, 0.000, 0.000, 17:31:26.321
2, -3772.20, -4302.42, -4096.35, -3415.70, 0.000, 0.000, 0.000, 17:31:26.321
3, -3914.30, -4492.42, -4271.56, -3603.30, 0.000, 0.000, 0.000, 17:31:26.335
4, -4096.06, -4648.28, -4434.33, -3757.38, 0.000, 0.000, 0.000, 17:31:26.335
5, -3941.87, -4476.79, -4263.81, -3567.90, 0.000, 0.000, 0.000, 17:31:26.335
6, -3775.22, -4319.34, -4099.29, -3402.95, 0.000, 0.000, 0.000, 17:31:26.336
7, -3935.78, -4512.41, -4283.15, -3614.64, 0.000, 0.000, 0.000, 17:31:26.350
8, -4107.40, -4659.97, -4449.16, -3764.10, 0.000, 0.000, 0.000, 17:31:26.350
9, -3945.73, -4472.38, -4250.42, -3570.44, 0.000, 0.000, 0.000, 17:31:26.365
10, -3767.90, -4287.31, -4069.83, -3405.09, 0.000, 0.000, 0.000, 17:31:26.365
11, -3932.52, -4495.95, -4273.86, -3610.66, 0.000, 0.000, 0.000, 17:31:26.373
12, -4105.23, -4673.06, -4448.63, -3760.32, 0.000, 0.000, 0.000, 17:31:26.373
13, -3936.95, -4467.92, -4240.73, -3560.30, 0.000, 0.000, 0.000, 17:31:26.380
14, -3778.92, -4297.36, -4086.72, -3402.95, 0.000, 0.000, 0.000, 17:31:26.380
15, -3923.54, -4484.00, -4282.76, -3603.21, 0.000, 0.000, 0.000, 17:31:26.395
16, -4107.01, -4659.72, -4450.76, -3762.56, 0.000, 0.000, 0.000, 17:31:26.395
17, -3957.55, -4487.95, -4271.43, -3571.49, 0.000, 0.000, 0.000, 17:31:26.396
18, -3788.84, -4298.32, -4104.15, -3405.31, 0.000, 0.000, 0.000, 17:31:26.396
19, -3939.49, -4491.69, -4291.59, -3602.29, 0.000, 0.000, 0.000, 17:31:26.411
20, -4104.03, -4647.14, -4418.05, -3750.59, 0.000, 0.000, 0.000, 17:31:26.411
21, -3930.56, -4450.87, -4242.72, -3549.45, 0.000, 0.000, 0.000, 17:31:26.425
22, -3764.87, -4289.23, -4082.09, -3395.32, 0.000, 0.000, 0.000, 17:31:26.425
23, -3933.19, -4501.82, -4285.02, -3604.25, 0.000, 0.000, 0.000, 17:31:26.425
24, -4105.33, -4664.88, -4447.44, -3754.84, 0.000, 0.000, 0.000, 17:31:26.426
25, -3936.28, -4459.75, -4244.81, -3557.39, 0.000, 0.000, 0.000, 17:31:26.441
26, -3783.70, -4281.13, -4084.78, -3418.78, 0.000, 0.000, 0.000, 17:31:26.443
27, -3942.05, -4495.57, -4278.34, -3619.09, 0.000, 0.000, 0.000, 17:31:26.470
28, -4105.71, -4662.71, -4429.80, -3753.83, 0.000, 0.000, 0.000, 17:31:26.471
29, -3948.61, -4453.27, -4257.08, -3561.95, 0.000, 0.000, 0.000, 17:31:26.471
30, -3777.58, -4276.99, -4091.54, -3388.14, 0.000, 0.000, 0.000, 17:31:26.471
31, -3937.75, -4487.99, -4269.56, -3609.96, 0.000, 0.000, 0.000, 17:31:26.471
32, -4113.71, -4665.86, -4428.62, -3754.46, 0.000, 0.000, 0.000, 17:31:26.471
33, -3950.36, -4479.69, -4255.08, -3567.46, 0.000, 0.000, 0.000, 17:31:26.472
34, -3761.60, -4267.89, -4072.33, -3382.48, 0.000, 0.000, 0.000, 17:31:26.473
35, -3939.93, -4462.73, -4277.74, -3606.64, 0.000, 0.000, 0.000, 17:31:26.485
36, -4120.78, -4662.10, -4444.40, -3757.98, 0.000, 0.000, 0.000, 17:31:26.485
37, -3937.67, -4453.90, -4239.30, -3559.93, 0.000, 0.000, 0.000, 17:31:26.500
38, -3768.71, -4287.74, -4081.44, -3398.15, 0.000, 0.000, 0.000, 17:31:26.500
39, -3920.23, -4466.01, -4265.23, -3597.94, 0.000, 0.000, 0.000, 17:31:26.516
40, -4106.67, -4650.04, -4437.96, -3753.08, 0.000, 0.000, 0.000, 17:31:26.516
41, -3942.30, -4461.36, -4231.40, -3567.27, 0.000, 0.000, 0.000, 17:31:26.516
42, -3777.10, -4290.02, -4080.79, -3406.49, 0.000, 0.000, 0.000, 17:31:26.516
43, -3939.91, -4481.34, -4288.46, -3607.67, 0.000, 0.000, 0.000, 17:31:26.530
44, -4109.18, -4644.05, -4424.44, -3744.58, 0.000, 0.000, 0.000, 17:31:26.530
45, -3952.94, -4459.86, -4269.49, -3564.56, 0.000, 0.000, 0.000, 17:31:26.545
46, -3782.75, -4294.96, -4096.25, -3408.11, 0.000, 0.000, 0.000, 17:31:26.545
47, -3949.06, -4499.76, -4285.81, -3615.27, 0.000, 0.000, 0.000, 17:31:26.546
48, -4107.23, -4668.14, -4423.53, -3763.21, 0.000, 0.000, 0.000, 17:31:26.546
49, -3941.69, -4459.10, -4246.40, -3568.16, 0.000, 0.000, 0.000, 17:31:26.561
50, -3772.13, -4269.37, -4075.02, -3408.04, 0.000, 0.000, 0.000, 17:31:26.561
51, -3937.22, -4490.34, -4285.83, -3613.05, 0.000, 0.000, 0.000, 17:31:26.575
52, -4103.22, -4647.39, -4428.10, -3747.46, 0.000, 0.000, 0.000, 17:31:26.575
53, -3951.62, -4457.04, -4255.47, -3564.60, 0.000, 0.000, 0.000, 17:31:26.576
54, -3773.57, -4283.82, -4071.33, -3406.84, 0.000, 0.000, 0.000, 17:31:26.576
55, -3935.03, -4478.11, -4293.45, -3605.21, 0.000, 0.000, 0.000, 17:31:26.591
56, -4094.96, -4645.47, -4409.99, -3751.75, 0.000, 0.000, 0.000, 17:31:26.591
57, -3941.02, -4442.50, -4246.05, -3563.08, 0.000, 0.000, 0.000, 17:31:26.605
58, -3764.54, -4278.26, -4067.10, -3403.54, 0.000, 0.000, 0.000, 17:31:26.605
59, -3932.28, -4488.33, -4266.38, -3621.74, 0.000, 0.000, 0.000, 17:31:26.606
60, -4103.54, -4649.06, -4438.36, -3750.59, 0.000, 0.000, 0.000, 17:31:26.606
61, -3951.25, -4476.27, -4244.61, -3565.21, 0.000, 0.000, 0.000, 17:31:26.621
62, -3767.54, -4272.93, -4084.04, -3399.92, 0.000, 0.000, 0.000, 17:31:26.621
63, -3943.92, -4491.19, -4295.18, -3614.98, 0.000, 0.000, 0.000, 17:31:26.635
64, -4113.11, -4649.60, -4436.76, -3752.32, 0.000, 0.000, 0.000, 17:31:26.635
65, -3951.79, -4459.16, -4252.16, -3564.64, 0.000, 0.000, 0.000, 17:31:26.636
66, -3776.74, -4285.95, -4085.22, -3412.79, 0.000, 0.000, 0.000, 17:31:26.636
67, -3960.41, -4508.77, -4311.17, -3624.84, 0.000, 0.000, 0.000, 17:31:26.650
68, -4119.60, -4657.31, -4440.51, -3761.58, 0.000, 0.000, 0.000, 17:31:26.650
69, -3953.15, -4467.73, -4263.10, -3555.70, 0.000, 0.000, 0.000, 17:31:26.665
70, -3778.65, -4286.49, -4093.21, -3403.22, 0.000, 0.000, 0.000, 17:31:26.666
71, -3953.71, -4505.33, -4290.52, -3621.92, 0.000, 0.000, 0.000, 17:31:26.666
72, -4115.30, -4664.55, -4429.59, -3753.27, 0.000, 0.000, 0.000, 17:31:26.666
73, -3941.22, -4464.04, -4225.46, -3555.72, 0.000, 0.000, 0.000, 17:31:26.680
74, -3774.71, -4275.81, -4087.77, -3415.82, 0.000, 0.000, 0.000, 17:31:26.680
75, -3954.20, -4507.28, -4297.45, -3633.89, 0.000, 0.000, 0.000, 17:31:26.695
76, -4112.91, -4648.95, -4440.04, -3752.77, 0.000, 0.000, 0.000, 17:31:26.695
77, -3938.84, -4456.48, -4240.85, -3554.31, 0.000, 0.000, 0.000, 17:31:26.696
78, -3775.06, -4303.90, -4077.44, -3399.14, 0.000, 0.000, 0.000, 17:31:26.696
79, -3956.87, -4502.13, -4298.58, -3637.29, 0.000, 0.000, 0.000, 17:31:26.710
80, -4107.70, -4666.23, -4441.63, -3761.25, 0.000, 0.000, 0.000, 17:31:26.710
81, -3952.58, -4481.40, -4266.90, -3562.02, 0.000, 0.000, 0.000, 17:31:26.725
82, -3770.29, -4274.75, -4083.83, -3402.47, 0.000, 0.000, 0.000, 17:31:26.725
83, -3952.42, -4512.69, -4282.10, -3616.98, 0.000, 0.000, 0.000, 17:31:26.726
84, -4106.28, -4644.87, -4438.90, -3750.84, 0.000, 0.000, 0.000, 17:31:26.726
85, -3944.32, -4486.94, -4269.91, -3566.02, 0.000, 0.000, 0.000, 17:31:26.740
86, -3783.02, -4304.28, -4101.74, -3407.30, 0.000, 0.000, 0.000, 17:31:26.740
87, -3960.34, -4515.36, -4309.30, -3627.09, 0.000, 0.000, 0.000, 17:31:26.756
88, -4112.07, -4663.00, -4439.89, -3759.46, 0.000, 0.000, 0.000, 17:31:26.756
89, -3951.20, -4454.71, -4251.96, -3570.36, 0.000, 0.000, 0.000, 17:31:26.757
90, -3770.26, -4280.51, -4071.67, -3408.42, 0.000, 0.000, 0.000, 17:31:26.757
91, -3961.42, -4520.44, -4308.07, -3634.62, 0.000, 0.000, 0.000, 17:31:26.770
92, -4110.06, -4663.10, -4442.62, -3749.52, 0.000, 0.000, 0.000, 17:31:26.770
93, -3934.52, -4451.70, -4241.72, -3556.71, 0.000, 0.000, 0.000, 17:31:26.785
94, -3775.81, -4286.35, -4082.98, -3407.20, 0.000, 0.000, 0.000, 17:31:26.785
95, -3952.57, -4504.30, -4306.02, -3625.06, 0.000, 0.000, 0.000, 17:31:26.785
96, -4114.01, -4664.21, -4440.97, -3763.32, 0.000, 0.000, 0.000, 17:31:26.786
97, -3949.22, -4478.25, -4263.96, -3576.46, 0.000, 0.000, 0.000, 17:31:26.800
98, -3780.31, -4293.66, -4086.05, -3408.78, 0.000, 0.000, 0.000, 17:31:26.801
99, -3954.25, -4502.47, -4303.38, -3639.10, 0.000, 0.000, 0.000, 17:31:26.816
100, -4103.74, -4666.49, -4427.40, -3756.51, 0.000, 0.000, 0.000, 17:31:26.816
101, -3943.39, -4468.57, -4250.94, -3577.39, 0.000, 0.000, 0.000, 17:31:26.816
102, -3784.42, -4298.19, -4091.30, -3410.15, 0.000, 0.000, 0.000, 17:31:26.816
103, -3971.32, -4526.14, -4315.95, -3646.49, 0.000, 0.000, 0.000, 17:31:26.830
104, -4122.64, -4679.45, -4436.32, -3764.27, 0.000, 0.000, 0.000, 17:31:26.830
105, -3949.11, -4463.66, -4250.94, -3563.46, 0.000, 0.000, 0.000, 17:31:26.845
106, -3792.47, -4303.10, -4107.53, -3414.65, 0.000, 0.000, 0.000, 17:31:26.845
107, -3956.17, -4510.62, -4310.22, -3628.66, 0.000, 0.000, 0.000, 17:31:26.846
108, -4106.29, -4648.50, -4427.27, -3749.56, 0.000, 0.000, 0.000, 17:31:26.846
109, -3953.39, -4486.28, -4261.58, -3576.83, 0.000, 0.000, 0.000, 17:31:26.860
110, -3790.64, -4314.02, -4108.27, -3431.91, 0.000, 0.000, 0.000, 17:31:26.860
111, -3962.24, -4512.74, -4305.38, -3640.41, 0.000, 0.000, 0.000, 17:31:26.875
112, -4115.76, -4641.43, -4433.58, -3762.88, 0.000, 0.000, 0.000, 17:31:26.875
113, -3943.59, -4467.25, -4250.56, -3566.24, 0.000, 0.000, 0.000, 17:31:26.883
114, -3774.35, -4291.16, -4077.80, -3407.74, 0.000, 0.000, 0.000, 17:31:26.883
115, -3960.73, -4517.35, -4306.15, -3649.18, 0.000, 0.000, 0.000, 17:31:26.891
116, -4117.77, -4675.40, -4443.45, -3767.06, 0.000, 0.000, 0.000, 17:31:26.891
117, -3949.41, -4480.49, -4245.74, -3580.31, 0.000, 0.000, 0.000, 17:31:26.906
118, -3781.90, -4287.55, -4075.95, -3410.68, 0.000, 0.000, 0.000, 17:31:26.906
119, -3967.45, -4515.94, -4300.08, -3633.84, 0.000, 0.000, 0.000, 17:31:26.906
120, -4103.98, -4654.88, -4435.54, -3748.87, 0.000, 0.000, 0.000, 17:31:26.906
121, -3942.98, -4462.13, -4257.33, -3558.94, 0.000, 0.000, 0.000, 17:31:26.921
122, -3777.98, -4288.01, -4081.86, -3403.04, 0.000, 0.000, 0.000, 17:31:26.922
123, -3959.03, -4528.62, -4309.93, -3634.76, 0.000, 0.000, 0.000, 17:31:26.935
124, -4103.60, -4654.87, -4436.44, -3742.45, 0.000, 0.000, 0.000, 17:31:26.935
125, -3945.43, -4474.75, -4249.73, -3562.09, 0.000, 0.000, 0.000, 17:31:26.935
126, -3768.44, -4294.58, -4079.60, -3406.36, 0.000, 0.000, 0.000, 17:31:26.936
127, -3954.81, -4516.90, -4309.25, -3641.52, 0.000, 0.000, 0.000, 17:31:26.950
128, -4106.68, -4653.33, -4424.22, -3750.95, 0.000, 0.000, 0.000, 17:31:26.950
129, -3936.07, -4474.36, -4249.16, -3565.35, 0.000, 0.000, 0.000, 17:31:26.966
130, -3765.06, -4281.67, -4087.62, -3407.53, 0.000, 0.000, 0.000, 17:31:26.966
131, -3955.63, -4500.40, -4285.54, -3635.67, 0.000, 0.000, 0.000, 17:31:26.966
132, -4112.04, -4651.72, -4431.60, -3757.95, 0.000, 0.000, 0.000, 17:31:26.966
133, -3945.63, -4464.61, -4261.12, -3556.20, 0.000, 0.000, 0.000, 17:31:26.980
134, -3777.73, -4296.57, -4080.65, -3408.71, 0.000, 0.000, 0.000, 17:31:26.980
135, -3952.77, -4514.91, -4302.67, -3637.42, 0.000, 0.000, 0.000, 17:31:26.995
136, -4111.76, -4663.39, -4435.05, -3736.78, 0.000, 0.000, 0.000, 17:31:26.995
137, -3947.14, -4476.79, -4263.10, -3562.72, 0.000, 0.000, 0.000, 17:31:26.996
138, -3779.52, -4292.55, -4088.41, -3419.38, 0.000, 0.000, 0.000, 17:31:26.996
139, -3968.20, -4538.39, -4318.80, -3651.79, 0.000, 0.000, 0.000, 17:31:27.025
140, -4106.59, -4677.17, -4437.19, -3760.63, 0.000, 0.000, 0.000, 17:31:27.025
141, -3928.59, -4469.74, -4231.38, -3546.55, 0.000, 0.000, 0.000, 17:31:27.026
142, -3746.97, -4264.62, -4062.03, -3390.05, 0.000, 0.000, 0.000, 17:31:27.026
143, -3942.49, -4496.81, -4287.92, -3629.36, 0.000, 0.000, 0.000, 17:31:27.028
144, -4097.70, -4626.86, -4413.01, -3735.55, 0.000, 0.000, 0.000, 17:31:27.028
145, -3931.66, -4462.64, -4242.27, -3561.22, 0.000, 0.000, 0.000, 17:31:27.040
146, -3780.69, -4285.55, -4084.89, -3413.89, 0.000, 0.000, 0.000, 17:31:27.041
147, -3963.11, -4517.24, -4299.95, -3631.46, 0.000, 0.000, 0.000, 17:31:27.055
148, -4095.18, -4630.45, -4416.25, -3737.42, 0.000, 0.000, 0.000, 17:31:27.056
149, -3940.44, -4467.12, -4254.74, -3563.07, 0.000, 0.000, 0.000, 17:31:27.056
150, -3775.13, -4286.97, -4090.80, -3404.70, 0.000, 0.000, 0.000, 17:31:27.056
151, -3955.93, -4517.94, -4299.61, -3634.89, 0.000, 0.000, 0.000, 17:31:27.070
152, -4092.46, -4627.93, -4412.11, -3738.71, 0.000, 0.000, 0.000, 17:31:27.070
153, -3929.08, -4443.92, -4235.44, -3536.90, 0.000, 0.000, 0.000, 17:31:27.085
154, -3770.57, -4283.43, -4083.98, -3390.31, 0.000, 0.000, 0.000, 17:31:27.085
155, -3964.22, -4513.69, -4319.20, -3631.17, 0.000, 0.000, 0.000, 17:31:27.086
156, -4109.17, -4656.97, -4433.36, -3745.92, 0.000, 0.000, 0.000, 17:31:27.086
157, -3940.08, -4475.05, -4245.13, -3561.22, 0.000, 0.000, 0.000, 17:31:27.100
158, -3761.82, -4273.37, -4065.00, -3401.27, 0.000, 0.000, 0.000, 17:31:27.101
159, -3950.29, -4508.65, -4292.36, -3645.58, 0.000, 0.000, 0.000, 17:31:27.130
160, -4080.85, -4629.44, -4408.45, -3733.59, 0.000, 0.000, 0.000, 17:31:27.130
161, -3932.42, -4451.92, -4233.65, -3552.72, 0.000, 0.000, 0.000, 17:31:27.131
162, -3776.58, -4293.41, -4083.76, -3403.70, 0.000, 0.000, 0.000, 17:31:27.131
163, -3962.58, -4512.54, -4307.12, -3646.52, 0.000, 0.000, 0.000, 17:31:27.145
164, -4099.27, -4643.93, -4431.69, -3745.51, 0.000, 0.000, 0.000, 17:31:27.145
165, -3932.46, -4446.91, -4236.10, -3554.28, 0.000, 0.000, 0.000, 17:31:27.145
166, -3768.24, -4285.07, -4083.53, -3409.01, 0.000, 0.000, 0.000, 17:31:27.146
167, -3966.96, -4514.66, -4311.34, -3641.63, 0.000, 0.000, 0.000, 17:31:27.146
168, -4098.16, -4640.37, -4410.09, -3731.12, 0.000, 0.000, 0.000, 17:31:27.146
169, -3925.99, -4435.02, -4235.29, -3540.20, 0.000, 0.000, 0.000, 17:31:27.161
170, -3768.80, -4281.79, -4081.37, -3395.61, 0.000, 0.000, 0.000, 17:31:27.161
171, -3963.55, -4533.52, -4301.81, -3631.12, 0.000, 0.000, 0.000, 17:31:27.175
172, -4094.66, -4644.44, -4423.95, -3732.00, 0.000, 0.000, 0.000, 17:31:27.175
173, -3916.28, -4445.18, -4213.10, -3535.07, 0.000, 0.000, 0.000, 17:31:27.177
174, -3736.61, -4259.36, -4053.16, -3373.62, 0.000, 0.000, 0.000, 17:31:27.177
175, -3950.20, -4488.00, -4300.18, -3630.01, 0.000, 0.000, 0.000, 17:31:27.197
176, -4082.30, -4620.88, -4414.91, -3721.51, 0.000, 0.000, 0.000, 17:31:27.197
177, -3924.18, -4437.10, -4227.54, -3538.26, 0.000, 0.000, 0.000, 17:31:27.206
178, -3763.09, -4273.82, -4064.10, -3398.89, 0.000, 0.000, 0.000, 17:31:27.206
179, -3955.77, -4516.33, -4281.90, -3628.07, 0.000, 0.000, 0.000, 17:31:27.206
180, -4093.94, -4622.84, -4404.66, -3728.69, 0.000, 0.000, 0.000, 17:31:27.206
181, -3916.02, -4440.32, -4214.50, -3540.44, 0.000, 0.000, 0.000, 17:31:27.236
182, -3758.80, -4262.20, -4082.79, -3387.79, 0.000, 0.000, 0.000, 17:31:27.236
183, -3971.53, -4526.90, -4307.49, -3643.65, 0.000, 0.000, 0.000, 17:31:27.236
184, -4090.17, -4640.76, -4406.64, -3737.66, 0.000, 0.000, 0.000, 17:31:27.236
185, -3932.70, -4455.79, -4245.30, -3554.39, 0.000, 0.000, 0.000, 17:31:27.237
186, -3779.77, -4293.30, -4089.26, -3392.11, 0.000, 0.000, 0.000, 17:31:27.237
187, -3973.54, -4543.32, -4315.75, -3658.98, 0.000, 0.000, 0.000, 17:31:27.250
188, -4096.62, -4637.34, -4407.41, -3739.48, 0.000, 0.000, 0.000, 17:31:27.251
189, -3926.44, -4436.41, -4233.14, -3549.51, 0.000, 0.000, 0.000, 17:31:27.280
190, -3765.35, -4266.86, -4052.08, -3396.79, 0.000, 0.000, 0.000, 17:31:27.280
191, -3969.34, -4521.53, -4306.16, -3641.80, 0.000, 0.000, 0.000, 17:31:27.281
192, -4092.66, -4627.85, -4413.88, -3736.93, 0.000, 0.000, 0.000, 17:31:27.281
193, -3923.14, -4433.02, -4237.04, -3547.15, 0.000, 0.000, 0.000, 17:31:27.282
194, -3768.94, -4289.20, -4080.65, -3394.62, 0.000, 0.000, 0.000, 17:31:27.282
195, -3974.80, -4532.05, -4314.23, -3659.39, 0.000, 0.000, 0.000, 17:31:27.295
196, -4092.48, -4646.88, -4415.98, -3741.50, 0.000, 0.000, 0.000, 17:31:27.295
197, -3926.39, -4451.03, -4226.78, -3545.19, 0.000, 0.000, 0.000, 17:31:27.296
198, -3770.98, -4273.22, -4075.77, -3393.21, 0.000, 0.000, 0.000, 17:31:27.296
199, -3975.83, -4538.33, -4328.09, -3652.19, 0.000, 0.000, 0.000, 17:31:27.310
200, -4098.24, -4635.22, -4412.00, -3734.72, 0.000, 0.000, 0.000, 17:31:27.310
0, -3930.01, -4451.78, -4234.59, -3552.30, 0.000, 0.000, 0.000, 17:31:27.310
1, -3759.18, -4270.13, -4080.83, -3397.96, 0.000, 0.000, 0.000, 17:31:27.326
2, -3968.67, -4523.20, -4316.40, -3658.17, 0.000, 0.000, 0.000, 17:31:27.326
3, -4103.75, -4630.62, -4415.87, -3748.83, 0.000, 0.000, 0.000, 17:31:27.341
4, -3932.84, -4437.39, -4247.49, -3552.68, 0.000, 0.000, 0.000, 17:31:27.341
5, -3776.95, -4292.11, -4091.15, -3405.82, 0.000, 0.000, 0.000, 17:31:27.342
6, -3982.31, -4535.10, -4331.64, -3644.47, 0.000, 0.000, 0.000, 17:31:27.342
7, -4105.80, -4637.98, -4431.64, -3738.18, 0.000, 0.000, 0.000, 17:31:27.356
8, -3933.53, -4442.79, -4239.32, -3539.30, 0.000, 0.000, 0.000, 17:31:27.356
9, -3780.79, -4285.42, -4075.89, -3394.17, 0.000, 0.000, 0.000, 17:31:27.371
10, -3985.30, -4541.97, -4335.70, -3656.03, 0.000, 0.000, 0.000, 17:31:27.371
11, -4083.95, -4626.32, -4410.19, -3711.46, 0.000, 0.000, 0.000, 17:31:27.371
12, -3916.76, -4433.07, -4233.18, -3530.36, 0.000, 0.000, 0.000, 17:31:27.371
13, -3770.86, -4290.13, -4079.06, -3399.54, 0.000, 0.000, 0.000, 17:31:27.386
14, -3968.03, -4534.03, -4312.62, -3651.66, 0.000, 0.000, 0.000, 17:31:27.386
15, -4075.70, -4607.85, -4404.72, -3728.16, 0.000, 0.000, 0.000, 17:31:27.400
16, -3922.19, -4436.74, -4226.14, -3537.16, 0.000, 0.000, 0.000, 17:31:27.400
17, -3771.38, -4269.46, -4082.10, -3401.22, 0.000, 0.000, 0.000, 17:31:27.401
18, -3975.32, -4541.45, -4314.56, -3658.61, 0.000, 0.000, 0.000, 17:31:27.401
19, -4094.50, -4643.53, -4422.50, -3735.00, 0.000, 0.000, 0.000, 17:31:27.415
20, -3943.42, -4473.30, -4247.43, -3548.76, 0.000, 0.000, 0.000, 17:31:27.416
21, -3763.45, -4261.06, -4073.59, -3396.40, 0.000, 0.000, 0.000, 17:31:27.445
22, -3977.29, -4521.79, -4323.00, -3649.30, 0.000, 0.000, 0.000, 17:31:27.446
23, -4095.54, -4622.11, -4421.74, -3731.19, 0.000, 0.000, 0.000, 17:31:27.446
24, -3930.19, -4432.52, -4235.26, -3551.67, 0.000, 0.000, 0.000, 17:31:27.446
25, -3760.54, -4275.77, -4065.60, -3392.66, 0.000, 0.000, 0.000, 17:31:27.447
26, -3974.26, -4533.04, -4328.17, -3646.27, 0.000, 0.000, 0.000, 17:31:27.447
27, -4096.93, -4645.42, -4424.63, -3745.92, 0.000, 0.000, 0.000, 17:31:27.447
28, -3924.33, -4449.82, -4235.82, -3535.12, 0.000, 0.000, 0.000, 17:31:27.448
29, -3765.51, -4268.83, -4079.30, -3388.93, 0.000, 0.000, 0.000, 17:31:27.461
30, -3972.58, -4525.02, -4321.57, -3649.95, 0.000, 0.000, 0.000, 17:31:27.461
31, -4094.87, -4636.82, -4414.62, -3723.87, 0.000, 0.000, 0.000, 17:31:27.475
32, -3921.44, -4439.49, -4214.02, -3539.66, 0.000, 0.000, 0.000, 17:31:27.475
33, -3756.80, -4258.45, -4068.22, -3392.08, 0.000, 0.000, 0.000, 17:31:27.491
34, -3975.16, -4532.10, -4323.06, -3657.86, 0.000, 0.000, 0.000, 17:31:27.491
35, -4098.62, -4624.28, -4430.27, -3733.67, 0.000, 0.000, 0.000, 17:31:27.491
36, -3942.80, -4441.92, -4255.67, -3558.36, 0.000, 0.000, 0.000, 17:31:27.492
37, -3778.47, -4289.04, -4091.46, -3408.96, 0.000, 0.000, 0.000, 17:31:27.506
38, -3973.31, -4520.84, -4322.97, -3648.94, 0.000, 0.000, 0.000, 17:31:27.506
39, -4088.10, -4638.67, -4426.53, -3733.65, 0.000, 0.000, 0.000, 17:31:27.521
40, -3926.41, -4452.89, -4240.49, -3546.28, 0.000, 0.000, 0.000, 17:31:27.521
41, -3773.95, -4298.01, -4093.82, -3412.28, 0.000, 0.000, 0.000, 17:31:27.521
42, -3976.06, -4541.75, -4325.07, -3649.86, 0.000, 0.000, 0.000, 17:31:27.521
43, -4088.46, -4610.11, -4407.05, -3727.18, 0.000, 0.000, 0.000, 17:31:27.541
44, -3918.71, -4422.50, -4227.08, -3539.30, 0.000, 0.000, 0.000, 17:31:27.541
45, -3769.62, -4286.65, -4074.58, -3391.02, 0.000, 0.000, 0.000, 17:31:27.550
46, -3961.32, -4505.94, -4304.96, -3636.36, 0.000, 0.000, 0.000, 17:31:27.550
47, -4085.38, -4613.94, -4393.36, -3719.58, 0.000, 0.000, 0.000, 17:31:27.551
48, -3921.37, -4426.88, -4214.59, -3520.32, 0.000, 0.000, 0.000, 17:31:27.551
49, -3764.46, -4283.88, -4067.99, -3394.77, 0.000, 0.000, 0.000, 17:31:27.580
50, -3979.95, -4520.72, -4317.37, -3649.22, 0.000, 0.000, 0.000, 17:31:27.580
51, -4102.23, -4621.61, -4404.70, -3737.34, 0.000, 0.000, 0.000, 17:31:27.581
52, -3929.43, -4449.93, -4228.68, -3541.70, 0.000, 0.000, 0.000, 17:31:27.581
53, -3772.96, -4291.03, -4076.49, -3402.33, 0.000, 0.000, 0.000, 17:31:27.582
54, -3991.74, -4535.89, -4323.92, -3665.35, 0.000, 0.000, 0.000, 17:31:27.582
55, -4088.04, -4610.52, -4396.67, -3723.86, 0.000, 0.000, 0.000, 17:31:27.595
56, -3914.88, -4424.34, -4220.91, -3537.52, 0.000, 0.000, 0.000, 17:31:27.595
57, -3765.76, -4262.50, -4071.91, -3395.59, 0.000, 0.000, 0.000, 17:31:27.611
58, -3975.09, -4501.41, -4318.74, -3648.02, 0.000, 0.000, 0.000, 17:31:27.611
59, -4097.63, -4637.94, -4398.33, -3734.37, 0.000, 0.000, 0.000, 17:31:27.611
60, -3917.37, -4426.28, -4221.49, -3538.00, 0.000, 0.000, 0.000, 17:31:27.611
61, -3751.40, -4262.60, -4050.98, -3383.90, 0.000, 0.000, 0.000, 17:31:27.626
62, -3978.99, -4538.80, -4325.59, -3656.06, 0.000, 0.000, 0.000, 17:31:27.626
63, -4088.93, -4631.50, -4392.81, -3720.75, 0.000, 0.000, 0.000, 17:31:27.640
64, -3925.66, -4444.85, -4208.76, -3537.24, 0.000, 0.000, 0.000, 17:31:27.640
65, -3753.48, -4262.19, -4049.41, -3386.63, 0.000, 0.000, 0.000, 17:31:27.641
66, -3978.33, -4528.25, -4310.66, -3666.94, 0.000, 0.000, 0.000, 17:31:27.641
67, -4089.98, -4638.61, -4412.62, -3729.25, 0.000, 0.000, 0.000, 17:31:27.656
68, -3925.94, -4440.08, -4230.64, -3533.20, 0.000, 0.000, 0.000, 17:31:27.656
69, -3771.54, -4288.32, -4074.46, -3398.88, 0.000, 0.000, 0.000, 17:31:27.671
70, -3987.02, -4549.73, -4330.99, -3665.01, 0.000, 0.000, 0.000, 17:31:27.671
71, -4083.53, -4639.45, -4413.21, -3733.20, 0.000, 0.000, 0.000, 17:31:27.685
72, -3925.05, -4439.69, -4232.44, -3542.72, 0.000, 0.000, 0.000, 17:31:27.685
73, -3756.58, -4269.90, -4063.84, -3399.86, 0.000, 0.000, 0.000, 17:31:27.686
74, -3993.58, -4548.18, -4346.37, -3677.82, 0.000, 0.000, 0.000, 17:31:27.686
75, -4085.68, -4637.27, -4403.69, -3730.43, 0.000, 0.000, 0.000, 17:31:27.700
76, -3921.71, -4440.85, -4233.81, -3538.64, 0.000, 0.000, 0.000, 17:31:27.700
77, -3757.64, -4262.67, -4069.31, -3381.54, 0.000, 0.000, 0.000, 17:31:27.700
78, -3986.97, -4561.27, -4333.88, -3656.12, 0.000, 0.000, 0.000, 17:31:27.700
79, -4088.05, -4646.15, -4414.82, -3724.23, 0.000, 0.000, 0.000, 17:31:27.715
80, -3915.37, -4435.41, -4210.67, -3539.03, 0.000, 0.000, 0.000, 17:31:27.715
81, -3761.61, -4272.64, -4075.17, -3398.46, 0.000, 0.000, 0.000, 17:31:27.730
82, -4000.32, -4558.57, -4358.13, -3679.64, 0.000, 0.000, 0.000, 17:31:27.730
83, -4102.67, -4655.08, -4429.05, -3748.41, 0.000, 0.000, 0.000, 17:31:27.730
84, -3912.89, -4448.77, -4227.09, -3549.83, 0.000, 0.000, 0.000, 17:31:27.730
85, -3740.80, -4254.14, -4058.24, -3402.81, 0.000, 0.000, 0.000, 17:31:27.746
86, -3982.45, -4535.86, -4337.64, -3669.44, 0.000, 0.000, 0.000, 17:31:27.746
87, -4079.32, -4619.36, -4401.65, -3715.22, 0.000, 0.000, 0.000, 17:31:27.761
88, -3915.36, -4442.27, -4235.37, -3535.91, 0.000, 0.000, 0.000, 17:31:27.761
89, -3761.28, -4284.82, -4080.07, -3388.86, 0.000, 0.000, 0.000, 17:31:27.761
90, -3980.26, -4525.87, -4319.89, -3669.24, 0.000, 0.000, 0.000, 17:31:27.761
91, -4098.07, -4623.71, -4423.62, -3737.19, 0.000, 0.000, 0.000, 17:31:27.776
92, -3923.69, -4422.75, -4217.13, -3539.02, 0.000, 0.000, 0.000, 17:31:27.776
93, -3764.82, -4259.72, -4073.91, -3385.97, 0.000, 0.000, 0.000, 17:31:27.790
94, -3995.60, -4562.90, -4344.02, -3670.40, 0.000, 0.000, 0.000, 17:31:27.790
95, -4087.18, -4641.94, -4415.86, -3721.46, 0.000, 0.000, 0.000, 17:31:27.791
96, -3917.35, -4451.00, -4235.77, -3536.17, 0.000, 0.000, 0.000, 17:31:27.791
97, -3773.51, -4301.15, -4090.38, -3409.89, 0.000, 0.000, 0.000, 17:31:27.806
98, -3993.05, -4539.78, -4341.53, -3678.22, 0.000, 0.000, 0.000, 17:31:27.806
99, -4107.35, -4630.61, -4430.92, -3741.15, 0.000, 0.000, 0.000, 17:31:27.836
100, -3921.87, -4436.17, -4238.09, -3547.00, 0.000, 0.000, 0.000, 17:31:27.836
101, -3770.61, -4311.93, -4085.58, -3407.50, 0.000, 0.000, 0.000, 17:31:27.836
102, -3989.54, -4569.87, -4349.23, -3669.92, 0.000, 0.000, 0.000, 17:31:27.836
103, -4081.64, -4626.39, -4420.61, -3729.37, 0.000, 0.000, 0.000, 17:31:27.838
104, -3910.69, -4438.46, -4216.10, -3538.18, 0.000, 0.000, 0.000, 17:31:27.838
105, -3756.05, -4280.61, -4065.79, -3379.16, 0.000, 0.000, 0.000, 17:31:27.838
106, -3978.85, -4536.28, -4313.50, -3659.61, 0.000, 0.000, 0.000, 17:31:27.838
107, -4070.99, -4603.42, -4376.92, -3711.61, 0.000, 0.000, 0.000, 17:31:27.850
108, -3910.19, -4410.43, -4219.11, -3526.15, 0.000, 0.000, 0.000, 17:31:27.850
109, -3763.81, -4276.80, -4082.37, -3399.44, 0.000, 0.000, 0.000, 17:31:27.865
110, -3992.06, -4544.57, -4329.66, -3668.57, 0.000, 0.000, 0.000, 17:31:27.865
111, -4080.60, -4610.68, -4416.04, -3719.17, 0.000, 0.000, 0.000, 17:31:27.880
112, -3922.59, -4442.43, -4234.34, -3539.20, 0.000, 0.000, 0.000, 17:31:27.880
113, -3764.35, -4278.43, -4075.82, -3397.21, 0.000, 0.000, 0.000, 17:31:27.881
114, -3986.65, -4566.58, -4338.61, -3669.92, 0.000, 0.000, 0.000, 17:31:27.881
115, -4070.11, -4620.20, -4401.02, -3713.39, 0.000, 0.000, 0.000, 17:31:27.896
116, -3901.28, -4415.69, -4199.21, -3521.82, 0.000, 0.000, 0.000, 17:31:27.896
117, -3753.21, -4278.42, -4062.84, -3391.26, 0.000, 0.000, 0.000, 17:31:27.910
118, -4000.46, -4573.32, -4346.84, -3675.75, 0.000, 0.000, 0.000, 17:31:27.912
119, -4102.25, -4655.44, -4426.06, -3741.52, 0.000, 0.000, 0.000, 17:31:27.912
120, -3910.03, -4436.45, -4228.53, -3541.57, 0.000, 0.000, 0.000, 17:31:27.912
121, -3752.00, -4269.45, -4065.36, -3394.47, 0.000, 0.000, 0.000, 17:31:27.925
122, -3984.81, -4534.19, -4330.65, -3670.68, 0.000, 0.000, 0.000, 17:31:27.925
123, -4082.21, -4623.68, -4400.04, -3725.80, 0.000, 0.000, 0.000, 17:31:27.941
124, -3922.66, -4439.38, -4235.30, -3534.90, 0.000, 0.000, 0.000, 17:31:27.941
125, -3760.40, -4276.37, -4087.82, -3400.46, 0.000, 0.000, 0.000, 17:31:27.942
126, -3993.62, -4562.40, -4357.36, -3674.70, 0.000, 0.000, 0.000, 17:31:27.942
127, -4090.58, -4635.81, -4418.55, -3734.83, 0.000, 0.000, 0.000, 17:31:27.956
128, -3912.77, -4422.78, -4216.97, -3534.35, 0.000, 0.000, 0.000, 17:31:27.956
129, -3765.90, -4283.54, -4069.81, -3400.39, 0.000, 0.000, 0.000, 17:31:27.970
130, -4011.81, -4567.21, -4350.35, -3685.16, 0.000, 0.000, 0.000, 17:31:27.971
131, -4092.74, -4640.76, -4418.48, -3730.16, 0.000, 0.000, 0.000, 17:31:27.971
132, -3917.54, -4444.65, -4215.54, -3538.45, 0.000, 0.000, 0.000, 17:31:27.971
133, -3773.29, -4276.31, -4076.92, -3406.66, 0.000, 0.000, 0.000, 17:31:27.985
134, -4007.37, -4573.22, -4345.11, -3686.93, 0.000, 0.000, 0.000, 17:31:27.986
135, -4082.64, -4639.33, -4410.96, -3728.95, 0.000, 0.000, 0.000, 17:31:28.000
136, -3911.50, -4439.16, -4225.73, -3539.22, 0.000, 0.000, 0.000, 17:31:28.000
137, -3770.17, -4289.01, -4074.62, -3406.10, 0.000, 0.000, 0.000, 17:31:28.001
138, -4001.33, -4550.84, -4358.89, -3680.96, 0.000, 0.000, 0.000, 17:31:28.001
139, -4082.39, -4601.96, -4400.77, -3723.70, 0.000, 0.000, 0.000, 17:31:28.015
140, -3902.86, -4417.64, -4211.66, -3526.36, 0.000, 0.000, 0.000, 17:31:28.015
141, -3763.27, -4285.15, -4087.32, -3388.45, 0.000, 0.000, 0.000, 17:31:28.030
142, -4001.95, -4562.14, -4346.59, -3665.57, 0.000, 0.000, 0.000, 17:31:28.030
143, -4078.17, -4654.56, -4409.46, -3717.48, 0.000, 0.000, 0.000, 17:31:28.031
144, -3911.42, -4434.88, -4229.05, -3534.16, 0.000, 0.000, 0.000, 17:31:28.031
145, -3775.12, -4289.88, -4092.37, -3406.19, 0.000, 0.000, 0.000, 17:31:28.045
146, -4017.70, -4575.10, -4352.81, -3684.91, 0.000, 0.000, 0.000, 17:31:28.045
147, -4096.70, -4617.81, -4413.88, -3715.22, 0.000, 0.000, 0.000, 17:31:28.060
148, -3918.09, -4448.03, -4227.93, -3531.31, 0.000, 0.000, 0.000, 17:31:28.060
149, -3765.56, -4280.69, -4084.32, -3398.66, 0.000, 0.000, 0.000, 17:31:28.061
150, -3998.79, -4556.40, -4347.45, -3676.71, 0.000, 0.000, 0.000, 17:31:28.061
151, -4085.28, -4628.53, -4398.79, -3718.93, 0.000, 0.000, 0.000, 17:31:28.076
152, -3914.67, -4415.72, -4218.19, -3533.33, 0.000, 0.000, 0.000, 17:31:28.076
153, -3758.04, -4265.86, -4078.29, -3394.54, 0.000, 0.000, 0.000, 17:31:28.091
154, -3990.81, -4559.78, -4356.13, -3681.17, 0.000, 0.000, 0.000, 17:31:28.091
155, -4091.91, -4629.33, -4414.70, -3727.61, 0.000, 0.000, 0.000, 17:31:28.091
156, -3936.30, -4466.19, -4237.05, -3546.57, 0.000, 0.000, 0.000, 17:31:28.091
157, -3765.54, -4280.22, -4082.69, -3415.72, 0.000, 0.000, 0.000, 17:31:28.106
158, -3999.67, -4544.86, -4356.46, -3685.97, 0.000, 0.000, 0.000, 17:31:28.106
159, -4080.72, -4634.54, -4407.38, -3716.73, 0.000, 0.000, 0.000, 17:31:28.120
160, -3905.86, -4399.23, -4216.60, -3533.78, 0.000, 0.000, 0.000, 17:31:28.120
161, -3753.89, -4273.19, -4071.34, -3399.48, 0.000, 0.000, 0.000, 17:31:28.121
162, -4005.72, -4575.24, -4365.31, -3686.90, 0.000, 0.000, 0.000, 17:31:28.121
163, -4094.98, -4639.87, -4419.50, -3740.92, 0.000, 0.000, 0.000, 17:31:28.135
164, -3913.07, -4429.13, -4228.11, -3541.05, 0.000, 0.000, 0.000, 17:31:28.135
165, -3761.83, -4273.70, -4080.68, -3398.02, 0.000, 0.000, 0.000, 17:31:28.150
166, -4001.77, -4540.13, -4342.42, -3685.28, 0.000, 0.000, 0.000, 17:31:28.150
167, -4082.31, -4632.89, -4409.83, -3729.09, 0.000, 0.000, 0.000, 17:31:28.150
168, -3911.08, -4458.00, -4225.28, -3520.44, 0.000, 0.000, 0.000, 17:31:28.150
169, -3773.88, -4285.27, -4091.15, -3403.30, 0.000, 0.000, 0.000, 17:31:28.165
170, -4007.61, -4577.78, -4352.30, -3689.54, 0.000, 0.000, 0.000, 17:31:28.165
171, -4088.37, -4632.79, -4416.57, -3726.40, 0.000, 0.000, 0.000, 17:31:28.181
172, -3910.14, -4431.17, -4221.52, -3533.35, 0.000, 0.000, 0.000, 17:31:28.181
173, -3759.92, -4269.40, -4072.58, -3387.93, 0.000, 0.000, 0.000, 17:31:28.195
174, -4005.75, -4575.48, -4353.47, -3687.12, 0.000, 0.000, 0.000, 17:31:28.195
175, -4078.73, -4623.09, -4395.52, -3722.53, 0.000, 0.000, 0.000, 17:31:28.195
176, -3905.84, -4419.55, -4215.43, -3527.82, 0.000, 0.000, 0.000, 17:31:28.195
177, -3759.59, -4268.23, -4067.43, -3396.66, 0.000, 0.000, 0.000, 17:31:28.211
178, -4018.67, -4575.79, -4373.45, -3696.83, 0.000, 0.000, 0.000, 17:31:28.211
179, -4096.91, -4652.85, -4419.76, -3727.60, 0.000, 0.000, 0.000, 17:31:28.211
180, -3911.14, -4415.13, -4217.02, -3528.42, 0.000, 0.000, 0.000, 17:31:28.211
181, -3761.98, -4284.60, -4069.62, -3387.32, 0.000, 0.000, 0.000, 17:31:28.240
182, -4013.44, -4579.70, -4344.44, -3686.24, 0.000, 0.000, 0.000, 17:31:28.241
183, -4085.33, -4625.17, -4403.32, -3722.25, 0.000, 0.000, 0.000, 17:31:28.241
184, -3917.79, -4424.26, -4214.51, -3536.39, 0.000, 0.000, 0.000, 17:31:28.241
185, -3770.77, -4286.42, -4077.44, -3406.25, 0.000, 0.000, 0.000, 17:31:28.242
186, -4020.24, -4572.26, -4356.12, -3700.61, 0.000, 0.000, 0.000, 17:31:28.242
187, -4091.33, -4632.71, -4411.05, -3728.07, 0.000, 0.000, 0.000, 17:31:28.256
188, -3913.10, -4426.96, -4231.21, -3537.10, 0.000, 0.000, 0.000, 17:31:28.256
189, -3768.15, -4293.99, -4074.48, -3405.67, 0.000, 0.000, 0.000, 17:31:28.270
190, -4016.60, -4568.62, -4370.97, -3685.50, 0.000, 0.000, 0.000, 17:31:28.271
191, -4092.87, -4619.86, -4416.41, -3715.14, 0.000, 0.000, 0.000, 17:31:28.271
192, -3920.16, -4427.91, -4231.47, -3524.87, 0.000, 0.000, 0.000, 17:31:28.271
193, -3761.74, -4269.42, -4070.37, -3392.70, 0.000, 0.000, 0.000, 17:31:28.285
194, -4019.64, -4589.38, -4372.62, -3696.68, 0.000, 0.000, 0.000, 17:31:28.285
195, -4086.08, -4635.89, -4405.22, -3733.35, 0.000, 0.000, 0.000, 17:31:28.300
196, -3917.91, -4433.76, -4226.15, -3532.89, 0.000, 0.000, 0.000, 17:31:28.301
197, -3752.01, -4267.84, -4071.31, -3396.78, 0.000, 0.000, 0.000, 17:31:28.308
198, -3997.13, -4539.16, -4342.38, -3685.82, 0.000, 0.000, 0.000, 17:31:28.308
199, -4076.67, -4618.79, -4394.19, -3707.96, 0.000, 0.000, 0.000, 17:31:28.315
200, -3918.05, -4436.59, -4214.80, -3520.32, 0.000, 0.000, 0.000, 17:31:28.315
0, -3761.83, -4277.42, -4075.80, -3396.22, 0.000, 0.000, 0.000, 17:31:28.316
1, -4008.30, -4568.42, -4354.19, -3686.03, 0.000, 0.000, 0.000, 17:31:28.330
2, -4081.88, -4633.03, -4401.40, -3717.91, 0.000, 0.000, 0.000, 17:31:28.330
3, -3907.81, -4433.22, -4223.49, -3524.60, 0.000, 0.000, 0.000, 17:31:28.345
4, -3769.10, -4275.22, -4082.50, -3417.84, 0.000, 0.000, 0.000, 17:31:28.345
5, -4028.30, -4569.75, -4375.77, -3703.31, 0.000, 0.000, 0.000, 17:31:28.346
6, -4080.54, -4615.97, -4403.78, -3724.58, 0.000, 0.000, 0.000, 17:31:28.346
7, -3909.92, -4427.40, -4223.80, -3528.07, 0.000, 0.000, 0.000, 17:31:28.360
8, -3755.65, -4255.26, -4063.22, -3398.21, 0.000, 0.000, 0.000, 17:31:28.360
9, -4006.00, -4545.40, -4343.64, -3686.45, 0.000, 0.000, 0.000, 17:31:28.375
10, -4081.29, -4617.90, -4396.98, -3708.52, 0.000, 0.000, 0.000, 17:31:28.375
11, -3916.80, -4423.41, -4215.36, -3536.76, 0.000, 0.000, 0.000, 17:31:28.376
12, -3776.52, -4294.31, -4076.40, -3396.95, 0.000, 0.000, 0.000, 17:31:28.376
13, -4030.45, -4593.63, -4365.59, -3708.23, 0.000, 0.000, 0.000, 17:31:28.391
14, -4093.61, -4649.74, -4406.17, -3716.15, 0.000, 0.000, 0.000, 17:31:28.391
15, -3925.68, -4437.94, -4223.82, -3526.83, 0.000, 0.000, 0.000, 17:31:28.406
16, -3759.74, -4259.40, -4070.09, -3385.75, 0.000, 0.000, 0.000, 17:31:28.406
17, -4023.33, -4582.17, -4371.56, -3685.00, 0.000, 0.000, 0.000, 17:31:28.406
18, -4087.16, -4613.22, -4397.51, -3709.38, 0.000, 0.000, 0.000, 17:31:28.407
19, -3922.18, -4442.42, -4227.22, -3528.58, 0.000, 0.000, 0.000, 17:31:28.421
20, -3771.22, -4278.17, -4069.59, -3399.27, 0.000, 0.000, 0.000, 17:31:28.421
21, -4024.44, -4547.18, -4359.38, -3687.55, 0.000, 0.000, 0.000, 17:31:28.436
22, -4085.73, -4623.48, -4401.90, -3716.48, 0.000, 0.000, 0.000, 17:31:28.436
23, -3910.84, -4420.09, -4208.66, -3531.16, 0.000, 0.000, 0.000, 17:31:28.436
24, -3770.24, -4279.81, -4085.51, -3396.01, 0.000, 0.000, 0.000, 17:31:28.436
25, -4024.55, -4583.84, -4375.48, -3693.67, 0.000, 0.000, 0.000, 17:31:28.451
26, -4083.20, -4620.00, -4409.88, -3717.26, 0.000, 0.000, 0.000, 17:31:28.451
27, -3906.96, -4414.33, -4210.71, -3531.45, 0.000, 0.000, 0.000, 17:31:28.465
28, -3758.57, -4264.76, -4057.67, -3406.69, 0.000, 0.000, 0.000, 17:31:28.465
29, -4017.57, -4573.44, -4369.16, -3703.11, 0.000, 0.000, 0.000, 17:31:28.466
30, -4086.85, -4624.18, -4400.67, -3712.57, 0.000, 0.000, 0.000, 17:31:28.466
31, -3915.56, -4439.95, -4223.77, -3516.73, 0.000, 0.000, 0.000, 17:31:28.480
32, -3758.06, -4279.84, -4081.62, -3390.86, 0.000, 0.000, 0.000, 17:31:28.480
33, -4025.92, -4584.72, -4381.80, -3707.19, 0.000, 0.000, 0.000, 17:31:28.496
34, -4072.65, -4597.73, -4394.44, -3726.27, 0.000, 0.000, 0.000, 17:31:28.496
35, -3901.49, -4410.09, -4197.45, -3533.96, 0.000, 0.000, 0.000, 17:31:28.496
36, -3766.06, -4277.92, -4060.95, -3394.73, 0.000, 0.000, 0.000, 17:31:28.496
37, -4029.30, -4568.53, -4368.52, -3704.63, 0.000, 0.000, 0.000, 17:31:28.511
38, -4080.34, -4609.84, -4395.32, -3714.16, 0.000, 0.000, 0.000, 17:31:28.511
39, -3913.20, -4426.10, -4215.01, -3528.73, 0.000, 0.000, 0.000, 17:31:28.525
40, -3769.01, -4293.26, -4086.04, -3406.73, 0.000, 0.000, 0.000, 17:31:28.525
41, -4024.61, -4583.76, -4381.25, -3712.51, 0.000, 0.000, 0.000, 17:31:28.527
42, -4082.08, -4621.63, -4409.26, -3716.81, 0.000, 0.000, 0.000, 17:31:28.527
43, -3912.37, -4436.84, -4209.55, -3520.41, 0.000, 0.000, 0.000, 17:31:28.556
44, -3781.26, -4300.41, -4096.32, -3413.53, 0.000, 0.000, 0.000, 17:31:28.556
45, -4030.20, -4608.10, -4381.48, -3705.24, 0.000, 0.000, 0.000, 17:31:28.557
46, -4079.33, -4621.59, -4400.07, -3711.23, 0.000, 0.000, 0.000, 17:31:28.557
47, -3907.65, -4428.35, -4213.77, -3525.20, 0.000, 0.000, 0.000, 17:31:28.557
48, -3767.23, -4276.24, -4092.97, -3399.81, 0.000, 0.000, 0.000, 17:31:28.557
49, -4028.57, -4592.62, -4386.35, -3709.04, 0.000, 0.000, 0.000, 17:31:28.570
50, -4070.08, -4606.06, -4405.72, -3715.20, 0.000, 0.000, 0.000, 17:31:28.571
51, -3909.17, -4432.26, -4206.25, -3534.98, 0.000, 0.000, 0.000, 17:31:28.585
52, -3765.62, -4275.06, -4072.27, -3413.09, 0.000, 0.000, 0.000, 17:31:28.585
53, -4023.33, -4592.86, -4364.13, -3709.59, 0.000, 0.000, 0.000, 17:31:28.586
54, -4052.52, -4589.78, -4372.65, -3701.07, 0.000, 0.000, 0.000, 17:31:28.586
55, -3888.28, -4406.79, -4195.79, -3516.17, 0.000, 0.000, 0.000, 17:31:28.600
56, -3755.26, -4268.87, -4066.72, -3385.73, 0.000, 0.000, 0.000, 17:31:28.600
57, -4025.35, -4581.82, -4379.23, -3698.23, 0.000, 0.000, 0.000, 17:31:28.615
58, -4068.34, -4621.25, -4382.69, -3697.68, 0.000, 0.000, 0.000, 17:31:28.615
59, -3902.69, -4413.49, -4199.96, -3529.03, 0.000, 0.000, 0.000, 17:31:28.616
60, -3754.00, -4261.77, -4059.23, -3394.16, 0.000, 0.000, 0.000, 17:31:28.616
61, -4032.66, -4602.46, -4373.61, -3701.92, 0.000, 0.000, 0.000, 17:31:28.646
62, -4082.69, -4643.28, -4410.33, -3706.41, 0.000, 0.000, 0.000, 17:31:28.647
63, -3901.80, -4417.40, -4211.45, -3515.32, 0.000, 0.000, 0.000, 17:31:28.647
64, -3761.11, -4273.79, -4070.36, -3393.97, 0.000, 0.000, 0.000, 17:31:28.647
65, -4015.12, -4573.76, -4378.08, -3708.20, 0.000, 0.000, 0.000, 17:31:28.647
66, -4076.50, -4624.32, -4394.10, -3713.86, 0.000, 0.000, 0.000, 17:31:28.647
67, -3891.90, -4409.50, -4215.19, -3516.13, 0.000, 0.000, 0.000, 17:31:28.660
68, -3759.69, -4255.49, -4071.45, -3402.64, 0.000, 0.000, 0.000, 17:31:28.660
69, -4021.49, -4570.99, -4365.92, -3708.72, 0.000, 0.000, 0.000, 17:31:28.690
70, -4068.80, -4624.84, -4380.25, -3704.41, 0.000, 0.000, 0.000, 17:31:28.690
71, -3889.45, -4400.59, -4193.58, -3504.26, 0.000, 0.000, 0.000, 17:31:28.706
72, -3748.05, -4261.41, -4055.84, -3396.67, 0.000, 0.000, 0.000, 17:31:28.706
73, -4009.81, -4569.73, -4359.82, -3703.46, 0.000, 0.000, 0.000, 17:31:28.707
74, -4063.64, -4614.04, -4391.71, -3710.77, 0.000, 0.000, 0.000, 17:31:28.707
75, -3908.64, -4448.90, -4215.20, -3523.78, 0.000, 0.000, 0.000, 17:31:28.707
76, -3759.78, -4267.89, -4069.16, -3398.62, 0.000, 0.000, 0.000, 17:31:28.707
77, -4012.10, -4580.10, -4366.64, -3701.35, 0.000, 0.000, 0.000, 17:31:28.708
78, -4060.22, -4591.36, -4388.47, -3697.81, 0.000, 0.000, 0.000, 17:31:28.708
79, -3901.15, -4417.37, -4217.99, -3522.09, 0.000, 0.000, 0.000, 17:31:28.720
80, -3745.42, -4271.98, -4059.81, -3390.32, 0.000, 0.000, 0.000, 17:31:28.720
81, -4007.97, -4575.74, -4372.20, -3690.89, 0.000, 0.000, 0.000, 17:31:28.735
82, -4057.02, -4597.31, -4373.83, -3698.70, 0.000, 0.000, 0.000, 17:31:28.735
83, -3889.21, -4388.40, -4198.64, -3504.67, 0.000, 0.000, 0.000, 17:31:28.750
84, -3748.45, -4260.11, -4066.17, -3388.49, 0.000, 0.000, 0.000, 17:31:28.750
85, -4011.06, -4562.29, -4358.02, -3698.09, 0.000, 0.000, 0.000, 17:31:28.750
86, -4068.32, -4612.47, -4393.27, -3712.79, 0.000, 0.000, 0.000, 17:31:28.750
87, -3900.23, -4419.90, -4210.41, -3520.82, 0.000, 0.000, 0.000, 17:31:28.765
88, -3760.47, -4290.55, -4076.77, -3399.25, 0.000, 0.000, 0.000, 17:31:28.765
89, -4011.38, -4580.80, -4360.92, -3687.78, 0.000, 0.000, 0.000, 17:31:28.765
90, -4048.74, -4583.84, -4374.14, -3687.61, 0.000, 0.000, 0.000, 17:31:28.766
91, -3876.76, -4398.97, -4197.90, -3493.11, 0.000, 0.000, 0.000, 17:31:28.781
92, -3754.37, -4265.40, -4076.66, -3389.95, 0.000, 0.000, 0.000, 17:31:28.781
93, -4019.30, -4567.56, -4378.53, -3703.20, 0.000, 0.000, 0.000, 17:31:28.796
94, -4056.50, -4589.48, -4383.23, -3693.61, 0.000, 0.000, 0.000, 17:31:28.796
95, -3885.48, -4396.92, -4204.80, -3495.89, 0.000, 0.000, 0.000, 17:31:28.796
96, -3747.68, -4265.40, -4063.33, -3385.10, 0.000, 0.000, 0.000, 17:31:28.796
97, -4023.32, -4586.39, -4369.04, -3693.90, 0.000, 0.000, 0.000, 17:31:28.810
98, -4072.13, -4618.52, -4388.69, -3697.45, 0.000, 0.000, 0.000, 17:31:28.810
99, -3886.29, -4410.94, -4197.71, -3504.29, 0.000, 0.000, 0.000, 17:31:28.825
100, -3753.02, -4272.12, -4067.14, -3396.31, 0.000, 0.000, 0.000, 17:31:28.825
101, -4016.49, -4559.79, -4356.13, -3697.78, 0.000, 0.000, 0.000, 17:31:28.827
102, -4066.80, -4607.92, -4380.06, -3702.92, 0.000, 0.000, 0.000, 17:31:28.827
103, -3913.48, -4422.59, -4210.47, -3522.64, 0.000, 0.000, 0.000, 17:31:28.840
104, -3767.44, -4271.53, -4084.64, -3398.93, 0.000, 0.000, 0.000, 17:31:28.840
105, -4003.12, -4583.93, -4362.36, -3695.31, 0.000, 0.000, 0.000, 17:31:28.856
106, -4038.56, -4584.13, -4377.98, -3704.34, 0.000, 0.000, 0.000, 17:31:28.856
107, -3868.04, -4394.76, -4179.09, -3506.29, 0.000, 0.000, 0.000, 17:31:28.856
108, -3743.80, -4279.21, -4064.73, -3382.71, 0.000, 0.000, 0.000, 17:31:28.857
109, -4023.44, -4607.98, -4383.42, -3704.66, 0.000, 0.000, 0.000, 17:31:28.870
110, -4063.93, -4614.83, -4387.02, -3699.89, 0.000, 0.000, 0.000, 17:31:28.870
111, -3886.31, -4399.52, -4185.92, -3518.17, 0.000, 0.000, 0.000, 17:31:28.886
112, -3754.54, -4259.50, -4058.41, -3389.94, 0.000, 0.000, 0.000, 17:31:28.886
113, -4035.10, -4603.06, -4385.17, -3708.69, 0.000, 0.000, 0.000, 17:31:28.886
114, -4067.47, -4609.38, -4385.11, -3705.09, 0.000, 0.000, 0.000, 17:31:28.886
115, -3880.42, -4390.90, -4195.34, -3509.13, 0.000, 0.000, 0.000, 17:31:28.901
116, -3751.60, -4263.19, -4072.13, -3392.96, 0.000, 0.000, 0.000, 17:31:28.901
117, -4036.27, -4592.35, -4383.80, -3705.17, 0.000, 0.000, 0.000, 17:31:28.915
118, -4065.63, -4617.14, -4393.29, -3705.01, 0.000, 0.000, 0.000, 17:31:28.916
119, -3883.59, -4406.68, -4192.79, -3514.72, 0.000, 0.000, 0.000, 17:31:28.916
120, -3758.19, -4266.27, -4068.23, -3415.18, 0.000, 0.000, 0.000, 17:31:28.916
121, -4034.90, -4605.47, -4385.07, -3718.47, 0.000, 0.000, 0.000, 17:31:28.931
122, -4070.65, -4632.63, -4394.17, -3692.32, 0.000, 0.000, 0.000, 17:31:28.931
123, -3893.22, -4396.40, -4195.68, -3505.25, 0.000, 0.000, 0.000, 17:31:28.947
124, -3765.70, -4294.68, -4071.89, -3393.03, 0.000, 0.000, 0.000, 17:31:28.947
125, -4041.75, -4620.88, -4395.65, -3717.98, 0.000, 0.000, 0.000, 17:31:28.947
126, -4054.17, -4591.58, -4382.12, -3692.52, 0.000, 0.000, 0.000, 17:31:28.947
127, -3886.99, -4401.81, -4204.59, -3506.01, 0.000, 0.000, 0.000, 17:31:28.960
128, -3761.06, -4269.47, -4066.84, -3400.95, 0.000, 0.000, 0.000, 17:31:28.960
129, -4041.00, -4614.54, -4397.19, -3727.39, 0.000, 0.000, 0.000, 17:31:28.975
130, -4064.96, -4608.03, -4389.22, -3709.62, 0.000, 0.000, 0.000, 17:31:28.976
131, -3889.96, -4403.06, -4214.96, -3513.45, 0.000, 0.000, 0.000, 17:31:28.976
132, -3743.75, -4259.24, -4076.38, -3390.44, 0.000, 0.000, 0.000, 17:31:28.976
133, -4024.03, -4579.81, -4382.40, -3710.68, 0.000, 0.000, 0.000, 17:31:28.991
134, -4055.32, -4599.45, -4372.73, -3711.01, 0.000, 0.000, 0.000, 17:31:28.991
135, -3882.07, -4407.40, -4184.46, -3508.97, 0.000, 0.000, 0.000, 17:31:29.006
136, -3771.93, -4303.09, -4091.96, -3410.03, 0.000, 0.000, 0.000, 17:31:29.006
137, -4051.09, -4619.17, -4395.90, -3732.28, 0.000, 0.000, 0.000, 17:31:29.007
138, -4069.04, -4596.96, -4393.17, -3699.89, 0.000, 0.000, 0.000, 17:31:29.007
139, -3887.72, -4413.96, -4195.01, -3504.31, 0.000, 0.000, 0.000, 17:31:29.027
140, -3748.93, -4285.23, -4065.35, -3391.75, 0.000, 0.000, 0.000, 17:31:29.027
141, -4030.81, -4573.13, -4389.25, -3714.86, 0.000, 0.000, 0.000, 17:31:29.035
142, -4063.26, -4594.20, -4375.60, -3699.04, 0.000, 0.000, 0.000, 17:31:29.035
143, -3880.42, -4400.30, -4188.74, -3510.28, 0.000, 0.000, 0.000, 17:31:29.036
144, -3768.63, -4329.27, -4094.92, -3412.57, 0.000, 0.000, 0.000, 17:31:29.036
145, -4035.27, -4618.16, -4417.66, -3716.67, 0.000, 0.000, 0.000, 17:31:29.050
146, -4055.84, -4598.20, -4396.17, -3697.99, 0.000, 0.000, 0.000, 17:31:29.050
147, -3888.76, -4420.37, -4202.26, -3502.25, 0.000, 0.000, 0.000, 17:31:29.065
148, -3764.78, -4291.11, -4075.27, -3416.22, 0.000, 0.000, 0.000, 17:31:29.065
149, -4038.40, -4610.05, -4380.32, -3731.17, 0.000, 0.000, 0.000, 17:31:29.065
150, -4050.68, -4563.67, -4366.38, -3692.82, 0.000, 0.000, 0.000, 17:31:29.066
151, -3879.23, -4395.88, -4187.05, -3498.35, 0.000, 0.000, 0.000, 17:31:29.080
152, -3760.07, -4299.63, -4084.04, -3411.30, 0.000, 0.000, 0.000, 17:31:29.082
153, -4033.57, -4625.01, -4387.92, -3726.96, 0.000, 0.000, 0.000, 17:31:29.095
154, -4053.38, -4600.09, -4384.68, -3701.33, 0.000, 0.000, 0.000, 17:31:29.095
155, -3877.22, -4415.77, -4199.75, -3517.06, 0.000, 0.000, 0.000, 17:31:29.096
156, -3762.39, -4304.23, -4096.54, -3414.56, 0.000, 0.000, 0.000, 17:31:29.096
157, -4035.76, -4608.24, -4402.80, -3719.48, 0.000, 0.000, 0.000, 17:31:29.111
158, -4049.76, -4595.49, -4385.71, -3698.85, 0.000, 0.000, 0.000, 17:31:29.111
159, -3874.60, -4403.12, -4194.59, -3502.98, 0.000, 0.000, 0.000, 17:31:29.125
160, -3769.13, -4308.28, -4100.99, -3410.39, 0.000, 0.000, 0.000, 17:31:29.126
161, -4041.60, -4626.60, -4416.94, -3725.44, 0.000, 0.000, 0.000, 17:31:29.127
162, -4053.52, -4603.89, -4386.26, -3725.11, 0.000, 0.000, 0.000, 17:31:29.127
163, -3869.10, -4387.31, -4189.49, -3506.26, 0.000, 0.000, 0.000, 17:31:29.141
164, -3762.03, -4294.95, -4098.29, -3398.91, 0.000, 0.000, 0.000, 17:31:29.141
165, -4039.10, -4607.92, -4379.39, -3725.09, 0.000, 0.000, 0.000, 17:31:29.156
166, -4054.31, -4595.88, -4381.09, -3684.79, 0.000, 0.000, 0.000, 17:31:29.156
167, -3888.58, -4410.99, -4207.18, -3510.57, 0.000, 0.000, 0.000, 17:31:29.156
168, -3782.27, -4334.31, -4095.89, -3428.65, 0.000, 0.000, 0.000, 17:31:29.156
169, -4042.72, -4630.62, -4405.62, -3730.84, 0.000, 0.000, 0.000, 17:31:29.171
170, -4064.85, -4600.83, -4389.73, -3696.40, 0.000, 0.000, 0.000, 17:31:29.171
171, -3879.04, -4401.21, -4204.77, -3507.38, 0.000, 0.000, 0.000, 17:31:29.185
172, -3759.18, -4281.11, -4082.38, -3417.88, 0.000, 0.000, 0.000, 17:31:29.185
173, -4038.98, -4615.72, -4394.51, -3727.75, 0.000, 0.000, 0.000, 17:31:29.186
174, -4056.60, -4594.28, -4385.21, -3707.33, 0.000, 0.000, 0.000, 17:31:29.186
175, -3890.29, -4411.40, -4211.96, -3505.54, 0.000, 0.000, 0.000, 17:31:29.200
176, -3763.75, -4294.83, -4087.03, -3408.30, 0.000, 0.000, 0.000, 17:31:29.200
177, -4039.91, -4619.87, -4397.82, -3726.02, 0.000, 0.000, 0.000, 17:31:29.215
178, -4072.21, -4638.36, -4409.07, -3699.42, 0.000, 0.000, 0.000, 17:31:29.215
179, -3888.15, -4424.73, -4200.71, -3497.56, 0.000, 0.000, 0.000, 17:31:29.216
180, -3755.69, -4265.14, -4072.48, -3412.71, 0.000, 0.000, 0.000, 17:31:29.216
181, -4034.33, -4608.05, -4381.17, -3731.34, 0.000, 0.000, 0.000, 17:31:29.231
182, -4044.30, -4575.25, -4373.71, -3709.22, 0.000, 0.000, 0.000, 17:31:29.231
183, -3882.52, -4396.82, -4203.10, -3513.86, 0.000, 0.000, 0.000, 17:31:29.245
184, -3758.26, -4272.46, -4074.25, -3430.63, 0.000, 0.000, 0.000, 17:31:29.245
185, -4048.79, -4614.59, -4387.40, -3733.91, 0.000, 0.000, 0.000, 17:31:29.246
186, -4071.85, -4630.02, -4403.03, -3685.29, 0.000, 0.000, 0.000, 17:31:29.246
187, -3898.16, -4423.84, -4211.25, -3496.86, 0.000, 0.000, 0.000, 17:31:29.260
188, -3757.64, -4276.41, -4070.38, -3392.41, 0.000, 0.000, 0.000, 17:31:29.260
189, -4047.20, -4599.04, -4392.04, -3717.20, 0.000, 0.000, 0.000, 17:31:29.276
190, -4063.90, -4615.48, -4394.94, -3706.92, 0.000, 0.000, 0.000, 17:31:29.276
191, -3885.16, -4397.08, -4209.51, -3506.02, 0.000, 0.000, 0.000, 17:31:29.277
192, -3788.26, -4301.22, -4107.48, -3417.29, 0.000, 0.000, 0.000, 17:31:29.277
193, -4065.13, -4619.30, -4410.63, -3747.99, 0.000, 0.000, 0.000, 17:31:29.291
194, -4075.27, -4603.32, -4381.89, -3706.80, 0.000, 0.000, 0.000, 17:31:29.291
195, -3891.57, -4408.33, -4187.63, -3513.10, 0.000, 0.000, 0.000, 17:31:29.306
196, -3752.31, -4269.75, -4067.24, -3408.85, 0.000, 0.000, 0.000, 17:31:29.306
197, -4046.84, -4623.55, -4406.46, -3736.09, 0.000, 0.000, 0.000, 17:31:29.306
198, -4068.96, -4666.28, -4421.32, -3695.27, 0.000, 0.000, 0.000, 17:31:29.306
199, -3894.00, -4427.47, -4216.17, -3494.55, 0.000, 0.000, 0.000, 17:31:29.321
200, -3792.76, -4324.18, -4133.40, -3419.75, 0.000, 0.000, 0.000, 17:31:29.321
0, -4085.59, -4677.03, -4453.97, -3746.02, 0.000, 0.000, 0.000, 17:31:29.322
1, -4068.15, -4569.87, -4371.76, -3709.21, 0.000, 0.000, 0.000, 17:31:29.335
2, -3853.65, -4340.73, -4145.17, -3524.31, 0.000, 0.000, 0.000, 17:31:29.335
3, -3745.97, -4253.59, -4053.51, -3442.35, 0.000, 0.000, 0.000, 17:31:29.350
4, -4054.25, -4644.88, -4409.78, -3718.51, 0.000, 0.000, 0.000, 17:31:29.350
5, -4061.70, -4617.94, -4391.87, -3669.98, 0.000, 0.000, 0.000, 17:31:29.351
6, -3875.88, -4389.23, -4185.11, -3490.59, 0.000, 0.000, 0.000, 17:31:29.351
7, -3759.16, -4265.45, -4062.08, -3410.44, 0.000, 0.000, 0.000, 17:31:29.365
8, -4058.18, -4612.51, -4379.69, -3726.62, 0.000, 0.000, 0.000, 17:31:29.365
9, -4057.42, -4588.96, -4389.26, -3680.93, 0.000, 0.000, 0.000, 17:31:29.380
10, -3889.74, -4426.87, -4200.14, -3484.66, 0.000, 0.000, 0.000, 17:31:29.380
11, -3771.21, -4287.54, -4095.47, -3409.12, 0.000, 0.000, 0.000, 17:31:29.381
12, -4053.86, -4606.93, -4401.10, -3733.18, 0.000, 0.000, 0.000, 17:31:29.381
13, -4066.60, -4609.59, -4392.12, -3696.01, 0.000, 0.000, 0.000, 17:31:29.396
14, -3886.53, -4417.19, -4205.37, -3511.30, 0.000, 0.000, 0.000, 17:31:29.396
15, -3769.59, -4281.74, -4086.79, -3426.25, 0.000, 0.000, 0.000, 17:31:29.410
16, -4061.65, -4625.89, -4411.48, -3737.14, 0.000, 0.000, 0.000, 17:31:29.410
17, -4055.15, -4580.78, -4381.26, -3677.53, 0.000, 0.000, 0.000, 17:31:29.411
18, -3881.65, -4404.48, -4171.66, -3507.52, 0.000, 0.000, 0.000, 17:31:29.411
19, -3759.10, -4288.56, -4065.15, -3426.51, 0.000, 0.000, 0.000, 17:31:29.426
20, -4054.09, -4636.18, -4401.88, -3737.23, 0.000, 0.000, 0.000, 17:31:29.426
21, -4056.11, -4601.75, -4388.23, -3693.43, 0.000, 0.000, 0.000, 17:31:29.441
22, -3879.20, -4420.06, -4195.66, -3493.51, 0.000, 0.000, 0.000, 17:31:29.441
23, -3763.48, -4269.10, -4072.58, -3415.30, 0.000, 0.000, 0.000, 17:31:29.448
24, -4050.15, -4589.11, -4394.47, -3730.81, 0.000, 0.000, 0.000, 17:31:29.448
25, -4059.99, -4581.42, -4380.52, -3679.14, 0.000, 0.000, 0.000, 17:31:29.456
26, -3900.45, -4410.91, -4200.98, -3493.33, 0.000, 0.000, 0.000, 17:31:29.456
27, -3791.17, -4325.24, -4112.37, -3417.53, 0.000, 0.000, 0.000, 17:31:29.470
28, -4069.87, -4646.23, -4425.19, -3745.80, 0.000, 0.000, 0.000, 17:31:29.470
29, -4064.90, -4586.63, -4380.46, -3702.30, 0.000, 0.000, 0.000, 17:31:29.471
30, -3878.96, -4392.51, -4182.89, -3512.03, 0.000, 0.000, 0.000, 17:31:29.471
31, -3760.39, -4293.70, -4083.64, -3423.23, 0.000, 0.000, 0.000, 17:31:29.485
32, -4046.10, -4614.37, -4408.55, -3741.85, 0.000, 0.000, 0.000, 17:31:29.485
33, -4047.77, -4591.14, -4384.35, -3677.19, 0.000, 0.000, 0.000, 17:31:29.500
34, -3866.71, -4393.37, -4173.60, -3492.73, 0.000, 0.000, 0.000, 17:31:29.500
35, -3776.78, -4321.80, -4115.49, -3417.77, 0.000, 0.000, 0.000, 17:31:29.501
36, -4079.65, -4690.58, -4474.47, -3736.69, 0.000, 0.000, 0.000, 17:31:29.501
37, -4046.57, -4593.46, -4379.56, -3686.52, 0.000, 0.000, 0.000, 17:31:29.515
38, -3863.03, -4397.65, -4174.47, -3503.47, 0.000, 0.000, 0.000, 17:31:29.515
39, -3756.72, -4258.79, -4054.87, -3426.46, 0.000, 0.000, 0.000, 17:31:29.530
40, -4064.11, -4615.45, -4394.90, -3755.60, 0.000, 0.000, 0.000, 17:31:29.530
41, -4046.04, -4582.27, -4363.65, -3700.50, 0.000, 0.000, 0.000, 17:31:29.531
42, -3873.96, -4393.60, -4187.57, -3495.44, 0.000, 0.000, 0.000, 17:31:29.531
43, -3778.50, -4300.63, -4102.45, -3412.35, 0.000, 0.000, 0.000, 17:31:29.545
44, -4065.66, -4670.44, -4426.92, -3732.44, 0.000, 0.000, 0.000, 17:31:29.545
45, -4072.23, -4636.66, -4408.31, -3691.35, 0.000, 0.000, 0.000, 17:31:29.561
46, -3891.62, -4405.67, -4202.04, -3491.64, 0.000, 0.000, 0.000, 17:31:29.561
47, -3768.04, -4284.52, -4073.42, -3415.11, 0.000, 0.000, 0.000, 17:31:29.561
48, -4052.22, -4611.49, -4385.84, -3727.76, 0.000, 0.000, 0.000, 17:31:29.561
49, -4060.71, -4602.41, -4365.67, -3694.47, 0.000, 0.000, 0.000, 17:31:29.575
50, -3875.59, -4388.91, -4190.98, -3508.56, 0.000, 0.000, 0.000, 17:31:29.577
51, -3773.62, -4307.39, -4111.39, -3432.54, 0.000, 0.000, 0.000, 17:31:29.591
52, -4073.50, -4677.76, -4449.23, -3750.86, 0.000, 0.000, 0.000, 17:31:29.591
53, -4067.75, -4638.18, -4415.88, -3683.87, 0.000, 0.000, 0.000, 17:31:29.591
54, -3895.43, -4438.40, -4201.74, -3494.87, 0.000, 0.000, 0.000, 17:31:29.591
55, -3777.14, -4299.48, -4092.17, -3415.47, 0.000, 0.000, 0.000, 17:31:29.606
56, -4053.97, -4605.04, -4402.66, -3742.99, 0.000, 0.000, 0.000, 17:31:29.606
57, -4045.72, -4576.34, -4364.00, -3692.57, 0.000, 0.000, 0.000, 17:31:29.620
58, -3872.62, -4402.70, -4188.58, -3515.41, 0.000, 0.000, 0.000, 17:31:29.620
59, -3765.33, -4311.17, -4083.25, -3425.99, 0.000, 0.000, 0.000, 17:31:29.620
60, -4063.05, -4632.42, -4419.30, -3717.02, 0.000, 0.000, 0.000, 17:31:29.621
61, -4050.97, -4561.84, -4358.07, -3662.58, 0.000, 0.000, 0.000, 17:31:29.635
62, -3877.11, -4393.67, -4174.31, -3501.24, 0.000, 0.000, 0.000, 17:31:29.635
63, -3766.50, -4262.98, -4079.28, -3438.91, 0.000, 0.000, 0.000, 17:31:29.650
64, -4072.09, -4641.82, -4415.37, -3755.84, 0.000, 0.000, 0.000, 17:31:29.650
65, -4062.07, -4608.04, -4389.17, -3685.59, 0.000, 0.000, 0.000, 17:31:29.651
66, -3876.47, -4394.08, -4183.68, -3483.97, 0.000, 0.000, 0.000, 17:31:29.651
67, -3769.87, -4290.87, -4090.82, -3413.66, 0.000, 0.000, 0.000, 17:31:29.667
68, -4054.90, -4623.61, -4401.27, -3742.28, 0.000, 0.000, 0.000, 17:31:29.667
69, -4049.01, -4590.56, -4380.15, -3680.56, 0.000, 0.000, 0.000, 17:31:29.680
70, -3877.96, -4411.57, -4192.77, -3501.94, 0.000, 0.000, 0.000, 17:31:29.680
71, -3784.21, -4307.59, -4098.90, -3434.09, 0.000, 0.000, 0.000, 17:31:29.681
72, -4069.10, -4644.00, -4421.18, -3754.99, 0.000, 0.000, 0.000, 17:31:29.681
73, -4055.01, -4586.45, -4374.30, -3710.65, 0.000, 0.000, 0.000, 17:31:29.695
74, -3858.91, -4384.73, -4175.63, -3498.37, 0.000, 0.000, 0.000, 17:31:29.695
75, -3754.73, -4287.79, -4079.33, -3406.07, 0.000, 0.000, 0.000, 17:31:29.710
76, -4057.11, -4640.68, -4411.12, -3743.83, 0.000, 0.000, 0.000, 17:31:29.710
77, -4051.24, -4580.32, -4365.13, -3690.01, 0.000, 0.000, 0.000, 17:31:29.711
78, -3882.44, -4415.68, -4211.56, -3497.91, 0.000, 0.000, 0.000, 17:31:29.711
79, -3775.67, -4315.29, -4112.89, -3413.53, 0.000, 0.000, 0.000, 17:31:29.726
80, -4044.07, -4596.53, -4406.05, -3734.30, 0.000, 0.000, 0.000, 17:31:29.726
81, -4033.73, -4575.75, -4341.40, -3692.87, 0.000, 0.000, 0.000, 17:31:29.741
82, -3858.05, -4408.92, -4176.37, -3492.33, 0.000, 0.000, 0.000, 17:31:29.741
83, -3765.30, -4296.53, -4092.39, -3416.04, 0.000, 0.000, 0.000, 17:31:29.741
84, -4063.70, -4643.09, -4415.54, -3739.89, 0.000, 0.000, 0.000, 17:31:29.741
85, -4054.86, -4607.55, -4379.11, -3680.86, 0.000, 0.000, 0.000, 17:31:29.756
86, -3887.38, -4406.33, -4200.22, -3503.95, 0.000, 0.000, 0.000, 17:31:29.756
87, -3768.59, -4306.25, -4106.42, -3430.18, 0.000, 0.000, 0.000, 17:31:29.771
88, -4068.56, -4666.52, -4440.53, -3749.25, 0.000, 0.000, 0.000, 17:31:29.771
89, -4041.12, -4579.66, -4376.34, -3682.97, 0.000, 0.000, 0.000, 17:31:29.771
90, -3861.46, -4373.73, -4165.71, -3492.07, 0.000, 0.000, 0.000, 17:31:29.771
91, -3771.81, -4290.94, -4090.33, -3425.14, 0.000, 0.000, 0.000, 17:31:29.786
92, -4070.85, -4615.42, -4416.95, -3753.03, 0.000, 0.000, 0.000, 17:31:29.786
93, -4057.58, -4585.71, -4368.91, -3684.83, 0.000, 0.000, 0.000, 17:31:29.800
94, -3869.72, -4386.29, -4181.94, -3490.08, 0.000, 0.000, 0.000, 17:31:29.800
95, -3778.47, -4323.50, -4110.97, -3443.30, 0.000, 0.000, 0.000, 17:31:29.801
96, -4068.86, -4653.68, -4427.34, -3748.16, 0.000, 0.000, 0.000, 17:31:29.801
97, -4056.47, -4614.44, -4377.75, -3692.51, 0.000, 0.000, 0.000, 17:31:29.822
98, -3878.61, -4413.40, -4193.68, -3504.85, 0.000, 0.000, 0.000, 17:31:29.823
99, -3785.57, -4308.64, -4103.57, -3429.65, 0.000, 0.000, 0.000, 17:31:29.830
100, -4077.42, -4629.84, -4415.75, -3765.81, 0.000, 0.000, 0.000, 17:31:29.830
101, -4043.79, -4574.10, -4368.15, -3676.45, 0.000, 0.000, 0.000, 17:31:29.830
102, -3863.23, -4372.32, -4176.77, -3473.52, 0.000, 0.000, 0.000, 17:31:29.830
103, -3776.90, -4313.84, -4105.04, -3419.50, 0.000, 0.000, 0.000, 17:31:29.845
104, -4040.88, -4615.25, -4397.37, -3747.81, 0.000, 0.000, 0.000, 17:31:29.845
105, -4023.40, -4538.14, -4347.15, -3702.48, 0.000, 0.000, 0.000, 17:31:29.860
106, -3882.45, -4388.86, -4180.48, -3506.35, 0.000, 0.000, 0.000, 17:31:29.860
107, -3780.79, -4304.33, -4100.61, -3447.55, 0.000, 0.000, 0.000, 17:31:29.861
108, -4074.14, -4667.90, -4437.04, -3747.19, 0.000, 0.000, 0.000, 17:31:29.861
109, -4075.48, -4653.23, -4420.40, -3669.16, 0.000, 0.000, 0.000, 17:31:29.877
110, -3899.40, -4491.12, -4234.61, -3472.28, 0.000, 0.000, 0.000, 17:31:29.877
111, -3776.62, -4327.30, -4118.93, -3421.17, 0.000, 0.000, 0.000, 17:31:29.891
112, -4064.92, -4581.81, -4401.46, -3746.22, 0.000, 0.000, 0.000, 17:31:29.891
113, -4029.99, -4555.90, -4333.96, -3701.77, 0.000, 0.000, 0.000, 17:31:29.891
114, -3876.08, -4393.63, -4186.80, -3501.58, 0.000, 0.000, 0.000, 17:31:29.891
115, -3786.62, -4311.46, -4111.71, -3435.50, 0.000, 0.000, 0.000, 17:31:29.906
116, -4046.23, -4592.15, -4368.58, -3737.66, 0.000, 0.000, 0.000, 17:31:29.906
117, -4026.22, -4570.98, -4342.73, -3670.97, 0.000, 0.000, 0.000, 17:31:29.921
118, -3874.30, -4426.42, -4190.04, -3498.21, 0.000, 0.000, 0.000, 17:31:29.921
119, -3785.51, -4308.90, -4114.29, -3409.59, 0.000, 0.000, 0.000, 17:31:29.921
120, -4056.41, -4593.06, -4397.11, -3748.70, 0.000, 0.000, 0.000, 17:31:29.921
121, -4035.98, -4581.79, -4344.53, -3684.43, 0.000, 0.000, 0.000, 17:31:29.935
122, -3850.09, -4374.48, -4162.25, -3494.53, 0.000, 0.000, 0.000, 17:31:29.935
123, -3771.01, -4302.18, -4094.33, -3427.30, 0.000, 0.000, 0.000, 17:31:29.950
124, -4074.46, -4662.08, -4434.64, -3756.11, 0.000, 0.000, 0.000, 17:31:29.950
125, -4056.16, -4580.60, -4372.98, -3681.88, 0.000, 0.000, 0.000, 17:31:29.951
126, -3853.51, -4363.12, -4169.51, -3490.17, 0.000, 0.000, 0.000, 17:31:29.951
127, -3776.36, -4298.66, -4102.49, -3418.52, 0.000, 0.000, 0.000, 17:31:29.966
128, -4088.25, -4684.18, -4466.70, -3743.55, 0.000, 0.000, 0.000, 17:31:29.966
129, -4061.30, -4633.92, -4413.11, -3671.70, 0.000, 0.000, 0.000, 17:31:29.980
130, -3864.03, -4374.86, -4170.72, -3481.47, 0.000, 0.000, 0.000, 17:31:29.981
131, -3763.89, -4276.18, -4082.70, -3443.39, 0.000, 0.000, 0.000, 17:31:29.981
132, -4084.57, -4667.70, -4458.99, -3760.83, 0.000, 0.000, 0.000, 17:31:29.981
133, -4064.17, -4654.19, -4409.81, -3670.94, 0.000, 0.000, 0.000, 17:31:29.997
134, -3855.49, -4364.21, -4156.34, -3483.91, 0.000, 0.000, 0.000, 17:31:29.997
135, -3772.82, -4287.48, -4073.58, -3448.75, 0.000, 0.000, 0.000, 17:31:30.011
136, -4052.65, -4585.64, -4398.38, -3768.77, 0.000, 0.000, 0.000, 17:31:30.011
137, -4042.33, -4572.97, -4364.11, -3687.81, 0.000, 0.000, 0.000, 17:31:30.012
138, -3867.60, -4403.86, -4180.72, -3498.68, 0.000, 0.000, 0.000, 17:31:30.012
139, -3801.50, -4356.14, -4133.64, -3424.79, 0.000, 0.000, 0.000, 17:31:30.025
140, -4082.66, -4653.82, -4434.61, -3742.92, 0.000, 0.000, 0.000, 17:31:30.026
141, -4051.43, -4590.70, -4364.87, -3666.66, 0.000, 0.000, 0.000, 17:31:30.040
142, -3865.55, -4410.91, -4201.50, -3476.92, 0.000, 0.000, 0.000, 17:31:30.040
143, -3786.60, -4314.17, -4126.53, -3447.42, 0.000, 0.000, 0.000, 17:31:30.055
144, -4064.31, -4612.45, -4405.25, -3748.95, 0.000, 0.000, 0.000, 17:31:30.056
145, -4015.12, -4521.19, -4296.28, -3673.12, 0.000, 0.000, 0.000, 17:31:30.056
146, -3848.47, -4329.73, -4129.10, -3516.25, 0.000, 0.000, 0.000, 17:31:30.056
147, -3781.35, -4299.60, -4101.29, -3437.69, 0.000, 0.000, 0.000, 17:31:30.070
148, -4097.63, -4693.35, -4467.31, -3751.50, 0.000, 0.000, 0.000, 17:31:30.070
149, -4074.59, -4648.00, -4422.50, -3664.36, 0.000, 0.000, 0.000, 17:31:30.071
150, -3861.18, -4346.74, -4158.37, -3486.48, 0.000, 0.000, 0.000, 17:31:30.071
151, -3783.63, -4318.87, -4112.18, -3444.02, 0.000, 0.000, 0.000, 17:31:30.085
152, -4085.71, -4668.00, -4462.50, -3778.19, 0.000, 0.000, 0.000, 17:31:30.085
153, -4050.14, -4587.71, -4380.89, -3666.57, 0.000, 0.000, 0.000, 17:31:30.100
154, -3877.38, -4416.38, -4205.54, -3494.78, 0.000, 0.000, 0.000, 17:31:30.100
155, -3771.50, -4272.26, -4057.90, -3444.72, 0.000, 0.000, 0.000, 17:31:30.101
156, -4065.98, -4606.17, -4390.87, -3755.49, 0.000, 0.000, 0.000, 17:31:30.101
157, -4055.59, -4603.94, -4390.63, -3674.47, 0.000, 0.000, 0.000, 17:31:30.115
158, -3866.08, -4386.21, -4166.88, -3524.76, 0.000, 0.000, 0.000, 17:31:30.116
159, -3803.18, -4335.06, -4128.12, -3445.44, 0.000, 0.000, 0.000, 17:31:30.130
160, -4089.23, -4663.28, -4454.62, -3757.28, 0.000, 0.000, 0.000, 17:31:30.131
161, -4060.84, -4577.40, -4375.20, -3684.88, 0.000, 0.000, 0.000, 17:31:30.131
162, -3865.49, -4412.61, -4181.96, -3481.00, 0.000, 0.000, 0.000, 17:31:30.131
163, -3777.73, -4337.73, -4112.67, -3446.30, 0.000, 0.000, 0.000, 17:31:30.145
164, -4076.13, -4692.63, -4432.58, -3754.44, 0.000, 0.000, 0.000, 17:31:30.145
165, -4040.60, -4590.29, -4365.53, -3667.19, 0.000, 0.000, 0.000, 17:31:30.160
166, -3872.93, -4430.43, -4214.15, -3493.92, 0.000, 0.000, 0.000, 17:31:30.160
167, -3796.83, -4325.34, -4116.03, -3447.54, 0.000, 0.000, 0.000, 17:31:30.161
168, -4101.21, -4644.79, -4448.87, -3761.81, 0.000, 0.000, 0.000, 17:31:30.161
169, -4027.23, -4541.06, -4350.86, -3647.93, 0.000, 0.000, 0.000, 17:31:30.176
170, -3839.07, -4342.44, -4119.87, -3484.75, 0.000, 0.000, 0.000, 17:31:30.176
171, -3768.11, -4237.03, -4061.11, -3456.28, 0.000, 0.000, 0.000, 17:31:30.191
172, -4077.44, -4624.03, -4420.93, -3767.78, 0.000, 0.000, 0.000, 17:31:30.191
173, -4059.88, -4660.01, -4385.34, -3675.62, 0.000, 0.000, 0.000, 17:31:30.198
174, -3876.67, -4414.07, -4218.61, -3476.00, 0.000, 0.000, 0.000, 17:31:30.198
175, -3772.60, -4285.06, -4094.18, -3432.58, 0.000, 0.000, 0.000, 17:31:30.206
176, -4087.30, -4655.90, -4405.88, -3750.47, 0.000, 0.000, 0.000, 17:31:30.206
177, -4045.16, -4569.59, -4339.46, -3693.67, 0.000, 0.000, 0.000, 17:31:30.221
178, -3850.73, -4326.84, -4166.54, -3484.43, 0.000, 0.000, 0.000, 17:31:30.221
179, -3819.02, -4347.60, -4166.19, -3429.24, 0.000, 0.000, 0.000, 17:31:30.235
180, -4108.82, -4674.50, -4466.71, -3754.10, 0.000, 0.000, 0.000, 17:31:30.235
181, -4036.04, -4582.61, -4333.56, -3681.74, 0.000, 0.000, 0.000, 17:31:30.236
182, -3847.56, -4361.30, -4171.03, -3477.61, 0.000, 0.000, 0.000, 17:31:30.236
183, -3776.19, -4295.40, -4081.13, -3448.28, 0.000, 0.000, 0.000, 17:31:30.250
184, -4104.61, -4671.37, -4448.84, -3758.29, 0.000, 0.000, 0.000, 17:31:30.250
185, -4043.85, -4588.78, -4364.55, -3677.08, 0.000, 0.000, 0.000, 17:31:30.251
186, -3861.54, -4364.38, -4182.00, -3468.88, 0.000, 0.000, 0.000, 17:31:30.251
187, -3791.70, -4347.06, -4145.85, -3445.78, 0.000, 0.000, 0.000, 17:31:30.266
188, -4082.91, -4661.39, -4449.71, -3770.08, 0.000, 0.000, 0.000, 17:31:30.266
189, -4058.10, -4645.74, -4389.93, -3669.94, 0.000, 0.000, 0.000, 17:31:30.280
190, -3891.01, -4421.43, -4185.63, -3491.94, 0.000, 0.000, 0.000, 17:31:30.280
191, -3761.66, -4253.42, -4069.72, -3442.37, 0.000, 0.000, 0.000, 17:31:30.280
192, -4071.44, -4603.61, -4412.31, -3762.80, 0.000, 0.000, 0.000, 17:31:30.280
193, -4041.82, -4553.88, -4357.05, -3699.85, 0.000, 0.000, 0.000, 17:31:30.295
194, -3874.23, -4383.97, -4194.88, -3495.53, 0.000, 0.000, 0.000, 17:31:30.295
195, -3817.37, -4370.91, -4152.32, -3438.41, 0.000, 0.000, 0.000, 17:31:30.311
196, -4087.91, -4642.34, -4430.95, -3759.17, 0.000, 0.000, 0.000, 17:31:30.311
197, -4036.11, -4571.21, -4379.25, -3667.89, 0.000, 0.000, 0.000, 17:31:30.311
198, -3870.51, -4358.71, -4202.99, -3476.96, 0.000, 0.000, 0.000, 17:31:30.311
199, -3779.19, -4316.24, -4090.55, -3444.90, 0.000, 0.000, 0.000, 17:31:30.326
200, -4066.04, -4610.64, -4399.99, -3747.31, 0.000, 0.000, 0.000, 17:31:30.326
0, -4031.68, -4533.31, -4333.59, -3683.14, 0.000, 0.000, 0.000, 17:31:30.327
1, -3835.62, -4342.20, -4144.65, -3493.05, 0.000, 0.000, 0.000, 17:31:30.341
2, -3768.09, -4274.83, -4117.45, -3440.72, 0.000, 0.000, 0.000, 17:31:30.341
3, -4090.34, -4669.76, -4421.08, -3748.13, 0.000, 0.000, 0.000, 17:31:30.357
4, -4040.23, -4567.75, -4370.48, -3684.77, 0.000, 0.000, 0.000, 17:31:30.357
5, -3849.17, -4359.48, -4162.88, -3471.37, 0.000, 0.000, 0.000, 17:31:30.357
6, -3801.17, -4350.56, -4135.01, -3435.21, 0.000, 0.000, 0.000, 17:31:30.357
7, -4073.38, -4608.38, -4421.75, -3752.06, 0.000, 0.000, 0.000, 17:31:30.371
8, -4030.51, -4551.84, -4345.12, -3667.62, 0.000, 0.000, 0.000, 17:31:30.371
9, -3853.28, -4360.31, -4153.45, -3480.02, 0.000, 0.000, 0.000, 17:31:30.385
10, -3783.51, -4313.72, -4112.71, -3436.11, 0.000, 0.000, 0.000, 17:31:30.385
11, -4083.36, -4645.99, -4431.01, -3763.96, 0.000, 0.000, 0.000, 17:31:30.386
12, -4037.43, -4544.43, -4337.05, -3687.04, 0.000, 0.000, 0.000, 17:31:30.386
13, -3857.98, -4352.28, -4153.57, -3464.63, 0.000, 0.000, 0.000, 17:31:30.400
14, -3785.72, -4307.99, -4106.95, -3435.27, 0.000, 0.000, 0.000, 17:31:30.400
15, -4085.44, -4652.26, -4434.02, -3742.18, 0.000, 0.000, 0.000, 17:31:30.431
16, -4039.71, -4565.43, -4340.36, -3670.29, 0.000, 0.000, 0.000, 17:31:30.431
17, -3848.17, -4357.76, -4147.35, -3488.75, 0.000, 0.000, 0.000, 17:31:30.431
18, -3774.40, -4313.29, -4121.79, -3431.11, 0.000, 0.000, 0.000, 17:31:30.431
19, -4078.91, -4634.61, -4432.53, -3760.30, 0.000, 0.000, 0.000, 17:31:30.432
20, -4040.16, -4575.11, -4348.35, -3660.62, 0.000, 0.000, 0.000, 17:31:30.432
21, -3842.99, -4359.87, -4140.76, -3473.74, 0.000, 0.000, 0.000, 17:31:30.433
22, -3778.28, -4310.34, -4116.32, -3443.07, 0.000, 0.000, 0.000, 17:31:30.433
23, -4081.04, -4653.40, -4439.87, -3757.43, 0.000, 0.000, 0.000, 17:31:30.445
24, -4043.58, -4573.23, -4357.19, -3662.38, 0.000, 0.000, 0.000, 17:31:30.445
25, -3855.53, -4365.24, -4169.31, -3479.66, 0.000, 0.000, 0.000, 17:31:30.460
26, -3782.51, -4309.06, -4119.57, -3448.37, 0.000, 0.000, 0.000, 17:31:30.460
27, -4074.76, -4663.27, -4435.83, -3746.39, 0.000, 0.000, 0.000, 17:31:30.476
28, -4036.61, -4578.10, -4349.11, -3668.47, 0.000, 0.000, 0.000, 17:31:30.476
29, -3856.93, -4371.08, -4157.97, -3493.86, 0.000, 0.000, 0.000, 17:31:30.477
30, -3799.44, -4323.68, -4108.52, -3448.97, 0.000, 0.000, 0.000, 17:31:30.477
31, -4102.49, -4691.64, -4454.19, -3770.89, 0.000, 0.000, 0.000, 17:31:30.491
32, -4043.24, -4603.06, -4371.97, -3674.45, 0.000, 0.000, 0.000, 17:31:30.491
33, -3836.44, -4350.80, -4147.53, -3462.85, 0.000, 0.000, 0.000, 17:31:30.505
34, -3785.19, -4299.58, -4117.21, -3439.12, 0.000, 0.000, 0.000, 17:31:30.505
35, -4091.66, -4655.69, -4426.98, -3759.53, 0.000, 0.000, 0.000, 17:31:30.506
36, -4040.40, -4583.22, -4361.29, -3670.84, 0.000, 0.000, 0.000, 17:31:30.506
37, -3868.20, -4384.58, -4162.02, -3477.18, 0.000, 0.000, 0.000, 17:31:30.521
38, -3795.58, -4323.57, -4113.54, -3448.56, 0.000, 0.000, 0.000, 17:31:30.521
39, -4086.25, -4645.06, -4415.02, -3747.06, 0.000, 0.000, 0.000, 17:31:30.535
40, -4038.70, -4574.15, -4346.35, -3664.13, 0.000, 0.000, 0.000, 17:31:30.535
41, -3864.85, -4375.96, -4172.78, -3467.85, 0.000, 0.000, 0.000, 17:31:30.536
42, -3811.87, -4346.22, -4145.14, -3453.49, 0.000, 0.000, 0.000, 17:31:30.536
43, -4093.02, -4657.43, -4440.21, -3773.45, 0.000, 0.000, 0.000, 17:31:30.550
44, -4045.87, -4588.04, -4360.65, -3656.30, 0.000, 0.000, 0.000, 17:31:30.551
45, -3853.50, -4394.50, -4175.29, -3465.23, 0.000, 0.000, 0.000, 17:31:30.565
46, -3800.09, -4340.82, -4130.41, -3452.65, 0.000, 0.000, 0.000, 17:31:30.565
47, -4082.22, -4657.75, -4408.69, -3756.77, 0.000, 0.000, 0.000, 17:31:30.566
48, -4031.29, -4556.40, -4334.17, -3654.76, 0.000, 0.000, 0.000, 17:31:30.566
49, -3857.87, -4364.86, -4157.02, -3469.96, 0.000, 0.000, 0.000, 17:31:30.580
50, -3790.00, -4312.22, -4124.46, -3445.91, 0.000, 0.000, 0.000, 17:31:30.580
51, -4094.78, -4637.04, -4440.47, -3770.16, 0.000, 0.000, 0.000, 17:31:30.596
52, -4043.87, -4566.20, -4353.14, -3675.27, 0.000, 0.000, 0.000, 17:31:30.596
53, -3854.02, -4387.75, -4181.59, -3481.33, 0.000, 0.000, 0.000, 17:31:30.603
54, -3800.21, -4325.54, -4144.69, -3449.28, 0.000, 0.000, 0.000, 17:31:30.603
55, -4091.57, -4659.36, -4436.27, -3774.99, 0.000, 0.000, 0.000, 17:31:30.611
56, -4043.07, -4574.77, -4365.64, -3665.19, 0.000, 0.000, 0.000, 17:31:30.611
57, -3869.46, -4384.87, -4173.64, -3474.88, 0.000, 0.000, 0.000, 17:31:30.625
58, -3807.25, -4343.50, -4120.43, -3459.11, 0.000, 0.000, 0.000, 17:31:30.626
59, -4094.73, -4648.92, -4443.36, -3775.63, 0.000, 0.000, 0.000, 17:31:30.626
60, -4038.55, -4553.86, -4342.55, -3649.92, 0.000, 0.000, 0.000, 17:31:30.627
61, -3838.26, -4332.79, -4145.32, -3450.54, 0.000, 0.000, 0.000, 17:31:30.640
62, -3780.28, -4312.88, -4116.63, -3437.22, 0.000, 0.000, 0.000, 17:31:30.640
63, -4098.01, -4657.96, -4441.81, -3759.83, 0.000, 0.000, 0.000, 17:31:30.656
64, -4037.80, -4570.14, -4345.34, -3666.75, 0.000, 0.000, 0.000, 17:31:30.656
65, -3839.23, -4350.48, -4147.59, -3455.92, 0.000, 0.000, 0.000, 17:31:30.656
66, -3791.53, -4324.85, -4124.62, -3465.97, 0.000, 0.000, 0.000, 17:31:30.656
67, -4099.90, -4671.98, -4455.22, -3767.42, 0.000, 0.000, 0.000, 17:31:30.671
68, -4046.52, -4589.06, -4371.20, -3660.18, 0.000, 0.000, 0.000, 17:31:30.671
69, -3834.18, -4353.01, -4131.89, -3466.20, 0.000, 0.000, 0.000, 17:31:30.685
70, -3794.78, -4315.89, -4107.40, -3449.97, 0.000, 0.000, 0.000, 17:31:30.685
71, -4088.23, -4657.91, -4419.40, -3762.36, 0.000, 0.000, 0.000, 17:31:30.686
72, -4037.76, -4561.64, -4343.88, -3667.60, 0.000, 0.000, 0.000, 17:31:30.686
73, -3865.07, -4383.94, -4173.24, -3479.49, 0.000, 0.000, 0.000, 17:31:30.700
74, -3805.18, -4338.20, -4127.80, -3449.32, 0.000, 0.000, 0.000, 17:31:30.700
75, -4100.38, -4650.49, -4446.33, -3757.13, 0.000, 0.000, 0.000, 17:31:30.715
76, -4038.19, -4583.84, -4354.90, -3656.53, 0.000, 0.000, 0.000, 17:31:30.715
77, -3839.90, -4370.37, -4144.95, -3469.12, 0.000, 0.000, 0.000, 17:31:30.716
78, -3807.23, -4350.60, -4133.95, -3467.44, 0.000, 0.000, 0.000, 17:31:30.716
79, -4085.10, -4660.56, -4436.33, -3758.26, 0.000, 0.000, 0.000, 17:31:30.731
80, -4034.34, -4561.52, -4346.02, -3658.29, 0.000, 0.000, 0.000, 17:31:30.731
81, -3846.34, -4359.22, -4145.61, -3474.83, 0.000, 0.000, 0.000, 17:31:30.745
82, -3803.61, -4325.18, -4132.99, -3458.04, 0.000, 0.000, 0.000, 17:31:30.745
83, -4099.40, -4653.90, -4447.81, -3779.60, 0.000, 0.000, 0.000, 17:31:30.761
84, -4043.02, -4586.05, -4368.06, -3651.56, 0.000, 0.000, 0.000, 17:31:30.761
85, -3852.83, -4368.30, -4152.87, -3459.54, 0.000, 0.000, 0.000, 17:31:30.761
86, -3792.54, -4327.59, -4127.80, -3449.07, 0.000, 0.000, 0.000, 17:31:30.761
87, -4085.14, -4651.32, -4423.47, -3750.50, 0.000, 0.000, 0.000, 17:31:30.776
88, -4035.59, -4569.68, -4350.39, -3651.92, 0.000, 0.000, 0.000, 17:31:30.776
89, -3843.58, -4360.26, -4152.47, -3452.11, 0.000, 0.000, 0.000, 17:31:30.777
90, -3793.29, -4318.40, -4113.00, -3464.65, 0.000, 0.000, 0.000, 17:31:30.777
91, -4098.60, -4662.21, -4449.96, -3767.18, 0.000, 0.000, 0.000, 17:31:30.790
92, -4037.07, -4578.80, -4349.64, -3675.92, 0.000, 0.000, 0.000, 17:31:30.790
93, -3836.80, -4350.27, -4147.12, -3460.50, 0.000, 0.000, 0.000, 17:31:30.805
94, -3797.94, -4326.91, -4152.02, -3447.61, 0.000, 0.000, 0.000, 17:31:30.805
95, -4102.66, -4664.84, -4433.91, -3770.95, 0.000, 0.000, 0.000, 17:31:30.806
96, -4032.44, -4553.95, -4309.45, -3658.70, 0.000, 0.000, 0.000, 17:31:30.806
97, -3849.45, -4343.74, -4141.76, -3467.64, 0.000, 0.000, 0.000, 17:31:30.821
98, -3797.21, -4339.74, -4127.75, -3462.57, 0.000, 0.000, 0.000, 17:31:30.821
99, -4094.83, -4658.69, -4436.96, -3766.45, 0.000, 0.000, 0.000, 17:31:30.836
100, -4034.68, -4573.00, -4351.26, -3659.86, 0.000, 0.000, 0.000, 17:31:30.836
101, -3854.86, -4364.19, -4148.52, -3470.45, 0.000, 0.000, 0.000, 17:31:30.836
102, -3806.95, -4341.12, -4135.94, -3455.85, 0.000, 0.000, 0.000, 17:31:30.836
103, -4090.51, -4655.34, -4441.38, -3774.77, 0.000, 0.000, 0.000, 17:31:30.850
104, -4028.37, -4548.54, -4338.15, -3666.33, 0.000, 0.000, 0.000, 17:31:30.850
105, -3849.60, -4373.61, -4143.91, -3473.24, 0.000, 0.000, 0.000, 17:31:30.865
106, -3803.86, -4334.81, -4116.83, -3460.96, 0.000, 0.000, 0.000, 17:31:30.866
107, -4097.41, -4676.24, -4456.63, -3774.14, 0.000, 0.000, 0.000, 17:31:30.866
108, -4024.92, -4536.42, -4346.75, -3652.49, 0.000, 0.000, 0.000, 17:31:30.866
109, -3845.06, -4353.34, -4170.94, -3458.39, 0.000, 0.000, 0.000, 17:31:30.888
110, -3801.11, -4342.19, -4134.95, -3467.12, 0.000, 0.000, 0.000, 17:31:30.888
111, -4097.98, -4677.80, -4430.84, -3773.53, 0.000, 0.000, 0.000, 17:31:30.896
112, -4025.36, -4585.53, -4333.67, -3656.93, 0.000, 0.000, 0.000, 17:31:30.896
113, -3853.85, -4371.04, -4162.59, -3464.09, 0.000, 0.000, 0.000, 17:31:30.897
114, -3800.71, -4331.98, -4127.62, -3460.76, 0.000, 0.000, 0.000, 17:31:30.897
115, -4087.26, -4652.20, -4429.66, -3764.66, 0.000, 0.000, 0.000, 17:31:30.910
116, -4025.50, -4556.79, -4353.76, -3658.37, 0.000, 0.000, 0.000, 17:31:30.910
117, -3845.90, -4358.88, -4145.76, -3455.71, 0.000, 0.000, 0.000, 17:31:30.926
118, -3809.29, -4343.23, -4136.51, -3458.01, 0.000, 0.000, 0.000, 17:31:30.926
119, -4063.43, -4628.92, -4405.45, -3760.13, 0.000, 0.000, 0.000, 17:31:30.927
120, -3997.24, -4531.37, -4296.66, -3642.48, 0.000, 0.000, 0.000, 17:31:30.927
121, -3829.83, -4339.39, -4127.93, -3468.19, 0.000, 0.000, 0.000, 17:31:30.940
122, -3793.18, -4320.93, -4109.33, -3469.00, 0.000, 0.000, 0.000, 17:31:30.940
123, -4088.21, -4634.47, -4404.84, -3777.23, 0.000, 0.000, 0.000, 17:31:30.956
124, -4019.20, -4550.46, -4328.38, -3669.24, 0.000, 0.000, 0.000, 17:31:30.956
125, -3846.71, -4340.05, -4143.94, -3470.75, 0.000, 0.000, 0.000, 17:31:30.956
126, -3803.35, -4323.28, -4124.26, -3484.16, 0.000, 0.000, 0.000, 17:31:30.956
127, -4096.54, -4651.98, -4426.25, -3768.88, 0.000, 0.000, 0.000, 17:31:30.971
128, -4037.39, -4550.89, -4335.62, -3677.13, 0.000, 0.000, 0.000, 17:31:30.971
129, -3836.34, -4354.36, -4137.49, -3476.16, 0.000, 0.000, 0.000, 17:31:30.985
130, -3810.43, -4343.95, -4141.43, -3470.30, 0.000, 0.000, 0.000, 17:31:30.986
131, -4113.99, -4667.23, -4451.06, -3801.67, 0.000, 0.000, 0.000, 17:31:30.986
132, -4026.83, -4555.57, -4348.56, -3651.48, 0.000, 0.000, 0.000, 17:31:30.986
133, -3844.51, -4338.17, -4148.99, -3472.16, 0.000, 0.000, 0.000, 17:31:31.001
134, -3807.94, -4356.63, -4130.45, -3463.52, 0.000, 0.000, 0.000, 17:31:31.001
135, -4096.86, -4668.75, -4438.59, -3773.59, 0.000, 0.000, 0.000, 17:31:31.015
136, -4035.47, -4567.03, -4342.98, -3668.57, 0.000, 0.000, 0.000, 17:31:31.015
137, -3843.12, -4357.73, -4136.45, -3458.23, 0.000, 0.000, 0.000, 17:31:31.015
138, -3802.81, -4318.67, -4119.37, -3468.25, 0.000, 0.000, 0.000, 17:31:31.016
139, -4102.71, -4658.07, -4449.10, -3778.51, 0.000, 0.000, 0.000, 17:31:31.030
140, -4036.75, -4575.13, -4354.33, -3653.01, 0.000, 0.000, 0.000, 17:31:31.031
141, -3846.02, -4357.35, -4144.02, -3460.68, 0.000, 0.000, 0.000, 17:31:31.045
142, -3800.53, -4343.47, -4140.10, -3462.29, 0.000, 0.000, 0.000, 17:31:31.045
143, -4103.66, -4657.82, -4454.87, -3768.61, 0.000, 0.000, 0.000, 17:31:31.045
144, -4017.49, -4546.61, -4353.26, -3652.79, 0.000, 0.000, 0.000, 17:31:31.045
145, -3836.06, -4353.69, -4135.35, -3452.97, 0.000, 0.000, 0.000, 17:31:31.061
146, -3792.39, -4335.03, -4130.26, -3469.83, 0.000, 0.000, 0.000, 17:31:31.061
147, -4104.94, -4659.50, -4460.61, -3786.17, 0.000, 0.000, 0.000, 17:31:31.076
148, -4013.44, -4556.45, -4331.74, -3661.03, 0.000, 0.000, 0.000, 17:31:31.076
149, -3833.15, -4367.44, -4141.70, -3454.81, 0.000, 0.000, 0.000, 17:31:31.076
150, -3808.02, -4360.14, -4136.85, -3482.38, 0.000, 0.000, 0.000, 17:31:31.077
151, -4096.33, -4663.10, -4449.00, -3771.96, 0.000, 0.000, 0.000, 17:31:31.090
152, -4026.05, -4552.35, -4341.28, -3661.05, 0.000, 0.000, 0.000, 17:31:31.090
153, -3842.74, -4359.85, -4153.39, -3473.89, 0.000, 0.000, 0.000, 17:31:31.107
154, -3815.61, -4361.81, -4151.31, -3477.76, 0.000, 0.000, 0.000, 17:31:31.107
155, -4114.92, -4676.59, -4447.65, -3774.13, 0.000, 0.000, 0.000, 17:31:31.107
156, -4020.07, -4568.13, -4341.51, -3666.05, 0.000, 0.000, 0.000, 17:31:31.107
157, -3842.03, -4380.12, -4145.34, -3468.02, 0.000, 0.000, 0.000, 17:31:31.121
158, -3814.93, -4330.54, -4146.05, -3470.64, 0.000, 0.000, 0.000, 17:31:31.121
159, -4105.57, -4656.03, -4443.70, -3778.11, 0.000, 0.000, 0.000, 17:31:31.135
160, -4027.90, -4558.60, -4346.58, -3624.52, 0.000, 0.000, 0.000, 17:31:31.135
161, -3847.73, -4372.29, -4160.77, -3446.42, 0.000, 0.000, 0.000, 17:31:31.136
162, -3805.94, -4353.61, -4158.61, -3448.24, 0.000, 0.000, 0.000, 17:31:31.136
163, -4111.33, -4684.51, -4477.58, -3770.60, 0.000, 0.000, 0.000, 17:31:31.150
164, -4033.18, -4563.69, -4370.48, -3649.08, 0.000, 0.000, 0.000, 17:31:31.150
165, -3834.44, -4340.74, -4150.72, -3452.39, 0.000, 0.000, 0.000, 17:31:31.165
166, -3811.10, -4342.45, -4142.91, -3463.90, 0.000, 0.000, 0.000, 17:31:31.165
167, -4105.96, -4677.32, -4444.32, -3764.08, 0.000, 0.000, 0.000, 17:31:31.166
168, -4028.29, -4572.08, -4353.15, -3641.86, 0.000, 0.000, 0.000, 17:31:31.166
169, -3832.47, -4343.60, -4139.27, -3446.35, 0.000, 0.000, 0.000, 17:31:31.180
170, -3811.46, -4351.19, -4150.84, -3474.46, 0.000, 0.000, 0.000, 17:31:31.180
171, -4110.95, -4686.11, -4453.67, -3783.67, 0.000, 0.000, 0.000, 17:31:31.195
172, -4017.65, -4541.31, -4328.79, -3641.27, 0.000, 0.000, 0.000, 17:31:31.195
173, -3822.35, -4339.01, -4125.91, -3455.59, 0.000, 0.000, 0.000, 17:31:31.196
174, -3820.79, -4366.09, -4149.06, -3472.77, 0.000, 0.000, 0.000, 17:31:31.196
175, -4103.45, -4664.94, -4462.43, -3763.71, 0.000, 0.000, 0.000, 17:31:31.211
176, -4015.62, -4546.47, -4330.45, -3653.87, 0.000, 0.000, 0.000, 17:31:31.211
177, -3837.77, -4360.67, -4147.26, -3463.05, 0.000, 0.000, 0.000, 17:31:31.226
178, -3818.56, -4359.27, -4152.93, -3477.35, 0.000, 0.000, 0.000, 17:31:31.226
179, -4113.55, -4683.46, -4469.45, -3780.37, 0.000, 0.000, 0.000, 17:31:31.227
180, -4015.49, -4534.56, -4326.88, -3653.52, 0.000, 0.000, 0.000, 17:31:31.227
181, -3840.08, -4335.62, -4148.48, -3458.75, 0.000, 0.000, 0.000, 17:31:31.242
182, -3807.01, -4340.46, -4142.20, -3461.32, 0.000, 0.000, 0.000, 17:31:31.242
183, -4109.56, -4656.72, -4460.66, -3783.23, 0.000, 0.000, 0.000, 17:31:31.256
184, -4024.42, -4563.03, -4329.24, -3649.92, 0.000, 0.000, 0.000, 17:31:31.257
185, -3844.25, -4360.69, -4166.68, -3459.09, 0.000, 0.000, 0.000, 17:31:31.257
186, -3821.40, -4352.68, -4141.18, -3463.90, 0.000, 0.000, 0.000, 17:31:31.257
187, -4115.30, -4682.01, -4463.49, -3771.01, 0.000, 0.000, 0.000, 17:31:31.271
188, -4021.16, -4572.82, -4335.83, -3649.16, 0.000, 0.000, 0.000, 17:31:31.271
189, -3841.40, -4367.00, -4147.91, -3467.60, 0.000, 0.000, 0.000, 17:31:31.285
190, -3802.37, -4341.19, -4138.65, -3469.32, 0.000, 0.000, 0.000, 17:31:31.285
191, -4103.96, -4653.19, -4440.15, -3774.25, 0.000, 0.000, 0.000, 17:31:31.286
192, -4032.60, -4566.86, -4348.24, -3646.07, 0.000, 0.000, 0.000, 17:31:31.286
193, -3838.27, -4371.68, -4160.20, -3465.15, 0.000, 0.000, 0.000, 17:31:31.301
194, -3817.53, -4361.70, -4163.19, -3490.82, 0.000, 0.000, 0.000, 17:31:31.301
195, -4104.99, -4667.94, -4457.48, -3774.52, 0.000, 0.000, 0.000, 17:31:31.316
196, -4023.14, -4548.62, -4334.91, -3628.75, 0.000, 0.000, 0.000, 17:31:31.316
197, -3846.70, -4364.02, -4154.59, -3463.97, 0.000, 0.000, 0.000, 17:31:31.316
198, -3824.00, -4364.46, -4160.75, -3483.64, 0.000, 0.000, 0.000, 17:31:31.316
199, -4107.67, -4678.08, -4445.99, -3775.12, 0.000, 0.000, 0.000, 17:31:31.330
200, -4019.05, -4552.72, -4325.34, -3654.59, 0.000, 0.000, 0.000, 17:31:31.330
0, -3832.48, -4347.85, -4140.03, -3438.39, 0.000, 0.000, 0.000, 17:31:31.331
1, -3805.17, -4350.85, -4118.85, -3463.96, 0.000, 0.000, 0.000, 17:31:31.346
2, -4100.53, -4662.86, -4446.24, -3774.63, 0.000, 0.000, 0.000, 17:31:31.346
3, -4011.34, -4523.62, -4331.47, -3640.77, 0.000, 0.000, 0.000, 17:31:31.360
4, -3837.95, -4353.30, -4143.03, -3456.63, 0.000, 0.000, 0.000, 17:31:31.360
5, -3819.24, -4355.79, -4152.19, -3479.33, 0.000, 0.000, 0.000, 17:31:31.361
6, -4110.66, -4659.23, -4450.89, -3772.20, 0.000, 0.000, 0.000, 17:31:31.361
7, -4017.71, -4571.83, -4345.53, -3633.77, 0.000, 0.000, 0.000, 17:31:31.376
8, -3828.16, -4351.04, -4146.83, -3430.22, 0.000, 0.000, 0.000, 17:31:31.376
9, -3816.08, -4343.14, -4145.63, -3477.25, 0.000, 0.000, 0.000, 17:31:31.391
10, -4102.29, -4645.95, -4440.59, -3791.31, 0.000, 0.000, 0.000, 17:31:31.391
11, -4008.36, -4544.12, -4330.43, -3639.03, 0.000, 0.000, 0.000, 17:31:31.391
12, -3822.23, -4334.85, -4130.98, -3445.75, 0.000, 0.000, 0.000, 17:31:31.391
13, -3819.03, -4356.35, -4156.59, -3480.51, 0.000, 0.000, 0.000, 17:31:31.406
14, -4099.84, -4650.48, -4439.01, -3761.33, 0.000, 0.000, 0.000, 17:31:31.406
15, -4009.49, -4543.30, -4329.62, -3624.37, 0.000, 0.000, 0.000, 17:31:31.420
16, -3819.17, -4333.50, -4123.65, -3449.91, 0.000, 0.000, 0.000, 17:31:31.420
17, -3812.18, -4329.20, -4139.36, -3493.36, 0.000, 0.000, 0.000, 17:31:31.420
18, -4109.45, -4675.03, -4457.30, -3781.00, 0.000, 0.000, 0.000, 17:31:31.421
19, -4011.52, -4546.14, -4329.00, -3630.38, 0.000, 0.000, 0.000, 17:31:31.435
20, -3819.80, -4342.25, -4119.34, -3453.24, 0.000, 0.000, 0.000, 17:31:31.435
21, -3818.23, -4372.56, -4165.31, -3493.11, 0.000, 0.000, 0.000, 17:31:31.450
22, -4114.92, -4678.88, -4468.99, -3791.94, 0.000, 0.000, 0.000, 17:31:31.450
23, -4013.14, -4546.16, -4319.70, -3645.40, 0.000, 0.000, 0.000, 17:31:31.450
24, -3824.68, -4343.71, -4132.24, -3447.34, 0.000, 0.000, 0.000, 17:31:31.451
25, -3825.77, -4379.65, -4175.86, -3479.53, 0.000, 0.000, 0.000, 17:31:31.465
26, -4094.49, -4668.98, -4449.26, -3775.21, 0.000, 0.000, 0.000, 17:31:31.465
27, -4017.40, -4542.69, -4337.07, -3649.54, 0.000, 0.000, 0.000, 17:31:31.480
28, -3835.02, -4332.89, -4136.97, -3453.23, 0.000, 0.000, 0.000, 17:31:31.480
29, -3828.80, -4372.08, -4164.22, -3491.45, 0.000, 0.000, 0.000, 17:31:31.481
30, -4112.29, -4676.59, -4450.58, -3794.77, 0.000, 0.000, 0.000, 17:31:31.481
31, -4015.29, -4540.73, -4315.79, -3645.21, 0.000, 0.000, 0.000, 17:31:31.496
32, -3826.24, -4351.86, -4128.01, -3452.97, 0.000, 0.000, 0.000, 17:31:31.496
33, -3813.89, -4349.46, -4147.52, -3488.68, 0.000, 0.000, 0.000, 17:31:31.510
34, -4098.90, -4660.99, -4443.98, -3779.54, 0.000, 0.000, 0.000, 17:31:31.510
35, -4010.80, -4544.50, -4333.10, -3632.17, 0.000, 0.000, 0.000, 17:31:31.511
36, -3827.05, -4345.51, -4138.24, -3442.17, 0.000, 0.000, 0.000, 17:31:31.511
37, -3824.43, -4363.66, -4161.28, -3487.14, 0.000, 0.000, 0.000, 17:31:31.526
38, -4116.27, -4685.83, -4457.77, -3779.37, 0.000, 0.000, 0.000, 17:31:31.526
39, -4015.46, -4553.06, -4325.48, -3636.63, 0.000, 0.000, 0.000, 17:31:31.540
40, -3813.79, -4337.23, -4126.76, -3443.72, 0.000, 0.000, 0.000, 17:31:31.540
41, -3827.25, -4368.30, -4163.59, -3492.92, 0.000, 0.000, 0.000, 17:31:31.541
42, -4107.09, -4666.36, -4457.96, -3784.59, 0.000, 0.000, 0.000, 17:31:31.541
43, -4010.42, -4559.98, -4328.29, -3623.88, 0.000, 0.000, 0.000, 17:31:31.556
44, -3825.11, -4332.75, -4129.93, -3448.86, 0.000, 0.000, 0.000, 17:31:31.556
45, -3828.70, -4352.25, -4145.39, -3478.77, 0.000, 0.000, 0.000, 17:31:31.570
46, -4109.43, -4677.46, -4454.32, -3775.47, 0.000, 0.000, 0.000, 17:31:31.570
47, -4008.35, -4555.19, -4324.70, -3645.65, 0.000, 0.000, 0.000, 17:31:31.571
48, -3810.69, -4337.80, -4109.93, -3439.92, 0.000, 0.000, 0.000, 17:31:31.571
49, -3816.42, -4353.09, -4160.29, -3488.97, 0.000, 0.000, 0.000, 17:31:31.586
50, -4113.39, -4692.69, -4465.15, -3775.40, 0.000, 0.000, 0.000, 17:31:31.586
51, -4010.79, -4537.77, -4326.35, -3643.02, 0.000, 0.000, 0.000, 17:31:31.600
52, -3816.40, -4337.81, -4126.94, -3438.85, 0.000, 0.000, 0.000, 17:31:31.600
53, -3837.11, -4369.88, -4170.01, -3501.03, 0.000, 0.000, 0.000, 17:31:31.601
54, -4120.88, -4696.48, -4474.89, -3787.42, 0.000, 0.000, 0.000, 17:31:31.601
55, -4024.61, -4570.41, -4331.04, -3641.72, 0.000, 0.000, 0.000, 17:31:31.622
56, -3824.58, -4333.58, -4153.04, -3449.53, 0.000, 0.000, 0.000, 17:31:31.622
57, -3822.34, -4370.99, -4156.03, -3494.82, 0.000, 0.000, 0.000, 17:31:31.630
58, -4115.16, -4665.81, -4454.08, -3785.63, 0.000, 0.000, 0.000, 17:31:31.630
59, -4016.20, -4531.89, -4321.94, -3625.60, 0.000, 0.000, 0.000, 17:31:31.630
60, -3802.75, -4316.09, -4107.24, -3428.74, 0.000, 0.000, 0.000, 17:31:31.631
61, -3835.38, -4366.04, -4175.41, -3487.94, 0.000, 0.000, 0.000, 17:31:31.645
62, -4113.74, -4676.33, -4449.44, -3787.94, 0.000, 0.000, 0.000, 17:31:31.646
63, -4012.68, -4545.08, -4318.54, -3629.96, 0.000, 0.000, 0.000, 17:31:31.660
64, -3822.16, -4343.99, -4125.91, -3441.73, 0.000, 0.000, 0.000, 17:31:31.660
65, -3836.16, -4388.12, -4175.11, -3493.04, 0.000, 0.000, 0.000, 17:31:31.661
66, -4117.05, -4688.05, -4466.72, -3785.28, 0.000, 0.000, 0.000, 17:31:31.661
67, -4008.14, -4545.55, -4316.53, -3629.45, 0.000, 0.000, 0.000, 17:31:31.676
68, -3830.36, -4333.60, -4143.29, -3453.84, 0.000, 0.000, 0.000, 17:31:31.676
69, -3843.24, -4383.29, -4186.61, -3506.28, 0.000, 0.000, 0.000, 17:31:31.690
70, -4106.54, -4657.27, -4445.13, -3772.74, 0.000, 0.000, 0.000, 17:31:31.690
71, -4000.88, -4531.28, -4326.93, -3628.11, 0.000, 0.000, 0.000, 17:31:31.690
72, -3826.18, -4328.96, -4132.25, -3444.68, 0.000, 0.000, 0.000, 17:31:31.690
73, -3841.78, -4391.46, -4188.82, -3503.92, 0.000, 0.000, 0.000, 17:31:31.720
74, -4115.31, -4712.41, -4466.63, -3787.16, 0.000, 0.000, 0.000, 17:31:31.721
75, -4004.51, -4513.44, -4319.30, -3636.57, 0.000, 0.000, 0.000, 17:31:31.721
76, -3811.65, -4316.79, -4116.90, -3435.57, 0.000, 0.000, 0.000, 17:31:31.721
77, -3833.20, -4372.86, -4166.18, -3487.01, 0.000, 0.000, 0.000, 17:31:31.721
78, -4113.57, -4672.13, -4460.95, -3781.24, 0.000, 0.000, 0.000, 17:31:31.721
79, -4003.25, -4537.29, -4319.38, -3626.26, 0.000, 0.000, 0.000, 17:31:31.735
80, -3815.47, -4317.71, -4117.58, -3428.94, 0.000, 0.000, 0.000, 17:31:31.736
81, -3825.51, -4375.35, -4168.79, -3493.23, 0.000, 0.000, 0.000, 17:31:31.750
82, -4120.62, -4684.65, -4479.02, -3787.46, 0.000, 0.000, 0.000, 17:31:31.750
83, -4004.02, -4544.77, -4321.47, -3636.16, 0.000, 0.000, 0.000, 17:31:31.751
84, -3816.35, -4333.69, -4128.21, -3449.66, 0.000, 0.000, 0.000, 17:31:31.751
85, -3843.73, -4373.13, -4176.18, -3504.02, 0.000, 0.000, 0.000, 17:31:31.766
86, -4124.13, -4680.50, -4471.07, -3793.82, 0.000, 0.000, 0.000, 17:31:31.766
87, -4014.01, -4537.72, -4323.03, -3645.02, 0.000, 0.000, 0.000, 17:31:31.780
88, -3819.54, -4330.85, -4123.98, -3443.66, 0.000, 0.000, 0.000, 17:31:31.780
89, -3853.50, -4402.05, -4170.13, -3505.37, 0.000, 0.000, 0.000, 17:31:31.781
90, -4130.12, -4682.08, -4470.36, -3795.24, 0.000, 0.000, 0.000, 17:31:31.781
91, -3993.24, -4522.83, -4317.91, -3634.82, 0.000, 0.000, 0.000, 17:31:31.795
92, -3811.04, -4334.84, -4128.92, -3442.85, 0.000, 0.000, 0.000, 17:31:31.796
93, -3841.65, -4379.51, -4169.18, -3493.88, 0.000, 0.000, 0.000, 17:31:31.810
94, -4118.20, -4672.61, -4447.15, -3779.74, 0.000, 0.000, 0.000, 17:31:31.810
95, -4011.34, -4538.35, -4347.85, -3633.56, 0.000, 0.000, 0.000, 17:31:31.810
96, -3829.61, -4339.80, -4151.93, -3448.34, 0.000, 0.000, 0.000, 17:31:31.811
97, -3850.85, -4390.40, -4176.82, -3510.42, 0.000, 0.000, 0.000, 17:31:31.826
98, -4109.06, -4652.10, -4453.59, -3784.81, 0.000, 0.000, 0.000, 17:31:31.826
99, -3997.42, -4521.01, -4309.42, -3642.24, 0.000, 0.000, 0.000, 17:31:31.841
100, -3807.79, -4327.88, -4114.17, -3447.48, 0.000, 0.000, 0.000, 17:31:31.841
101, -3833.22, -4374.04, -4160.89, -3509.81, 0.000, 0.000, 0.000, 17:31:31.841
102, -4102.71, -4669.77, -4453.65, -3776.19, 0.000, 0.000, 0.000, 17:31:31.841
103, -3999.88, -4527.31, -4322.12, -3621.48, 0.000, 0.000, 0.000, 17:31:31.856
104, -3813.28, -4325.61, -4135.58, -3441.14, 0.000, 0.000, 0.000, 17:31:31.856
105, -3841.82, -4391.01, -4190.60, -3510.08, 0.000, 0.000, 0.000, 17:31:31.870
106, -4119.09, -4665.33, -4468.59, -3791.39, 0.000, 0.000, 0.000, 17:31:31.870
107, -4009.65, -4534.34, -4305.81, -3637.08, 0.000, 0.000, 0.000, 17:31:31.871
108, -3821.40, -4332.06, -4108.72, -3436.21, 0.000, 0.000, 0.000, 17:31:31.871
109, -3850.89, -4388.94, -4185.70, -3515.43, 0.000, 0.000, 0.000, 17:31:31.886
110, -4117.58, -4686.62, -4473.37, -3785.86, 0.000, 0.000, 0.000, 17:31:31.886
111, -4000.02, -4532.75, -4308.60, -3628.08, 0.000, 0.000, 0.000, 17:31:31.900
112, -3813.72, -4326.23, -4126.94, -3440.73, 0.000, 0.000, 0.000, 17:31:31.900
113, -3840.59, -4367.34, -4190.93, -3507.10, 0.000, 0.000, 0.000, 17:31:31.901
114, -4112.03, -4667.99, -4453.99, -3782.94, 0.000, 0.000, 0.000, 17:31:31.901
115, -4001.70, -4531.94, -4307.16, -3623.53, 0.000, 0.000, 0.000, 17:31:31.915
116, -3813.61, -4320.70, -4117.84, -3425.32, 0.000, 0.000, 0.000, 17:31:31.915
117, -3850.97, -4392.23, -4188.07, -3506.58, 0.000, 0.000, 0.000, 17:31:31.930
118, -4101.72, -4668.70, -4451.19, -3775.37, 0.000, 0.000, 0.000, 17:31:31.930
119, -3985.37, -4503.70, -4305.47, -3617.77, 0.000, 0.000, 0.000, 17:31:31.931
120, -3804.50, -4312.99, -4106.83, -3426.31, 0.000, 0.000, 0.000, 17:31:31.931
121, -3847.20, -4378.03, -4183.69, -3509.12, 0.000, 0.000, 0.000, 17:31:31.945
122, -4119.79, -4669.98, -4452.14, -3776.69, 0.000, 0.000, 0.000, 17:31:31.945
123, -3990.09, -4532.32, -4304.17, -3608.23, 0.000, 0.000, 0.000, 17:31:31.962
124, -3807.22, -4324.10, -4125.37, -3432.26, 0.000, 0.000, 0.000, 17:31:31.962
125, -3845.87, -4400.74, -4201.72, -3510.49, 0.000, 0.000, 0.000, 17:31:31.962
126, -4113.20, -4681.99, -4461.35, -3778.30, 0.000, 0.000, 0.000, 17:31:31.962
127, -3990.89, -4520.90, -4310.35, -3623.41, 0.000, 0.000, 0.000, 17:31:31.977
128, -3804.25, -4318.72, -4118.07, -3435.95, 0.000, 0.000, 0.000, 17:31:31.977
129, -3842.08, -4399.74, -4181.94, -3502.55, 0.000, 0.000, 0.000, 17:31:31.991
130, -4108.94, -4659.59, -4450.58, -3782.52, 0.000, 0.000, 0.000, 17:31:31.991
131, -3992.81, -4535.00, -4311.09, -3625.57, 0.000, 0.000, 0.000, 17:31:31.998
132, -3806.40, -4316.20, -4117.78, -3432.17, 0.000, 0.000, 0.000, 17:31:31.998
133, -3833.56, -4391.72, -4172.38, -3513.02, 0.000, 0.000, 0.000, 17:31:32.006
134, -4098.28, -4661.04, -4449.44, -3778.57, 0.000, 0.000, 0.000, 17:31:32.006
135, -3988.73, -4534.41, -4307.06, -3619.42, 0.000, 0.000, 0.000, 17:31:32.020
136, -3817.70, -4334.83, -4129.43, -3437.74, 0.000, 0.000, 0.000, 17:31:32.020
137, -3846.56, -4399.75, -4178.86, -3510.13, 0.000, 0.000, 0.000, 17:31:32.021
138, -4116.71, -4684.71, -4458.98, -3783.15, 0.000, 0.000, 0.000, 17:31:32.021
139, -3999.01, -4538.61, -4303.74, -3627.61, 0.000, 0.000, 0.000, 17:31:32.035
140, -3816.73, -4341.03, -4139.41, -3446.54, 0.000, 0.000, 0.000, 17:31:32.035
141, -3846.78, -4402.23, -4191.40, -3518.54, 0.000, 0.000, 0.000, 17:31:32.051
142, -4119.43, -4706.58, -4476.44, -3794.98, 0.000, 0.000, 0.000, 17:31:32.051
143, -3978.17, -4510.34, -4295.73, -3616.17, 0.000, 0.000, 0.000, 17:31:32.051
144, -3800.81, -4315.81, -4114.17, -3425.22, 0.000, 0.000, 0.000, 17:31:32.051
145, -3847.00, -4394.06, -4189.98, -3517.23, 0.000, 0.000, 0.000, 17:31:32.065
146, -4115.01, -4685.23, -4452.44, -3782.73, 0.000, 0.000, 0.000, 17:31:32.065
147, -3989.73, -4522.97, -4309.73, -3620.52, 0.000, 0.000, 0.000, 17:31:32.080
148, -3804.80, -4316.99, -4103.82, -3434.52, 0.000, 0.000, 0.000, 17:31:32.080
149, -3855.02, -4393.38, -4191.90, -3522.75, 0.000, 0.000, 0.000, 17:31:32.081
150, -4112.73, -4677.34, -4450.47, -3787.34, 0.000, 0.000, 0.000, 17:31:32.081
151, -4000.99, -4542.07, -4317.02, -3634.55, 0.000, 0.000, 0.000, 17:31:32.095
152, -3818.69, -4344.22, -4121.70, -3431.10, 0.000, 0.000, 0.000, 17:31:32.096
153, -3861.99, -4411.29, -4207.92, -3529.71, 0.000, 0.000, 0.000, 17:31:32.111
154, -4124.63, -4673.15, -4464.13, -3793.51, 0.000, 0.000, 0.000, 17:31:32.111
155, -3993.75, -4524.85, -4304.80, -3615.57, 0.000, 0.000, 0.000, 17:31:32.111
156, -3805.01, -4310.08, -4114.16, -3431.53, 0.000, 0.000, 0.000, 17:31:32.111
157, -3860.28, -4395.59, -4188.21, -3518.92, 0.000, 0.000, 0.000, 17:31:32.140
158, -4122.60, -4689.35, -4458.16, -3786.28, 0.000, 0.000, 0.000, 17:31:32.140
159, -4004.83, -4535.68, -4316.22, -3632.77, 0.000, 0.000, 0.000, 17:31:32.141
160, -3811.86, -4320.27, -4114.62, -3439.24, 0.000, 0.000, 0.000, 17:31:32.141
161, -3846.80, -4388.31, -4197.50, -3530.13, 0.000, 0.000, 0.000, 17:31:32.142
162, -4117.24, -4667.54, -4447.40, -3772.58, 0.000, 0.000, 0.000, 17:31:32.142
163, -3987.53, -4506.18, -4298.47, -3608.86, 0.000, 0.000, 0.000, 17:31:32.156
164, -3810.40, -4326.58, -4103.99, -3440.35, 0.000, 0.000, 0.000, 17:31:32.157
165, -3865.31, -4431.12, -4201.38, -3544.45, 0.000, 0.000, 0.000, 17:31:32.170
166, -4124.56, -4681.02, -4466.45, -3789.73, 0.000, 0.000, 0.000, 17:31:32.171
167, -3997.34, -4546.51, -4304.89, -3630.98, 0.000, 0.000, 0.000, 17:31:32.171
168, -3805.98, -4323.75, -4115.50, -3429.00, 0.000, 0.000, 0.000, 17:31:32.171
169, -3857.62, -4390.82, -4201.34, -3528.77, 0.000, 0.000, 0.000, 17:31:32.185
170, -4125.14, -4688.50, -4472.15, -3783.50, 0.000, 0.000, 0.000, 17:31:32.185
171, -3999.33, -4534.84, -4309.52, -3628.88, 0.000, 0.000, 0.000, 17:31:32.201
172, -3802.34, -4313.53, -4117.37, -3431.45, 0.000, 0.000, 0.000, 17:31:32.201
173, -3846.39, -4387.04, -4183.81, -3519.46, 0.000, 0.000, 0.000, 17:31:32.201
174, -4112.84, -4670.19, -4452.42, -3766.28, 0.000, 0.000, 0.000, 17:31:32.201
175, -3990.22, -4514.15, -4306.69, -3610.13, 0.000, 0.000, 0.000, 17:31:32.215
176, -3812.61, -4329.16, -4123.99, -3436.12, 0.000, 0.000, 0.000, 17:31:32.216
177, -3869.05, -4407.97, -4200.92, -3529.22, 0.000, 0.000, 0.000, 17:31:32.230
178, -4118.86, -4684.12, -4454.00, -3774.96, 0.000, 0.000, 0.000, 17:31:32.230
179, -3992.24, -4523.91, -4313.12, -3611.08, 0.000, 0.000, 0.000, 17:31:32.231
180, -3802.19, -4312.95, -4103.92, -3422.67, 0.000, 0.000, 0.000, 17:31:32.231
181, -3864.25, -4402.86, -4202.22, -3522.14, 0.000, 0.000, 0.000, 17:31:32.245
182, -4115.25, -4676.80, -4450.75, -3775.84, 0.000, 0.000, 0.000, 17:31:32.245
183, -3988.20, -4518.21, -4303.19, -3623.93, 0.000, 0.000, 0.000, 17:31:32.260
184, -3810.49, -4318.93, -4111.23, -3440.70, 0.000, 0.000, 0.000, 17:31:32.261
185, -3857.79, -4407.69, -4197.69, -3530.59, 0.000, 0.000, 0.000, 17:31:32.277
186, -4101.58, -4666.29, -4455.21, -3771.03, 0.000, 0.000, 0.000, 17:31:32.277
187, -3984.79, -4515.62, -4288.57, -3623.04, 0.000, 0.000, 0.000, 17:31:32.277
188, -3796.58, -4314.66, -4116.65, -3429.74, 0.000, 0.000, 0.000, 17:31:32.277
189, -3865.51, -4402.60, -4204.85, -3534.10, 0.000, 0.000, 0.000, 17:31:32.291
190, -4114.67, -4679.58, -4444.57, -3788.09, 0.000, 0.000, 0.000, 17:31:32.291
191, -3996.64, -4540.10, -4322.12, -3622.75, 0.000, 0.000, 0.000, 17:31:32.291
192, -3802.87, -4313.27, -4104.38, -3421.99, 0.000, 0.000, 0.000, 17:31:32.291
193, -3859.38, -4393.27, -4195.84, -3530.41, 0.000, 0.000, 0.000, 17:31:32.306
194, -4113.69, -4661.62, -4434.41, -3783.13, 0.000, 0.000, 0.000, 17:31:32.307
195, -3988.99, -4505.65, -4280.16, -3608.02, 0.000, 0.000, 0.000, 17:31:32.320
196, -3796.64, -4315.00, -4101.42, -3424.89, 0.000, 0.000, 0.000, 17:31:32.320
197, -3871.41, -4421.90, -4230.14, -3542.75, 0.000, 0.000, 0.000, 17:31:32.321
198, -4123.03, -4693.83, -4476.82, -3784.18, 0.000, 0.000, 0.000, 17:31:32.321
199, -3985.83, -4512.43, -4304.59, -3617.85, 0.000, 0.000, 0.000, 17:31:32.335
200, -3804.81, -4310.08, -4115.36, -3436.16, 0.000, 0.000, 0.000, 17:31:32.335
0, -3868.39, -4411.23, -4206.45, -3537.64, 0.000, 0.000, 0.000, 17:31:32.335
1, -4125.14, -4677.38, -4468.53, -3787.10, 0.000, 0.000, 0.000, 17:31:32.350
2, -3997.96, -4518.65, -4308.61, -3627.39, 0.000, 0.000, 0.000, 17:31:32.350
3, -3798.38, -4317.32, -4113.85, -3424.28, 0.000, 0.000, 0.000, 17:31:32.365
4, -3865.07, -4408.64, -4185.57, -3535.07, 0.000, 0.000, 0.000, 17:31:32.366
5, -4115.24, -4645.65, -4449.89, -3770.76, 0.000, 0.000, 0.000, 17:31:32.366
6, -3982.95, -4516.62, -4299.60, -3614.24, 0.000, 0.000, 0.000, 17:31:32.366
7, -3797.39, -4307.34, -4092.40, -3431.09, 0.000, 0.000, 0.000, 17:31:32.380
8, -3868.89, -4416.71, -4213.11, -3539.48, 0.000, 0.000, 0.000, 17:31:32.381
9, -4122.03, -4686.99, -4467.31, -3792.80, 0.000, 0.000, 0.000, 17:31:32.395
10, -3994.13, -4521.40, -4301.90, -3619.32, 0.000, 0.000, 0.000, 17:31:32.395
11, -3819.11, -4333.09, -4107.60, -3455.07, 0.000, 0.000, 0.000, 17:31:32.396
12, -3874.55, -4438.44, -4218.65, -3552.90, 0.000, 0.000, 0.000, 17:31:32.396
13, -4115.94, -4676.04, -4459.92, -3787.01, 0.000, 0.000, 0.000, 17:31:32.426
14, -3986.59, -4511.20, -4296.99, -3618.80, 0.000, 0.000, 0.000, 17:31:32.426
15, -3795.15, -4304.31, -4099.02, -3434.26, 0.000, 0.000, 0.000, 17:31:32.427
16, -3864.11, -4407.20, -4208.29, -3543.99, 0.000, 0.000, 0.000, 17:31:32.427
17, -4126.38, -4685.19, -4448.55, -3784.64, 0.000, 0.000, 0.000, 17:31:32.427
18, -3984.63, -4499.98, -4286.14, -3606.67, 0.000, 0.000, 0.000, 17:31:32.427
19, -3806.08, -4307.55, -4099.15, -3442.49, 0.000, 0.000, 0.000, 17:31:32.457
20, -3873.62, -4412.34, -4207.63, -3542.45, 0.000, 0.000, 0.000, 17:31:32.457
21, -4122.97, -4687.27, -4456.96, -3786.44, 0.000, 0.000, 0.000, 17:31:32.457
22, -3994.48, -4525.02, -4298.73, -3616.41, 0.000, 0.000, 0.000, 17:31:32.457
23, -3802.65, -4317.25, -4101.37, -3423.91, 0.000, 0.000, 0.000, 17:31:32.463
24, -3872.14, -4417.51, -4227.64, -3549.80, 0.000, 0.000, 0.000, 17:31:32.463
25, -4121.52, -4681.91, -4459.25, -3784.46, 0.000, 0.000, 0.000, 17:31:32.470
26, -3994.23, -4530.26, -4315.31, -3613.01, 0.000, 0.000, 0.000, 17:31:32.470
27, -3806.16, -4324.18, -4108.48, -3421.80, 0.000, 0.000, 0.000, 17:31:32.485
28, -3874.60, -4421.28, -4224.68, -3545.67, 0.000, 0.000, 0.000, 17:31:32.485
29, -4111.48, -4662.96, -4448.50, -3782.08, 0.000, 0.000, 0.000, 17:31:32.486
30, -3984.85, -4510.15, -4298.01, -3621.43, 0.000, 0.000, 0.000, 17:31:32.486
31, -3805.80, -4305.48, -4115.11, -3430.39, 0.000, 0.000, 0.000, 17:31:32.500
32, -3883.86, -4433.74, -4228.37, -3568.46, 0.000, 0.000, 0.000, 17:31:32.500
33, -4121.53, -4676.02, -4474.12, -3784.64, 0.000, 0.000, 0.000, 17:31:32.515
34, -3993.73, -4523.90, -4312.74, -3614.97, 0.000, 0.000, 0.000, 17:31:32.515
35, -3817.99, -4337.14, -4135.11, -3446.21, 0.000, 0.000, 0.000, 17:31:32.516
36, -3882.42, -4426.58, -4223.48, -3567.76, 0.000, 0.000, 0.000, 17:31:32.516
37, -4118.73, -4673.63, -4454.15, -3788.09, 0.000, 0.000, 0.000, 17:31:32.530
38, -3972.55, -4489.50, -4289.38, -3603.42, 0.000, 0.000, 0.000, 17:31:32.530
39, -3795.82, -4304.30, -4091.85, -3423.39, 0.000, 0.000, 0.000, 17:31:32.545
40, -3878.31, -4436.83, -4230.22, -3546.94, 0.000, 0.000, 0.000, 17:31:32.545
41, -4122.17, -4684.70, -4452.20, -3792.10, 0.000, 0.000, 0.000, 17:31:32.546
42, -3996.93, -4522.91, -4297.83, -3619.54, 0.000, 0.000, 0.000, 17:31:32.546
43, -3801.22, -4309.88, -4099.01, -3434.06, 0.000, 0.000, 0.000, 17:31:32.561
44, -3878.75, -4430.70, -4225.43, -3557.92, 0.000, 0.000, 0.000, 17:31:32.561
45, -4116.23, -4680.25, -4448.12, -3782.10, 0.000, 0.000, 0.000, 17:31:32.576
46, -3978.15, -4490.60, -4287.71, -3603.35, 0.000, 0.000, 0.000, 17:31:32.576
47, -3800.88, -4313.60, -4111.55, -3425.99, 0.000, 0.000, 0.000, 17:31:32.576
48, -3882.97, -4435.87, -4237.66, -3564.39, 0.000, 0.000, 0.000, 17:31:32.576
49, -4125.54, -4692.50, -4468.02, -3781.55, 0.000, 0.000, 0.000, 17:31:32.590
50, -3981.45, -4510.39, -4295.33, -3602.39, 0.000, 0.000, 0.000, 17:31:32.590
51, -3794.70, -4304.67, -4096.30, -3424.97, 0.000, 0.000, 0.000, 17:31:32.605
52, -3880.09, -4420.64, -4215.39, -3556.45, 0.000, 0.000, 0.000, 17:31:32.606
53, -4114.93, -4678.49, -4450.78, -3772.44, 0.000, 0.000, 0.000, 17:31:32.606
54, -3979.53, -4507.07, -4281.05, -3600.26, 0.000, 0.000, 0.000, 17:31:32.606
55, -3793.70, -4314.22, -4088.79, -3408.79, 0.000, 0.000, 0.000, 17:31:32.620
56, -3883.77, -4434.38, -4217.97, -3561.24, 0.000, 0.000, 0.000, 17:31:32.620
57, -4112.48, -4673.90, -4459.17, -3783.69, 0.000, 0.000, 0.000, 17:31:32.635
58, -3976.59, -4517.58, -4294.93, -3608.95, 0.000, 0.000, 0.000, 17:31:32.635
59, -3793.73, -4296.26, -4094.80, -3424.04, 0.000, 0.000, 0.000, 17:31:32.636
60, -3884.98, -4429.65, -4227.20, -3560.12, 0.000, 0.000, 0.000, 17:31:32.636
61, -4122.44, -4668.12, -4448.27, -3783.23, 0.000, 0.000, 0.000, 17:31:32.650
62, -3983.22, -4516.18, -4297.33, -3606.51, 0.000, 0.000, 0.000, 17:31:32.650
63, -3806.26, -4313.91, -4118.85, -3427.59, 0.000, 0.000, 0.000, 17:31:32.666
64, -3900.01, -4426.60, -4238.26, -3558.77, 0.000, 0.000, 0.000, 17:31:32.666
65, -4122.41, -4675.21, -4473.09, -3779.82, 0.000, 0.000, 0.000, 17:31:32.666
66, -3972.53, -4487.02, -4292.53, -3595.81, 0.000, 0.000, 0.000, 17:31:32.666
67, -3789.56, -4314.24, -4109.98, -3416.31, 0.000, 0.000, 0.000, 17:31:32.684
68, -3895.28, -4432.17, -4235.40, -3553.43, 0.000, 0.000, 0.000, 17:31:32.685
69, -4119.74, -4659.65, -4446.43, -3774.74, 0.000, 0.000, 0.000, 17:31:32.696
70, -3966.99, -4502.34, -4283.79, -3601.55, 0.000, 0.000, 0.000, 17:31:32.696
71, -3796.27, -4307.24, -4102.56, -3414.18, 0.000, 0.000, 0.000, 17:31:32.696
72, -3888.51, -4425.51, -4234.18, -3563.59, 0.000, 0.000, 0.000, 17:31:32.696
73, -4115.05, -4672.31, -4447.70, -3773.45, 0.000, 0.000, 0.000, 17:31:32.711
74, -3972.05, -4500.52, -4297.74, -3601.94, 0.000, 0.000, 0.000, 17:31:32.711
75, -3778.02, -4301.09, -4101.73, -3418.46, 0.000, 0.000, 0.000, 17:31:32.726
76, -3880.36, -4435.73, -4212.40, -3566.22, 0.000, 0.000, 0.000, 17:31:32.726
77, -4114.79, -4676.22, -4452.03, -3780.38, 0.000, 0.000, 0.000, 17:31:32.726
78, -3978.29, -4529.41, -4297.63, -3609.96, 0.000, 0.000, 0.000, 17:31:32.726
79, -3790.66, -4307.67, -4110.23, -3424.35, 0.000, 0.000, 0.000, 17:31:32.740
80, -3892.40, -4443.29, -4237.01, -3574.59, 0.000, 0.000, 0.000, 17:31:32.740
81, -4121.07, -4673.63, -4459.34, -3778.10, 0.000, 0.000, 0.000, 17:31:32.756
82, -3982.83, -4508.84, -4293.91, -3597.08, 0.000, 0.000, 0.000, 17:31:32.756
83, -3800.95, -4315.45, -4106.34, -3422.28, 0.000, 0.000, 0.000, 17:31:32.756
84, -3884.07, -4438.45, -4227.72, -3555.79, 0.000, 0.000, 0.000, 17:31:32.756
85, -4118.29, -4671.88, -4444.89, -3771.95, 0.000, 0.000, 0.000, 17:31:32.771
86, -3980.10, -4501.98, -4283.46, -3600.66, 0.000, 0.000, 0.000, 17:31:32.771
87, -3793.27, -4315.16, -4107.11, -3422.28, 0.000, 0.000, 0.000, 17:31:32.785
88, -3897.60, -4446.97, -4241.63, -3569.51, 0.000, 0.000, 0.000, 17:31:32.785
89, -4122.08, -4662.96, -4467.96, -3793.14, 0.000, 0.000, 0.000, 17:31:32.786
90, -3978.16, -4516.85, -4295.50, -3613.55, 0.000, 0.000, 0.000, 17:31:32.786
91, -3794.97, -4300.89, -4098.77, -3425.01, 0.000, 0.000, 0.000, 17:31:32.800
92, -3894.41, -4437.52, -4222.41, -3562.77, 0.000, 0.000, 0.000, 17:31:32.800
93, -4117.16, -4672.59, -4451.79, -3774.30, 0.000, 0.000, 0.000, 17:31:32.815
94, -3971.73, -4506.94, -4289.59, -3598.48, 0.000, 0.000, 0.000, 17:31:32.815
95, -3795.80, -4321.14, -4120.29, -3415.45, 0.000, 0.000, 0.000, 17:31:32.823
96, -3897.87, -4458.59, -4235.74, -3558.55, 0.000, 0.000, 0.000, 17:31:32.823
97, -4116.34, -4678.82, -4469.78, -3785.90, 0.000, 0.000, 0.000, 17:31:32.830
98, -3975.37, -4491.38, -4300.24, -3598.32, 0.000, 0.000, 0.000, 17:31:32.830
99, -3796.48, -4307.24, -4118.39, -3420.16, 0.000, 0.000, 0.000, 17:31:32.845
100, -3896.73, -4443.84, -4239.10, -3579.34, 0.000, 0.000, 0.000, 17:31:32.845
