%OpenBCI Raw EEG Data
%
%Sample Rate = 200.0 Hz
%First Column = SampleIndex
%Last Column = Timestamp 
%Other Columns = EEG data in microvolts followed by Accel Data (in G) interleaved with Aux Data
0, -4006.52, -4530.76, -4374.14, -3655.93, 0.000, 0.000, 0.000, 17:32:55.557
1, -3953.06, -4502.55, -4326.94, -3633.40, 0.000, 0.000, 0.000, 17:32:55.573
2, -4223.13, -4788.38, -4606.14, -3916.46, 0.000, 0.000, 0.000, 17:32:55.573
3, -4168.39, -4729.79, -4538.65, -3823.12, 0.000, 0.000, 0.000, 17:32:55.587
4, -3983.44, -4524.41, -4348.36, -3629.13, 0.000, 0.000, 0.000, 17:32:55.587
5, -3920.38, -4476.37, -4301.50, -3595.61, 0.000, 0.000, 0.000, 17:32:55.587
6, -4200.06, -4758.65, -4591.28, -3888.62, 0.000, 0.000, 0.000, 17:32:55.587
7, -4136.54, -4673.42, -4494.02, -3790.72, 0.000, 0.000, 0.000, 17:32:55.617
8, -3944.04, -4469.24, -4310.00, -3603.79, 0.000, 0.000, 0.000, 17:32:55.617
9, -3906.63, -4456.85, -4287.60, -3586.67, 0.000, 0.000, 0.000, 17:32:55.617
10, -4193.84, -4760.83, -4568.70, -3889.29, 0.000, 0.000, 0.000, 17:32:55.617
11, -4122.18, -4660.83, -4487.09, -3782.67, 0.000, 0.000, 0.000, 17:32:55.618
12, -3937.26, -4467.96, -4299.96, -3600.93, 0.000, 0.000, 0.000, 17:32:55.618
13, -3894.96, -4435.61, -4281.97, -3575.25, 0.000, 0.000, 0.000, 17:32:55.632
14, -4168.75, -4746.35, -4570.13, -3869.21, 0.000, 0.000, 0.000, 17:32:55.632
15, -4096.16, -4654.60, -4478.83, -3763.40, 0.000, 0.000, 0.000, 17:32:55.647
16, -3925.92, -4447.72, -4291.50, -3583.40, 0.000, 0.000, 0.000, 17:32:55.647
17, -3886.52, -4433.50, -4268.42, -3573.72, 0.000, 0.000, 0.000, 17:32:55.647
18, -4168.83, -4734.50, -4568.19, -3874.07, 0.000, 0.000, 0.000, 17:32:55.647
19, -4090.70, -4647.44, -4468.82, -3768.08, 0.000, 0.000, 0.000, 17:32:55.661
20, -3918.54, -4452.39, -4280.77, -3579.20, 0.000, 0.000, 0.000, 17:32:55.661
21, -3874.08, -4421.05, -4264.83, -3562.42, 0.000, 0.000, 0.000, 17:32:55.692
22, -4156.45, -4733.10, -4567.91, -3858.97, 0.000, 0.000, 0.000, 17:32:55.692
23, -4085.60, -4633.55, -4461.19, -3761.66, 0.000, 0.000, 0.000, 17:32:55.692
24, -3907.00, -4440.48, -4267.78, -3574.19, 0.000, 0.000, 0.000, 17:32:55.692
25, -3872.53, -4428.22, -4257.43, -3569.73, 0.000, 0.000, 0.000, 17:32:55.693
26, -4146.79, -4713.29, -4549.38, -3862.92, 0.000, 0.000, 0.000, 17:32:55.693
27, -4080.87, -4623.03, -4460.60, -3743.82, 0.000, 0.000, 0.000, 17:32:55.706
28, -3899.81, -4439.89, -4273.27, -3563.57, 0.000, 0.000, 0.000, 17:32:55.707
29, -3859.97, -4431.74, -4250.10, -3552.71, 0.000, 0.000, 0.000, 17:32:55.714
30, -4141.23, -4727.26, -4555.92, -3850.63, 0.000, 0.000, 0.000, 17:32:55.714
31, -4076.21, -4633.66, -4461.45, -3743.48, 0.000, 0.000, 0.000, 17:32:55.722
32, -3904.50, -4441.42, -4272.33, -3573.07, 0.000, 0.000, 0.000, 17:32:55.722
33, -3869.06, -4426.39, -4259.10, -3568.18, 0.000, 0.000, 0.000, 17:32:55.751
34, -4151.49, -4722.81, -4552.73, -3853.78, 0.000, 0.000, 0.000, 17:32:55.751
35, -4078.62, -4630.01, -4455.97, -3750.50, 0.000, 0.000, 0.000, 17:32:55.782
36, -3902.82, -4437.99, -4262.81, -3569.27, 0.000, 0.000, 0.000, 17:32:55.782
37, -3879.34, -4417.88, -4267.33, -3573.06, 0.000, 0.000, 0.000, 17:32:55.782
38, -4163.07, -4727.38, -4567.23, -3866.31, 0.000, 0.000, 0.000, 17:32:55.782
39, -4081.43, -4633.28, -4461.23, -3755.23, 0.000, 0.000, 0.000, 17:32:55.784
40, -3910.42, -4453.65, -4273.97, -3571.95, 0.000, 0.000, 0.000, 17:32:55.784
41, -3878.79, -4423.33, -4271.42, -3571.76, 0.000, 0.000, 0.000, 17:32:55.784
42, -4149.11, -4725.28, -4550.36, -3856.60, 0.000, 0.000, 0.000, 17:32:55.784
43, -4068.26, -4618.09, -4450.44, -3745.25, 0.000, 0.000, 0.000, 17:32:55.785
44, -3898.13, -4444.49, -4267.17, -3565.69, 0.000, 0.000, 0.000, 17:32:55.785
45, -3872.81, -4408.90, -4266.73, -3572.37, 0.000, 0.000, 0.000, 17:32:55.785
46, -4147.32, -4725.51, -4552.27, -3875.83, 0.000, 0.000, 0.000, 17:32:55.785
47, -4085.15, -4647.17, -4456.86, -3761.51, 0.000, 0.000, 0.000, 17:32:55.797
48, -3903.82, -4444.81, -4282.88, -3566.02, 0.000, 0.000, 0.000, 17:32:55.797
49, -3880.23, -4421.65, -4269.90, -3565.57, 0.000, 0.000, 0.000, 17:32:55.811
50, -4160.72, -4735.62, -4568.67, -3868.97, 0.000, 0.000, 0.000, 17:32:55.812
51, -4094.49, -4653.17, -4465.13, -3754.15, 0.000, 0.000, 0.000, 17:32:55.826
52, -3907.77, -4435.70, -4272.92, -3570.23, 0.000, 0.000, 0.000, 17:32:55.826
53, -3886.11, -4439.34, -4269.02, -3570.41, 0.000, 0.000, 0.000, 17:32:55.827
54, -4147.34, -4728.04, -4545.28, -3859.63, 0.000, 0.000, 0.000, 17:32:55.827
55, -4070.21, -4613.32, -4459.68, -3742.55, 0.000, 0.000, 0.000, 17:32:55.857
56, -3903.48, -4424.10, -4263.48, -3562.95, 0.000, 0.000, 0.000, 17:32:55.857
57, -3875.53, -4437.53, -4262.16, -3566.26, 0.000, 0.000, 0.000, 17:32:55.857
58, -4148.42, -4727.61, -4550.45, -3859.69, 0.000, 0.000, 0.000, 17:32:55.857
59, -4079.01, -4623.99, -4451.28, -3745.83, 0.000, 0.000, 0.000, 17:32:55.858
60, -3898.65, -4429.25, -4277.14, -3561.39, 0.000, 0.000, 0.000, 17:32:55.858
61, -3881.17, -4427.18, -4263.79, -3568.94, 0.000, 0.000, 0.000, 17:32:55.872
62, -4159.31, -4728.03, -4559.80, -3854.56, 0.000, 0.000, 0.000, 17:32:55.872
63, -4080.05, -4633.19, -4445.00, -3734.46, 0.000, 0.000, 0.000, 17:32:55.887
64, -3897.28, -4428.81, -4272.41, -3559.95, 0.000, 0.000, 0.000, 17:32:55.887
65, -3885.17, -4430.52, -4278.48, -3576.65, 0.000, 0.000, 0.000, 17:32:55.887
66, -4156.36, -4729.65, -4561.10, -3861.13, 0.000, 0.000, 0.000, 17:32:55.887
67, -4070.80, -4612.61, -4437.17, -3736.41, 0.000, 0.000, 0.000, 17:32:55.902
68, -3878.36, -4402.87, -4241.10, -3549.74, 0.000, 0.000, 0.000, 17:32:55.902
69, -3870.55, -4385.72, -4249.30, -3555.04, 0.000, 0.000, 0.000, 17:32:55.932
70, -4142.02, -4707.48, -4538.64, -3841.95, 0.000, 0.000, 0.000, 17:32:55.932
71, -4068.07, -4605.02, -4438.69, -3728.09, 0.000, 0.000, 0.000, 17:32:55.933
72, -3892.98, -4404.91, -4263.38, -3548.95, 0.000, 0.000, 0.000, 17:32:55.933
73, -3869.23, -4429.99, -4261.54, -3562.61, 0.000, 0.000, 0.000, 17:32:55.933
74, -4144.81, -4714.01, -4547.20, -3857.64, 0.000, 0.000, 0.000, 17:32:55.933
75, -4075.05, -4628.30, -4442.98, -3744.16, 0.000, 0.000, 0.000, 17:32:55.946
76, -3895.86, -4435.90, -4261.84, -3559.69, 0.000, 0.000, 0.000, 17:32:55.946
77, -3864.36, -4412.37, -4260.77, -3566.96, 0.000, 0.000, 0.000, 17:32:55.947
78, -4138.19, -4705.61, -4546.05, -3845.52, 0.000, 0.000, 0.000, 17:32:55.947
79, -4067.05, -4634.54, -4438.62, -3733.02, 0.000, 0.000, 0.000, 17:32:55.961
80, -3889.09, -4424.17, -4255.14, -3551.33, 0.000, 0.000, 0.000, 17:32:55.961
81, -3880.20, -4429.47, -4268.72, -3577.20, 0.000, 0.000, 0.000, 17:32:55.976
82, -4156.09, -4722.71, -4552.99, -3871.63, 0.000, 0.000, 0.000, 17:32:55.976
83, -4072.32, -4618.37, -4444.59, -3743.33, 0.000, 0.000, 0.000, 17:32:55.977
84, -3889.21, -4427.17, -4256.91, -3551.27, 0.000, 0.000, 0.000, 17:32:55.977
85, -3885.39, -4429.79, -4272.84, -3573.76, 0.000, 0.000, 0.000, 17:32:56.006
86, -4161.33, -4735.05, -4560.19, -3872.12, 0.000, 0.000, 0.000, 17:32:56.006
87, -4070.82, -4622.69, -4448.46, -3748.13, 0.000, 0.000, 0.000, 17:32:56.006
88, -3893.23, -4437.87, -4272.77, -3557.18, 0.000, 0.000, 0.000, 17:32:56.007
89, -3881.19, -4434.73, -4271.26, -3573.77, 0.000, 0.000, 0.000, 17:32:56.007
90, -4146.70, -4736.71, -4554.35, -3859.52, 0.000, 0.000, 0.000, 17:32:56.007
91, -4062.18, -4605.37, -4447.80, -3732.65, 0.000, 0.000, 0.000, 17:32:56.021
92, -3892.22, -4421.24, -4261.54, -3552.26, 0.000, 0.000, 0.000, 17:32:56.021
93, -3895.53, -4447.80, -4280.83, -3580.89, 0.000, 0.000, 0.000, 17:32:56.037
94, -4164.37, -4722.78, -4572.43, -3861.23, 0.000, 0.000, 0.000, 17:32:56.037
95, -4076.82, -4620.67, -4438.11, -3738.59, 0.000, 0.000, 0.000, 17:32:56.037
96, -3884.79, -4417.82, -4245.72, -3548.78, 0.000, 0.000, 0.000, 17:32:56.037
97, -3888.66, -4435.00, -4278.13, -3578.56, 0.000, 0.000, 0.000, 17:32:56.052
98, -4168.04, -4735.09, -4567.32, -3865.23, 0.000, 0.000, 0.000, 17:32:56.052
99, -4064.53, -4626.58, -4443.33, -3739.26, 0.000, 0.000, 0.000, 17:32:56.067
100, -3885.44, -4424.04, -4253.06, -3556.64, 0.000, 0.000, 0.000, 17:32:56.067
101, -3881.30, -4422.47, -4273.51, -3577.98, 0.000, 0.000, 0.000, 17:32:56.097
102, -4161.91, -4729.12, -4552.68, -3872.09, 0.000, 0.000, 0.000, 17:32:56.097
103, -4066.57, -4601.38, -4441.51, -3744.14, 0.000, 0.000, 0.000, 17:32:56.097
104, -3887.97, -4417.84, -4254.01, -3552.88, 0.000, 0.000, 0.000, 17:32:56.098
105, -3895.57, -4455.94, -4281.62, -3586.84, 0.000, 0.000, 0.000, 17:32:56.098
106, -4166.96, -4744.06, -4573.97, -3868.68, 0.000, 0.000, 0.000, 17:32:56.098
107, -4062.69, -4614.46, -4438.21, -3729.21, 0.000, 0.000, 0.000, 17:32:56.099
108, -3878.79, -4402.92, -4249.38, -3542.06, 0.000, 0.000, 0.000, 17:32:56.099
109, -3877.77, -4439.02, -4276.51, -3587.37, 0.000, 0.000, 0.000, 17:32:56.111
110, -4156.81, -4728.14, -4563.20, -3861.95, 0.000, 0.000, 0.000, 17:32:56.111
111, -4062.84, -4618.08, -4442.20, -3736.56, 0.000, 0.000, 0.000, 17:32:56.126
112, -3885.34, -4419.51, -4256.13, -3549.38, 0.000, 0.000, 0.000, 17:32:56.126
113, -3887.16, -4443.53, -4271.85, -3587.96, 0.000, 0.000, 0.000, 17:32:56.126
114, -4160.38, -4723.32, -4558.54, -3868.20, 0.000, 0.000, 0.000, 17:32:56.127
115, -4059.43, -4597.08, -4431.53, -3733.33, 0.000, 0.000, 0.000, 17:32:56.142
116, -3884.58, -4424.17, -4262.88, -3544.44, 0.000, 0.000, 0.000, 17:32:56.142
117, -3907.91, -4463.18, -4307.48, -3599.14, 0.000, 0.000, 0.000, 17:32:56.171
118, -4164.29, -4734.24, -4554.40, -3867.87, 0.000, 0.000, 0.000, 17:32:56.171
119, -4062.92, -4601.89, -4437.88, -3728.77, 0.000, 0.000, 0.000, 17:32:56.172
120, -3877.98, -4405.41, -4243.69, -3540.49, 0.000, 0.000, 0.000, 17:32:56.172
121, -3886.61, -4421.31, -4273.89, -3582.07, 0.000, 0.000, 0.000, 17:32:56.173
122, -4156.36, -4717.83, -4567.30, -3861.23, 0.000, 0.000, 0.000, 17:32:56.173
123, -4054.98, -4601.57, -4438.46, -3734.37, 0.000, 0.000, 0.000, 17:32:56.187
124, -3879.95, -4424.94, -4259.31, -3548.02, 0.000, 0.000, 0.000, 17:32:56.187
125, -3886.92, -4441.62, -4267.62, -3596.51, 0.000, 0.000, 0.000, 17:32:56.187
126, -4164.58, -4720.02, -4557.17, -3858.02, 0.000, 0.000, 0.000, 17:32:56.187
127, -4066.05, -4611.24, -4448.23, -3733.70, 0.000, 0.000, 0.000, 17:32:56.202
128, -3881.40, -4404.25, -4239.80, -3543.42, 0.000, 0.000, 0.000, 17:32:56.202
129, -3903.57, -4455.92, -4295.86, -3599.05, 0.000, 0.000, 0.000, 17:32:56.217
130, -4169.34, -4730.31, -4575.36, -3871.98, 0.000, 0.000, 0.000, 17:32:56.217
131, -4074.72, -4613.35, -4440.78, -3732.01, 0.000, 0.000, 0.000, 17:32:56.217
132, -3892.04, -4435.32, -4250.21, -3556.27, 0.000, 0.000, 0.000, 17:32:56.218
133, -3889.14, -4448.58, -4271.44, -3596.39, 0.000, 0.000, 0.000, 17:32:56.247
134, -4165.99, -4739.53, -4564.86, -3873.61, 0.000, 0.000, 0.000, 17:32:56.247
135, -4065.77, -4613.57, -4441.64, -3732.82, 0.000, 0.000, 0.000, 17:32:56.247
136, -3883.23, -4422.45, -4238.69, -3555.50, 0.000, 0.000, 0.000, 17:32:56.247
137, -3897.13, -4449.80, -4286.62, -3588.45, 0.000, 0.000, 0.000, 17:32:56.261
138, -4159.48, -4727.17, -4548.19, -3866.28, 0.000, 0.000, 0.000, 17:32:56.261
139, -4049.25, -4587.51, -4419.83, -3724.33, 0.000, 0.000, 0.000, 17:32:56.262
140, -3878.40, -4411.43, -4241.28, -3538.88, 0.000, 0.000, 0.000, 17:32:56.262
141, -3901.74, -4457.15, -4288.62, -3603.49, 0.000, 0.000, 0.000, 17:32:56.277
142, -4171.51, -4727.34, -4561.91, -3866.10, 0.000, 0.000, 0.000, 17:32:56.277
143, -4064.91, -4600.44, -4424.32, -3729.39, 0.000, 0.000, 0.000, 17:32:56.277
144, -3889.80, -4405.86, -4246.36, -3552.85, 0.000, 0.000, 0.000, 17:32:56.277
145, -3889.31, -4450.68, -4280.09, -3594.57, 0.000, 0.000, 0.000, 17:32:56.291
146, -4157.79, -4740.43, -4555.36, -3862.47, 0.000, 0.000, 0.000, 17:32:56.291
147, -4061.71, -4624.27, -4440.41, -3729.21, 0.000, 0.000, 0.000, 17:32:56.321
148, -3886.29, -4417.50, -4266.40, -3545.73, 0.000, 0.000, 0.000, 17:32:56.321
149, -3910.02, -4465.39, -4306.48, -3605.77, 0.000, 0.000, 0.000, 17:32:56.337
150, -4175.85, -4740.23, -4567.02, -3871.74, 0.000, 0.000, 0.000, 17:32:56.337
151, -4068.86, -4615.95, -4438.23, -3738.46, 0.000, 0.000, 0.000, 17:32:56.337
152, -3873.86, -4414.36, -4252.82, -3539.31, 0.000, 0.000, 0.000, 17:32:56.337
153, -3902.17, -4451.84, -4298.90, -3601.75, 0.000, 0.000, 0.000, 17:32:56.337
154, -4158.89, -4733.01, -4569.58, -3862.58, 0.000, 0.000, 0.000, 17:32:56.337
155, -4059.71, -4612.42, -4432.51, -3735.57, 0.000, 0.000, 0.000, 17:32:56.338
156, -3886.68, -4425.98, -4256.06, -3556.81, 0.000, 0.000, 0.000, 17:32:56.338
157, -3904.53, -4463.98, -4292.43, -3603.80, 0.000, 0.000, 0.000, 17:32:56.351
158, -4152.05, -4736.72, -4550.45, -3853.94, 0.000, 0.000, 0.000, 17:32:56.352
159, -4058.08, -4597.06, -4429.87, -3719.13, 0.000, 0.000, 0.000, 17:32:56.367
160, -3878.57, -4393.37, -4232.47, -3542.56, 0.000, 0.000, 0.000, 17:32:56.367
161, -3902.89, -4446.60, -4287.60, -3604.38, 0.000, 0.000, 0.000, 17:32:56.367
162, -4158.03, -4732.51, -4546.52, -3861.44, 0.000, 0.000, 0.000, 17:32:56.367
163, -4052.41, -4583.91, -4416.93, -3716.71, 0.000, 0.000, 0.000, 17:32:56.382
164, -3882.57, -4418.96, -4245.42, -3543.30, 0.000, 0.000, 0.000, 17:32:56.382
165, -3907.21, -4470.95, -4301.14, -3598.69, 0.000, 0.000, 0.000, 17:32:56.411
166, -4170.17, -4737.43, -4559.59, -3866.16, 0.000, 0.000, 0.000, 17:32:56.412
167, -4058.50, -4594.63, -4423.57, -3722.22, 0.000, 0.000, 0.000, 17:32:56.412
168, -3873.76, -4393.83, -4222.63, -3541.13, 0.000, 0.000, 0.000, 17:32:56.412
169, -3910.42, -4468.50, -4298.04, -3609.52, 0.000, 0.000, 0.000, 17:32:56.413
170, -4158.30, -4735.86, -4552.71, -3862.98, 0.000, 0.000, 0.000, 17:32:56.413
171, -4052.79, -4604.74, -4425.36, -3722.29, 0.000, 0.000, 0.000, 17:32:56.427
172, -3868.26, -4404.83, -4246.70, -3529.85, 0.000, 0.000, 0.000, 17:32:56.427
173, -3904.14, -4455.42, -4308.78, -3605.99, 0.000, 0.000, 0.000, 17:32:56.427
174, -4156.00, -4732.35, -4555.33, -3863.04, 0.000, 0.000, 0.000, 17:32:56.427
175, -4048.45, -4589.11, -4415.73, -3715.06, 0.000, 0.000, 0.000, 17:32:56.449
176, -3882.33, -4405.32, -4251.88, -3550.82, 0.000, 0.000, 0.000, 17:32:56.449
177, -3918.25, -4461.60, -4309.81, -3618.56, 0.000, 0.000, 0.000, 17:32:56.457
178, -4166.05, -4733.70, -4564.06, -3854.62, 0.000, 0.000, 0.000, 17:32:56.457
179, -4051.84, -4595.36, -4423.13, -3712.84, 0.000, 0.000, 0.000, 17:32:56.471
180, -3872.92, -4396.22, -4237.73, -3531.14, 0.000, 0.000, 0.000, 17:32:56.471
181, -3908.70, -4472.25, -4305.44, -3615.89, 0.000, 0.000, 0.000, 17:32:56.472
182, -4173.46, -4758.58, -4566.77, -3877.86, 0.000, 0.000, 0.000, 17:32:56.472
183, -4052.80, -4612.93, -4435.54, -3715.13, 0.000, 0.000, 0.000, 17:32:56.487
184, -3862.45, -4399.03, -4245.65, -3531.34, 0.000, 0.000, 0.000, 17:32:56.487
185, -3922.20, -4483.94, -4325.34, -3624.60, 0.000, 0.000, 0.000, 17:32:56.487
186, -4174.06, -4746.26, -4567.71, -3866.79, 0.000, 0.000, 0.000, 17:32:56.487
187, -4047.12, -4596.12, -4422.86, -3714.16, 0.000, 0.000, 0.000, 17:32:56.501
188, -3857.72, -4413.51, -4234.79, -3529.11, 0.000, 0.000, 0.000, 17:32:56.501
189, -3902.77, -4476.18, -4306.87, -3615.25, 0.000, 0.000, 0.000, 17:32:56.517
190, -4144.23, -4726.14, -4556.79, -3854.83, 0.000, 0.000, 0.000, 17:32:56.517
191, -4035.39, -4581.90, -4414.20, -3710.99, 0.000, 0.000, 0.000, 17:32:56.517
192, -3872.52, -4403.34, -4243.61, -3529.48, 0.000, 0.000, 0.000, 17:32:56.517
193, -3911.62, -4474.68, -4314.56, -3615.63, 0.000, 0.000, 0.000, 17:32:56.532
194, -4164.19, -4738.17, -4573.15, -3864.52, 0.000, 0.000, 0.000, 17:32:56.532
195, -4044.04, -4592.02, -4414.84, -3716.27, 0.000, 0.000, 0.000, 17:32:56.562
196, -3877.62, -4405.32, -4247.02, -3547.21, 0.000, 0.000, 0.000, 17:32:56.562
197, -3919.73, -4481.74, -4318.12, -3622.84, 0.000, 0.000, 0.000, 17:32:56.562
198, -4155.69, -4748.51, -4552.70, -3862.65, 0.000, 0.000, 0.000, 17:32:56.562
199, -4030.43, -4577.14, -4409.46, -3707.76, 0.000, 0.000, 0.000, 17:32:56.563
200, -3861.01, -4405.02, -4242.42, -3532.14, 0.000, 0.000, 0.000, 17:32:56.563
0, -3924.71, -4475.43, -4311.92, -3621.30, 0.000, 0.000, 0.000, 17:32:56.564
1, -4166.06, -4751.50, -4553.45, -3860.61, 0.000, 0.000, 0.000, 17:32:56.577
2, -4050.93, -4588.92, -4407.08, -3706.30, 0.000, 0.000, 0.000, 17:32:56.577
3, -3872.19, -4407.68, -4243.22, -3537.01, 0.000, 0.000, 0.000, 17:32:56.591
4, -3919.17, -4468.13, -4312.52, -3618.73, 0.000, 0.000, 0.000, 17:32:56.591
5, -4155.99, -4733.06, -4548.23, -3862.39, 0.000, 0.000, 0.000, 17:32:56.592
6, -4035.18, -4589.10, -4424.29, -3709.22, 0.000, 0.000, 0.000, 17:32:56.592
7, -3870.68, -4403.82, -4245.73, -3539.02, 0.000, 0.000, 0.000, 17:32:56.606
8, -3927.02, -4481.33, -4326.43, -3621.08, 0.000, 0.000, 0.000, 17:32:56.606
9, -4166.56, -4716.63, -4551.89, -3851.80, 0.000, 0.000, 0.000, 17:32:56.621
10, -4038.89, -4578.29, -4408.33, -3705.11, 0.000, 0.000, 0.000, 17:32:56.621
11, -3864.94, -4398.23, -4230.53, -3531.52, 0.000, 0.000, 0.000, 17:32:56.622
12, -3920.35, -4468.56, -4312.06, -3610.37, 0.000, 0.000, 0.000, 17:32:56.622
13, -4165.54, -4720.58, -4558.81, -3862.22, 0.000, 0.000, 0.000, 17:32:56.637
14, -4050.17, -4594.45, -4418.92, -3701.95, 0.000, 0.000, 0.000, 17:32:56.637
15, -3870.85, -4396.27, -4239.21, -3524.74, 0.000, 0.000, 0.000, 17:32:56.651
16, -3923.76, -4463.66, -4309.83, -3618.10, 0.000, 0.000, 0.000, 17:32:56.652
17, -4159.07, -4729.90, -4555.11, -3866.02, 0.000, 0.000, 0.000, 17:32:56.652
18, -4047.37, -4591.81, -4409.27, -3709.34, 0.000, 0.000, 0.000, 17:32:56.652
19, -3876.58, -4414.43, -4251.01, -3538.52, 0.000, 0.000, 0.000, 17:32:56.667
20, -3941.39, -4512.93, -4341.64, -3638.01, 0.000, 0.000, 0.000, 17:32:56.667
21, -4165.11, -4741.50, -4554.28, -3865.02, 0.000, 0.000, 0.000, 17:32:56.682
22, -4035.66, -4568.04, -4418.94, -3701.23, 0.000, 0.000, 0.000, 17:32:56.682
23, -3860.55, -4384.18, -4231.95, -3534.04, 0.000, 0.000, 0.000, 17:32:56.683
24, -3922.93, -4479.91, -4317.23, -3620.43, 0.000, 0.000, 0.000, 17:32:56.683
25, -4155.16, -4722.06, -4544.70, -3860.75, 0.000, 0.000, 0.000, 17:32:56.697
26, -4033.38, -4584.42, -4406.57, -3700.76, 0.000, 0.000, 0.000, 17:32:56.697
27, -3857.94, -4387.34, -4240.61, -3532.83, 0.000, 0.000, 0.000, 17:32:56.712
28, -3922.50, -4486.99, -4318.94, -3624.29, 0.000, 0.000, 0.000, 17:32:56.712
29, -4166.40, -4721.52, -4552.35, -3860.89, 0.000, 0.000, 0.000, 17:32:56.726
30, -4037.26, -4572.58, -4411.44, -3698.55, 0.000, 0.000, 0.000, 17:32:56.726
31, -3859.87, -4389.12, -4239.35, -3527.84, 0.000, 0.000, 0.000, 17:32:56.727
32, -3923.78, -4491.41, -4321.15, -3638.47, 0.000, 0.000, 0.000, 17:32:56.727
33, -4171.12, -4742.69, -4567.86, -3868.02, 0.000, 0.000, 0.000, 17:32:56.757
34, -4054.49, -4591.13, -4426.67, -3715.81, 0.000, 0.000, 0.000, 17:32:56.757
35, -3863.41, -4397.28, -4237.72, -3531.47, 0.000, 0.000, 0.000, 17:32:56.757
36, -3929.57, -4473.86, -4334.64, -3630.62, 0.000, 0.000, 0.000, 17:32:56.757
37, -4169.57, -4722.41, -4560.31, -3871.46, 0.000, 0.000, 0.000, 17:32:56.758
38, -4049.19, -4583.00, -4418.23, -3714.89, 0.000, 0.000, 0.000, 17:32:56.758
39, -3873.27, -4400.04, -4248.21, -3540.67, 0.000, 0.000, 0.000, 17:32:56.771
40, -3935.98, -4503.46, -4328.86, -3639.64, 0.000, 0.000, 0.000, 17:32:56.771
41, -4169.47, -4744.45, -4574.97, -3866.36, 0.000, 0.000, 0.000, 17:32:56.772
42, -4039.83, -4581.35, -4412.55, -3702.27, 0.000, 0.000, 0.000, 17:32:56.772
43, -3864.46, -4396.13, -4236.29, -3532.13, 0.000, 0.000, 0.000, 17:32:56.802
44, -3937.21, -4502.32, -4337.35, -3642.79, 0.000, 0.000, 0.000, 17:32:56.803
45, -4167.08, -4740.21, -4555.69, -3858.97, 0.000, 0.000, 0.000, 17:32:56.803
46, -4039.23, -4572.29, -4423.13, -3702.36, 0.000, 0.000, 0.000, 17:32:56.803
47, -3861.81, -4405.58, -4229.46, -3528.61, 0.000, 0.000, 0.000, 17:32:56.804
48, -3928.63, -4494.91, -4328.66, -3633.56, 0.000, 0.000, 0.000, 17:32:56.804
49, -4162.26, -4725.83, -4559.27, -3865.48, 0.000, 0.000, 0.000, 17:32:56.816
50, -4045.52, -4579.11, -4416.58, -3705.54, 0.000, 0.000, 0.000, 17:32:56.816
51, -3859.40, -4395.04, -4232.39, -3533.13, 0.000, 0.000, 0.000, 17:32:56.832
52, -3934.24, -4500.39, -4331.12, -3642.48, 0.000, 0.000, 0.000, 17:32:56.832
53, -4158.81, -4734.99, -4543.61, -3856.85, 0.000, 0.000, 0.000, 17:32:56.834
54, -4032.43, -4573.85, -4395.66, -3695.85, 0.000, 0.000, 0.000, 17:32:56.834
55, -3855.20, -4389.46, -4230.73, -3518.75, 0.000, 0.000, 0.000, 17:32:56.846
56, -3934.75, -4496.23, -4337.82, -3639.51, 0.000, 0.000, 0.000, 17:32:56.846
57, -4167.58, -4740.39, -4571.35, -3861.43, 0.000, 0.000, 0.000, 17:32:56.891
58, -4034.82, -4596.37, -4409.23, -3710.97, 0.000, 0.000, 0.000, 17:32:56.891
59, -3851.53, -4380.69, -4229.42, -3519.60, 0.000, 0.000, 0.000, 17:32:56.891
60, -3928.59, -4501.79, -4334.65, -3635.63, 0.000, 0.000, 0.000, 17:32:56.892
61, -4150.21, -4737.10, -4549.41, -3859.58, 0.000, 0.000, 0.000, 17:32:56.892
62, -4018.81, -4588.15, -4394.53, -3698.56, 0.000, 0.000, 0.000, 17:32:56.892
63, -3854.07, -4402.06, -4225.54, -3525.85, 0.000, 0.000, 0.000, 17:32:56.906
64, -3936.42, -4510.17, -4331.16, -3644.19, 0.000, 0.000, 0.000, 17:32:56.906
65, -4153.69, -4723.84, -4546.95, -3860.93, 0.000, 0.000, 0.000, 17:32:56.907
66, -4027.03, -4569.11, -4391.76, -3696.61, 0.000, 0.000, 0.000, 17:32:56.907
67, -3867.31, -4395.88, -4240.82, -3531.99, 0.000, 0.000, 0.000, 17:32:56.908
68, -3948.51, -4519.91, -4343.62, -3652.27, 0.000, 0.000, 0.000, 17:32:56.908
69, -4166.30, -4732.29, -4562.09, -3869.01, 0.000, 0.000, 0.000, 17:32:56.922
70, -4026.28, -4581.01, -4408.01, -3696.42, 0.000, 0.000, 0.000, 17:32:56.922
71, -3859.82, -4385.39, -4237.19, -3526.88, 0.000, 0.000, 0.000, 17:32:56.922
72, -3943.19, -4508.64, -4342.28, -3652.01, 0.000, 0.000, 0.000, 17:32:56.922
73, -4159.36, -4718.49, -4552.69, -3859.94, 0.000, 0.000, 0.000, 17:32:56.937
74, -4027.92, -4569.40, -4397.21, -3690.54, 0.000, 0.000, 0.000, 17:32:56.937
75, -3863.99, -4385.12, -4234.72, -3529.17, 0.000, 0.000, 0.000, 17:32:56.967
76, -3955.52, -4511.68, -4358.29, -3654.04, 0.000, 0.000, 0.000, 17:32:56.967
77, -4165.23, -4734.54, -4553.14, -3857.31, 0.000, 0.000, 0.000, 17:32:56.967
78, -4035.04, -4565.99, -4399.26, -3694.79, 0.000, 0.000, 0.000, 17:32:56.967
79, -3859.84, -4391.04, -4227.59, -3523.80, 0.000, 0.000, 0.000, 17:32:56.967
80, -3954.72, -4511.89, -4354.03, -3654.72, 0.000, 0.000, 0.000, 17:32:56.967
81, -4170.22, -4724.55, -4554.34, -3855.39, 0.000, 0.000, 0.000, 17:32:56.981
82, -4035.22, -4586.40, -4405.40, -3697.49, 0.000, 0.000, 0.000, 17:32:56.982
83, -3861.08, -4395.25, -4232.31, -3539.15, 0.000, 0.000, 0.000, 17:32:56.982
84, -3949.38, -4513.84, -4345.46, -3655.28, 0.000, 0.000, 0.000, 17:32:56.982
85, -4172.80, -4725.91, -4558.73, -3867.91, 0.000, 0.000, 0.000, 17:32:56.997
86, -4033.89, -4576.25, -4396.80, -3702.38, 0.000, 0.000, 0.000, 17:32:56.999
87, -3860.27, -4391.61, -4234.52, -3528.04, 0.000, 0.000, 0.000, 17:32:57.012
88, -3957.92, -4511.35, -4360.11, -3654.97, 0.000, 0.000, 0.000, 17:32:57.012
89, -4174.44, -4726.02, -4560.02, -3865.07, 0.000, 0.000, 0.000, 17:32:57.012
90, -4040.92, -4588.47, -4415.03, -3703.21, 0.000, 0.000, 0.000, 17:32:57.012
91, -3858.48, -4391.51, -4231.46, -3526.44, 0.000, 0.000, 0.000, 17:32:57.041
92, -3944.77, -4499.67, -4345.49, -3654.42, 0.000, 0.000, 0.000, 17:32:57.041
93, -4160.64, -4728.31, -4553.19, -3856.54, 0.000, 0.000, 0.000, 17:32:57.041
94, -4027.36, -4563.65, -4400.26, -3701.32, 0.000, 0.000, 0.000, 17:32:57.042
95, -3855.02, -4388.96, -4227.00, -3533.67, 0.000, 0.000, 0.000, 17:32:57.042
96, -3944.35, -4505.71, -4336.87, -3652.82, 0.000, 0.000, 0.000, 17:32:57.042
97, -4167.87, -4730.79, -4562.28, -3855.39, 0.000, 0.000, 0.000, 17:32:57.057
98, -4037.16, -4594.64, -4412.12, -3701.07, 0.000, 0.000, 0.000, 17:32:57.057
99, -3865.02, -4396.61, -4241.11, -3532.27, 0.000, 0.000, 0.000, 17:32:57.071
100, -3943.58, -4505.59, -4341.35, -3651.44, 0.000, 0.000, 0.000, 17:32:57.071
101, -4155.25, -4727.51, -4557.84, -3858.27, 0.000, 0.000, 0.000, 17:32:57.071
102, -4023.50, -4570.96, -4386.55, -3699.54, 0.000, 0.000, 0.000, 17:32:57.071
103, -3860.88, -4389.30, -4231.01, -3523.31, 0.000, 0.000, 0.000, 17:32:57.117
104, -3966.88, -4535.81, -4372.91, -3659.39, 0.000, 0.000, 0.000, 17:32:57.117
105, -4167.91, -4752.90, -4568.12, -3859.85, 0.000, 0.000, 0.000, 17:32:57.117
106, -4030.55, -4585.47, -4410.06, -3699.87, 0.000, 0.000, 0.000, 17:32:57.117
107, -3867.55, -4378.23, -4230.51, -3528.02, 0.000, 0.000, 0.000, 17:32:57.118
108, -3959.97, -4532.00, -4369.76, -3666.07, 0.000, 0.000, 0.000, 17:32:57.118
109, -4162.71, -4732.93, -4560.07, -3848.38, 0.000, 0.000, 0.000, 17:32:57.118
110, -4016.99, -4580.17, -4394.67, -3694.51, 0.000, 0.000, 0.000, 17:32:57.118
111, -3843.24, -4373.68, -4227.02, -3519.13, 0.000, 0.000, 0.000, 17:32:57.121
112, -3960.96, -4514.73, -4365.89, -3659.93, 0.000, 0.000, 0.000, 17:32:57.121
113, -4161.73, -4730.54, -4555.49, -3859.26, 0.000, 0.000, 0.000, 17:32:57.132
114, -4029.99, -4569.49, -4394.99, -3689.98, 0.000, 0.000, 0.000, 17:32:57.132
115, -3858.91, -4382.35, -4223.15, -3527.71, 0.000, 0.000, 0.000, 17:32:57.146
116, -3959.02, -4515.64, -4360.55, -3665.45, 0.000, 0.000, 0.000, 17:32:57.146
117, -4159.01, -4728.60, -4548.95, -3858.84, 0.000, 0.000, 0.000, 17:32:57.162
118, -4031.66, -4580.34, -4396.88, -3698.63, 0.000, 0.000, 0.000, 17:32:57.162
119, -3852.92, -4383.15, -4225.65, -3526.05, 0.000, 0.000, 0.000, 17:32:57.162
120, -3967.16, -4535.69, -4361.62, -3667.56, 0.000, 0.000, 0.000, 17:32:57.162
121, -4154.95, -4715.21, -4543.08, -3856.02, 0.000, 0.000, 0.000, 17:32:57.191
122, -4019.39, -4568.92, -4395.84, -3687.73, 0.000, 0.000, 0.000, 17:32:57.191
123, -3849.13, -4390.02, -4214.05, -3525.35, 0.000, 0.000, 0.000, 17:32:57.192
124, -3965.50, -4536.29, -4365.79, -3674.64, 0.000, 0.000, 0.000, 17:32:57.192
125, -4165.50, -4717.24, -4558.09, -3848.69, 0.000, 0.000, 0.000, 17:32:57.193
126, -4017.97, -4558.97, -4405.69, -3686.81, 0.000, 0.000, 0.000, 17:32:57.193
127, -3860.65, -4395.54, -4226.97, -3522.94, 0.000, 0.000, 0.000, 17:32:57.237
128, -3951.73, -4518.31, -4350.71, -3670.66, 0.000, 0.000, 0.000, 17:32:57.237
129, -4155.12, -4720.33, -4548.11, -3857.53, 0.000, 0.000, 0.000, 17:32:57.237
130, -4020.22, -4560.70, -4393.13, -3681.98, 0.000, 0.000, 0.000, 17:32:57.237
131, -3847.47, -4384.56, -4215.38, -3518.46, 0.000, 0.000, 0.000, 17:32:57.238
132, -3961.15, -4518.37, -4358.46, -3665.63, 0.000, 0.000, 0.000, 17:32:57.238
133, -4156.79, -4736.20, -4562.99, -3855.13, 0.000, 0.000, 0.000, 17:32:57.238
134, -4017.33, -4558.96, -4401.62, -3692.14, 0.000, 0.000, 0.000, 17:32:57.238
135, -3852.76, -4391.92, -4224.24, -3527.45, 0.000, 0.000, 0.000, 17:32:57.239
136, -3964.06, -4537.92, -4356.14, -3682.04, 0.000, 0.000, 0.000, 17:32:57.239
137, -4163.65, -4730.38, -4550.76, -3853.90, 0.000, 0.000, 0.000, 17:32:57.251
138, -4021.77, -4557.61, -4383.32, -3687.35, 0.000, 0.000, 0.000, 17:32:57.251
139, -3855.84, -4394.05, -4214.00, -3519.62, 0.000, 0.000, 0.000, 17:32:57.282
140, -3968.28, -4556.66, -4371.00, -3667.48, 0.000, 0.000, 0.000, 17:32:57.282
141, -4157.43, -4730.19, -4535.48, -3847.89, 0.000, 0.000, 0.000, 17:32:57.283
142, -4012.98, -4556.92, -4398.76, -3671.38, 0.000, 0.000, 0.000, 17:32:57.283
143, -3859.34, -4393.81, -4232.61, -3523.58, 0.000, 0.000, 0.000, 17:32:57.283
144, -3973.10, -4521.21, -4365.96, -3674.65, 0.000, 0.000, 0.000, 17:32:57.283
145, -4159.30, -4713.79, -4564.42, -3854.57, 0.000, 0.000, 0.000, 17:32:57.297
146, -4011.22, -4545.66, -4385.99, -3674.39, 0.000, 0.000, 0.000, 17:32:57.297
147, -3843.37, -4377.90, -4220.52, -3518.20, 0.000, 0.000, 0.000, 17:32:57.311
148, -3973.77, -4537.01, -4369.23, -3676.09, 0.000, 0.000, 0.000, 17:32:57.311
149, -4143.32, -4696.10, -4552.83, -3847.58, 0.000, 0.000, 0.000, 17:32:57.312
150, -4008.79, -4558.42, -4381.96, -3679.25, 0.000, 0.000, 0.000, 17:32:57.312
151, -3847.75, -4385.84, -4212.56, -3521.54, 0.000, 0.000, 0.000, 17:32:57.327
152, -3984.07, -4541.97, -4399.35, -3683.79, 0.000, 0.000, 0.000, 17:32:57.327
153, -4164.71, -4732.98, -4562.22, -3850.87, 0.000, 0.000, 0.000, 17:32:57.356
154, -4007.99, -4549.04, -4388.39, -3667.28, 0.000, 0.000, 0.000, 17:32:57.356
155, -3835.91, -4382.55, -4223.37, -3503.00, 0.000, 0.000, 0.000, 17:32:57.357
156, -3957.14, -4527.60, -4364.86, -3666.39, 0.000, 0.000, 0.000, 17:32:57.357
157, -4155.18, -4713.76, -4536.12, -3840.32, 0.000, 0.000, 0.000, 17:32:57.358
158, -4015.38, -4555.01, -4388.71, -3683.79, 0.000, 0.000, 0.000, 17:32:57.358
159, -3854.93, -4389.69, -4224.65, -3519.75, 0.000, 0.000, 0.000, 17:32:57.372
160, -3974.56, -4533.42, -4377.67, -3684.43, 0.000, 0.000, 0.000, 17:32:57.372
161, -4154.17, -4708.67, -4538.41, -3848.08, 0.000, 0.000, 0.000, 17:32:57.372
162, -4009.76, -4564.86, -4380.92, -3689.99, 0.000, 0.000, 0.000, 17:32:57.372
163, -3848.83, -4381.84, -4210.60, -3521.63, 0.000, 0.000, 0.000, 17:32:57.387
164, -3983.96, -4553.26, -4378.85, -3692.16, 0.000, 0.000, 0.000, 17:32:57.387
165, -4186.53, -4757.21, -4586.48, -3861.35, 0.000, 0.000, 0.000, 17:32:57.401
166, -4034.45, -4576.18, -4410.52, -3696.90, 0.000, 0.000, 0.000, 17:32:57.401
167, -3852.51, -4373.32, -4217.21, -3530.69, 0.000, 0.000, 0.000, 17:32:57.402
168, -4003.79, -4557.05, -4392.70, -3718.14, 0.000, 0.000, 0.000, 17:32:57.402
169, -4195.87, -4751.71, -4574.70, -3891.19, 0.000, 0.000, 0.000, 17:32:57.447
170, -4054.30, -4588.91, -4415.65, -3723.19, 0.000, 0.000, 0.000, 17:32:57.448
171, -3882.86, -4414.11, -4252.17, -3550.94, 0.000, 0.000, 0.000, 17:32:57.449
172, -4015.08, -4560.26, -4406.05, -3716.09, 0.000, 0.000, 0.000, 17:32:57.449
173, -4189.93, -4758.90, -4570.18, -3878.95, 0.000, 0.000, 0.000, 17:32:57.449
174, -4053.98, -4590.72, -4413.56, -3711.80, 0.000, 0.000, 0.000, 17:32:57.449
175, -3891.26, -4421.43, -4254.64, -3558.05, 0.000, 0.000, 0.000, 17:32:57.450
176, -4015.29, -4582.95, -4419.88, -3729.21, 0.000, 0.000, 0.000, 17:32:57.450
177, -4195.11, -4754.37, -4584.07, -3879.84, 0.000, 0.000, 0.000, 17:32:57.450
178, -4048.02, -4593.62, -4434.93, -3719.50, 0.000, 0.000, 0.000, 17:32:57.450
179, -3888.88, -4402.77, -4257.07, -3540.77, 0.000, 0.000, 0.000, 17:32:57.461
180, -4010.46, -4587.10, -4412.71, -3712.28, 0.000, 0.000, 0.000, 17:32:57.461
181, -4172.69, -4734.12, -4560.63, -3865.46, 0.000, 0.000, 0.000, 17:32:57.477
182, -4021.04, -4563.76, -4395.38, -3690.67, 0.000, 0.000, 0.000, 17:32:57.477
183, -3863.66, -4396.26, -4227.54, -3531.63, 0.000, 0.000, 0.000, 17:32:57.491
184, -4003.22, -4567.06, -4395.49, -3711.61, 0.000, 0.000, 0.000, 17:32:57.491
185, -4173.59, -4718.61, -4540.67, -3866.10, 0.000, 0.000, 0.000, 17:32:57.492
186, -4032.03, -4580.87, -4398.99, -3700.71, 0.000, 0.000, 0.000, 17:32:57.492
187, -3875.89, -4412.78, -4254.28, -3546.77, 0.000, 0.000, 0.000, 17:32:57.521
188, -4008.94, -4581.12, -4402.52, -3718.58, 0.000, 0.000, 0.000, 17:32:57.521
189, -4184.15, -4749.12, -4557.70, -3863.61, 0.000, 0.000, 0.000, 17:32:57.521
190, -4033.22, -4590.65, -4406.91, -3695.22, 0.000, 0.000, 0.000, 17:32:57.521
191, -3866.36, -4398.35, -4233.76, -3532.02, 0.000, 0.000, 0.000, 17:32:57.522
192, -3986.72, -4541.65, -4387.25, -3694.27, 0.000, 0.000, 0.000, 17:32:57.522
193, -4156.37, -4702.54, -4532.95, -3854.50, 0.000, 0.000, 0.000, 17:32:57.537
194, -4025.92, -4565.35, -4396.53, -3689.29, 0.000, 0.000, 0.000, 17:32:57.537
195, -3865.78, -4405.18, -4237.63, -3538.19, 0.000, 0.000, 0.000, 17:32:57.551
196, -4011.29, -4567.11, -4405.61, -3718.98, 0.000, 0.000, 0.000, 17:32:57.552
197, -4160.12, -4719.26, -4557.96, -3847.08, 0.000, 0.000, 0.000, 17:32:57.552
198, -4017.63, -4549.11, -4391.91, -3676.03, 0.000, 0.000, 0.000, 17:32:57.552
199, -3840.38, -4379.40, -4199.16, -3515.69, 0.000, 0.000, 0.000, 17:32:57.568
200, -3979.44, -4557.20, -4382.47, -3704.98, 0.000, 0.000, 0.000, 17:32:57.568
0, -4161.24, -4730.49, -4549.85, -3842.56, 0.000, 0.000, 0.000, 17:32:57.568
1, -4025.50, -4553.10, -4390.23, -3685.68, 0.000, 0.000, 0.000, 17:32:57.596
2, -3842.31, -4375.59, -4207.84, -3519.27, 0.000, 0.000, 0.000, 17:32:57.596
3, -3990.11, -4560.36, -4387.83, -3697.83, 0.000, 0.000, 0.000, 17:32:57.597
4, -4158.60, -4717.52, -4546.92, -3845.97, 0.000, 0.000, 0.000, 17:32:57.597
5, -4012.19, -4551.04, -4386.12, -3676.54, 0.000, 0.000, 0.000, 17:32:57.598
6, -3848.04, -4382.21, -4224.41, -3521.91, 0.000, 0.000, 0.000, 17:32:57.598
7, -3989.92, -4553.80, -4392.00, -3694.29, 0.000, 0.000, 0.000, 17:32:57.626
8, -4149.74, -4719.21, -4549.40, -3840.30, 0.000, 0.000, 0.000, 17:32:57.627
9, -4005.58, -4544.21, -4383.91, -3680.65, 0.000, 0.000, 0.000, 17:32:57.627
10, -3858.31, -4400.86, -4237.18, -3540.24, 0.000, 0.000, 0.000, 17:32:57.627
11, -4000.75, -4564.74, -4400.11, -3708.21, 0.000, 0.000, 0.000, 17:32:57.628
12, -4150.64, -4706.30, -4531.00, -3841.22, 0.000, 0.000, 0.000, 17:32:57.628
13, -4000.75, -4545.84, -4380.68, -3673.22, 0.000, 0.000, 0.000, 17:32:57.642
14, -3840.77, -4383.13, -4218.98, -3521.54, 0.000, 0.000, 0.000, 17:32:57.642
15, -3982.94, -4557.07, -4393.26, -3709.07, 0.000, 0.000, 0.000, 17:32:57.671
16, -4149.63, -4712.73, -4542.80, -3843.73, 0.000, 0.000, 0.000, 17:32:57.672
17, -3992.64, -4536.47, -4366.11, -3667.44, 0.000, 0.000, 0.000, 17:32:57.672
18, -3846.72, -4376.94, -4214.59, -3529.66, 0.000, 0.000, 0.000, 17:32:57.672
19, -4004.44, -4574.63, -4421.60, -3710.18, 0.000, 0.000, 0.000, 17:32:57.673
20, -4157.60, -4718.97, -4537.07, -3846.21, 0.000, 0.000, 0.000, 17:32:57.673
21, -4013.38, -4549.88, -4374.88, -3668.44, 0.000, 0.000, 0.000, 17:32:57.687
22, -3844.30, -4380.43, -4219.42, -3520.25, 0.000, 0.000, 0.000, 17:32:57.687
23, -4008.75, -4566.56, -4411.97, -3713.66, 0.000, 0.000, 0.000, 17:32:57.702
24, -4163.10, -4726.71, -4546.59, -3850.05, 0.000, 0.000, 0.000, 17:32:57.702
25, -4016.98, -4549.01, -4377.51, -3673.76, 0.000, 0.000, 0.000, 17:32:57.702
26, -3845.69, -4375.31, -4220.82, -3516.81, 0.000, 0.000, 0.000, 17:32:57.702
27, -4021.04, -4593.16, -4414.59, -3722.76, 0.000, 0.000, 0.000, 17:32:57.717
28, -4162.04, -4712.91, -4540.10, -3846.88, 0.000, 0.000, 0.000, 17:32:57.717
29, -4012.34, -4554.46, -4383.50, -3674.74, 0.000, 0.000, 0.000, 17:32:57.717
30, -3850.28, -4395.24, -4246.48, -3530.59, 0.000, 0.000, 0.000, 17:32:57.718
31, -3993.19, -4556.42, -4412.14, -3715.28, 0.000, 0.000, 0.000, 17:32:57.747
32, -4165.50, -4728.17, -4541.87, -3856.65, 0.000, 0.000, 0.000, 17:32:57.747
33, -4004.82, -4540.20, -4378.51, -3673.83, 0.000, 0.000, 0.000, 17:32:57.748
34, -3848.57, -4386.12, -4219.53, -3531.29, 0.000, 0.000, 0.000, 17:32:57.748
35, -4006.09, -4578.39, -4414.10, -3714.95, 0.000, 0.000, 0.000, 17:32:57.755
36, -4163.71, -4730.87, -4559.12, -3842.46, 0.000, 0.000, 0.000, 17:32:57.755
37, -4008.15, -4533.98, -4381.26, -3672.08, 0.000, 0.000, 0.000, 17:32:57.762
38, -3846.12, -4372.93, -4216.09, -3519.24, 0.000, 0.000, 0.000, 17:32:57.762
39, -3996.30, -4551.54, -4397.14, -3715.84, 0.000, 0.000, 0.000, 17:32:57.776
40, -4147.23, -4696.44, -4543.45, -3842.13, 0.000, 0.000, 0.000, 17:32:57.776
41, -4000.14, -4530.98, -4371.28, -3665.83, 0.000, 0.000, 0.000, 17:32:57.777
42, -3854.10, -4378.52, -4215.86, -3520.41, 0.000, 0.000, 0.000, 17:32:57.777
43, -4019.97, -4596.36, -4426.24, -3728.88, 0.000, 0.000, 0.000, 17:32:57.791
44, -4169.58, -4724.53, -4557.80, -3851.73, 0.000, 0.000, 0.000, 17:32:57.791
45, -3991.43, -4524.94, -4368.19, -3661.22, 0.000, 0.000, 0.000, 17:32:57.806
46, -3850.85, -4403.29, -4216.98, -3516.10, 0.000, 0.000, 0.000, 17:32:57.806
47, -4029.02, -4602.56, -4438.67, -3737.67, 0.000, 0.000, 0.000, 17:32:57.807
48, -4159.58, -4710.89, -4559.40, -3841.40, 0.000, 0.000, 0.000, 17:32:57.807
49, -3992.29, -4520.88, -4366.93, -3662.72, 0.000, 0.000, 0.000, 17:32:57.821
50, -3833.31, -4364.06, -4201.98, -3511.35, 0.000, 0.000, 0.000, 17:32:57.822
51, -4001.35, -4575.09, -4404.79, -3723.43, 0.000, 0.000, 0.000, 17:32:57.837
52, -4158.03, -4718.80, -4530.80, -3845.39, 0.000, 0.000, 0.000, 17:32:57.838
53, -4001.04, -4552.89, -4378.26, -3666.79, 0.000, 0.000, 0.000, 17:32:57.838
54, -3847.77, -4391.82, -4217.28, -3517.03, 0.000, 0.000, 0.000, 17:32:57.838
55, -4013.44, -4574.00, -4410.33, -3717.39, 0.000, 0.000, 0.000, 17:32:57.851
56, -4151.63, -4719.57, -4539.67, -3843.77, 0.000, 0.000, 0.000, 17:32:57.851
57, -4000.05, -4539.78, -4370.05, -3675.97, 0.000, 0.000, 0.000, 17:32:57.866
58, -3847.78, -4390.36, -4220.31, -3523.56, 0.000, 0.000, 0.000, 17:32:57.866
59, -4015.82, -4584.62, -4431.48, -3730.58, 0.000, 0.000, 0.000, 17:32:57.867
60, -4166.76, -4735.15, -4549.76, -3860.49, 0.000, 0.000, 0.000, 17:32:57.867
61, -4006.27, -4534.86, -4382.89, -3665.20, 0.000, 0.000, 0.000, 17:32:57.882
62, -3842.09, -4376.93, -4226.85, -3503.64, 0.000, 0.000, 0.000, 17:32:57.882
63, -4034.51, -4590.33, -4434.32, -3723.75, 0.000, 0.000, 0.000, 17:32:57.911
64, -4165.77, -4724.60, -4551.78, -3840.80, 0.000, 0.000, 0.000, 17:32:57.911
65, -4003.72, -4541.86, -4379.78, -3665.20, 0.000, 0.000, 0.000, 17:32:57.912
66, -3845.03, -4375.82, -4223.22, -3516.63, 0.000, 0.000, 0.000, 17:32:57.912
67, -4017.29, -4581.34, -4427.91, -3733.27, 0.000, 0.000, 0.000, 17:32:57.912
68, -4145.69, -4702.13, -4547.79, -3835.26, 0.000, 0.000, 0.000, 17:32:57.912
69, -3994.43, -4556.49, -4392.35, -3666.64, 0.000, 0.000, 0.000, 17:32:57.926
70, -3843.14, -4373.69, -4226.11, -3525.18, 0.000, 0.000, 0.000, 17:32:57.926
71, -4023.48, -4595.44, -4431.87, -3740.75, 0.000, 0.000, 0.000, 17:32:57.926
72, -4158.68, -4723.50, -4548.92, -3841.98, 0.000, 0.000, 0.000, 17:32:57.927
73, -4005.33, -4545.06, -4378.07, -3666.58, 0.000, 0.000, 0.000, 17:32:57.942
74, -3851.22, -4380.22, -4222.80, -3528.87, 0.000, 0.000, 0.000, 17:32:57.942
75, -4027.82, -4582.36, -4441.87, -3736.17, 0.000, 0.000, 0.000, 17:32:57.957
76, -4157.93, -4717.65, -4553.51, -3836.22, 0.000, 0.000, 0.000, 17:32:57.957
77, -4009.41, -4553.43, -4387.03, -3669.75, 0.000, 0.000, 0.000, 17:32:57.957
78, -3841.32, -4369.74, -4208.43, -3508.82, 0.000, 0.000, 0.000, 17:32:57.957
79, -4019.24, -4589.86, -4421.66, -3727.19, 0.000, 0.000, 0.000, 17:32:57.987
80, -4160.56, -4712.12, -4548.50, -3832.22, 0.000, 0.000, 0.000, 17:32:57.987
81, -3999.66, -4534.74, -4374.77, -3646.02, 0.000, 0.000, 0.000, 17:32:57.987
82, -3848.16, -4382.67, -4223.72, -3518.08, 0.000, 0.000, 0.000, 17:32:57.987
83, -4032.27, -4601.27, -4433.17, -3737.32, 0.000, 0.000, 0.000, 17:32:57.988
84, -4162.08, -4718.01, -4553.07, -3845.92, 0.000, 0.000, 0.000, 17:32:57.988
85, -4009.17, -4538.52, -4380.98, -3667.70, 0.000, 0.000, 0.000, 17:32:58.001
86, -3848.02, -4392.68, -4219.92, -3516.53, 0.000, 0.000, 0.000, 17:32:58.002
87, -4023.95, -4592.29, -4428.25, -3731.94, 0.000, 0.000, 0.000, 17:32:58.017
88, -4157.74, -4711.48, -4543.20, -3844.06, 0.000, 0.000, 0.000, 17:32:58.017
89, -4002.02, -4534.51, -4374.98, -3674.28, 0.000, 0.000, 0.000, 17:32:58.017
90, -3838.57, -4369.43, -4216.30, -3512.96, 0.000, 0.000, 0.000, 17:32:58.017
91, -4036.03, -4604.65, -4440.09, -3744.34, 0.000, 0.000, 0.000, 17:32:58.037
92, -4169.41, -4721.27, -4551.20, -3844.22, 0.000, 0.000, 0.000, 17:32:58.038
93, -3994.56, -4540.89, -4373.70, -3662.95, 0.000, 0.000, 0.000, 17:32:58.047
94, -3833.51, -4376.49, -4210.51, -3511.20, 0.000, 0.000, 0.000, 17:32:58.047
95, -4014.02, -4584.23, -4411.92, -3736.35, 0.000, 0.000, 0.000, 17:32:58.048
96, -4147.67, -4721.87, -4542.00, -3836.13, 0.000, 0.000, 0.000, 17:32:58.048
97, -3985.65, -4532.83, -4358.47, -3645.24, 0.000, 0.000, 0.000, 17:32:58.076
98, -3834.39, -4383.65, -4211.65, -3501.43, 0.000, 0.000, 0.000, 17:32:58.076
99, -4026.11, -4590.15, -4435.95, -3734.76, 0.000, 0.000, 0.000, 17:32:58.077
100, -4145.06, -4703.96, -4528.23, -3819.85, 0.000, 0.000, 0.000, 17:32:58.077
101, -3976.36, -4523.60, -4364.82, -3644.38, 0.000, 0.000, 0.000, 17:32:58.078
102, -3817.92, -4359.13, -4199.99, -3493.39, 0.000, 0.000, 0.000, 17:32:58.078
103, -4012.71, -4577.27, -4421.35, -3720.04, 0.000, 0.000, 0.000, 17:32:58.091
104, -4132.96, -4702.71, -4523.99, -3830.42, 0.000, 0.000, 0.000, 17:32:58.092
105, -3990.04, -4532.32, -4350.78, -3661.49, 0.000, 0.000, 0.000, 17:32:58.106
106, -3832.36, -4377.80, -4214.97, -3516.47, 0.000, 0.000, 0.000, 17:32:58.106
107, -4004.69, -4585.66, -4413.12, -3731.01, 0.000, 0.000, 0.000, 17:32:58.107
108, -4139.59, -4689.31, -4524.07, -3832.40, 0.000, 0.000, 0.000, 17:32:58.107
109, -3977.56, -4504.50, -4343.96, -3644.77, 0.000, 0.000, 0.000, 17:32:58.122
110, -3836.48, -4373.15, -4224.40, -3504.12, 0.000, 0.000, 0.000, 17:32:58.122
111, -4035.38, -4601.09, -4437.63, -3744.60, 0.000, 0.000, 0.000, 17:32:58.151
112, -4148.02, -4700.20, -4543.14, -3832.88, 0.000, 0.000, 0.000, 17:32:58.151
113, -3981.02, -4513.52, -4341.00, -3655.85, 0.000, 0.000, 0.000, 17:32:58.152
114, -3839.07, -4368.86, -4211.24, -3504.84, 0.000, 0.000, 0.000, 17:32:58.153
115, -4025.91, -4589.03, -4436.90, -3740.40, 0.000, 0.000, 0.000, 17:32:58.153
116, -4139.55, -4705.53, -4529.79, -3817.47, 0.000, 0.000, 0.000, 17:32:58.153
117, -3984.52, -4520.29, -4360.11, -3646.08, 0.000, 0.000, 0.000, 17:32:58.182
118, -3824.73, -4346.29, -4196.42, -3500.66, 0.000, 0.000, 0.000, 17:32:58.182
119, -4013.74, -4582.56, -4418.66, -3725.07, 0.000, 0.000, 0.000, 17:32:58.183
120, -4134.06, -4705.82, -4524.43, -3817.70, 0.000, 0.000, 0.000, 17:32:58.183
121, -3989.44, -4524.42, -4349.44, -3653.06, 0.000, 0.000, 0.000, 17:32:58.183
122, -3832.75, -4361.75, -4197.61, -3502.22, 0.000, 0.000, 0.000, 17:32:58.183
123, -4032.74, -4599.57, -4427.83, -3736.08, 0.000, 0.000, 0.000, 17:32:58.197
124, -4143.02, -4700.56, -4513.04, -3825.64, 0.000, 0.000, 0.000, 17:32:58.197
125, -3980.26, -4508.01, -4349.36, -3648.51, 0.000, 0.000, 0.000, 17:32:58.197
126, -3843.40, -4380.66, -4219.11, -3517.03, 0.000, 0.000, 0.000, 17:32:58.197
127, -4049.68, -4617.32, -4458.39, -3749.20, 0.000, 0.000, 0.000, 17:32:58.226
128, -4147.97, -4691.61, -4523.68, -3822.62, 0.000, 0.000, 0.000, 17:32:58.226
129, -3975.42, -4503.85, -4349.26, -3635.64, 0.000, 0.000, 0.000, 17:32:58.227
130, -3840.40, -4365.38, -4215.25, -3500.53, 0.000, 0.000, 0.000, 17:32:58.227
131, -4046.30, -4612.76, -4450.14, -3747.89, 0.000, 0.000, 0.000, 17:32:58.228
132, -4140.51, -4697.92, -4523.36, -3821.82, 0.000, 0.000, 0.000, 17:32:58.228
133, -3980.91, -4519.14, -4360.33, -3647.54, 0.000, 0.000, 0.000, 17:32:58.241
134, -3832.89, -4378.93, -4210.19, -3511.39, 0.000, 0.000, 0.000, 17:32:58.241
135, -4043.97, -4619.16, -4460.54, -3751.54, 0.000, 0.000, 0.000, 17:32:58.256
136, -4145.40, -4690.59, -4538.56, -3830.34, 0.000, 0.000, 0.000, 17:32:58.256
137, -3972.64, -4507.61, -4346.08, -3647.20, 0.000, 0.000, 0.000, 17:32:58.256
138, -3827.79, -4356.51, -4210.58, -3498.56, 0.000, 0.000, 0.000, 17:32:58.257
139, -4029.05, -4601.21, -4435.18, -3743.78, 0.000, 0.000, 0.000, 17:32:58.271
140, -4130.42, -4693.99, -4512.95, -3823.54, 0.000, 0.000, 0.000, 17:32:58.271
141, -3989.25, -4526.04, -4362.49, -3651.74, 0.000, 0.000, 0.000, 17:32:58.317
142, -3843.27, -4384.15, -4226.66, -3523.20, 0.000, 0.000, 0.000, 17:32:58.317
143, -4046.99, -4618.09, -4452.06, -3755.54, 0.000, 0.000, 0.000, 17:32:58.317
144, -4132.45, -4683.48, -4529.73, -3809.19, 0.000, 0.000, 0.000, 17:32:58.317
145, -3967.75, -4518.86, -4345.60, -3645.01, 0.000, 0.000, 0.000, 17:32:58.318
146, -3827.22, -4370.62, -4203.03, -3499.93, 0.000, 0.000, 0.000, 17:32:58.318
147, -4037.04, -4607.49, -4453.21, -3751.66, 0.000, 0.000, 0.000, 17:32:58.332
148, -4143.87, -4700.46, -4535.71, -3825.27, 0.000, 0.000, 0.000, 17:32:58.332
149, -3981.02, -4530.42, -4363.06, -3644.85, 0.000, 0.000, 0.000, 17:32:58.333
150, -3852.65, -4398.66, -4234.66, -3530.73, 0.000, 0.000, 0.000, 17:32:58.333
151, -4051.18, -4620.95, -4464.17, -3770.83, 0.000, 0.000, 0.000, 17:32:58.346
152, -4138.18, -4713.95, -4526.66, -3826.85, 0.000, 0.000, 0.000, 17:32:58.347
153, -3962.19, -4494.04, -4338.24, -3628.75, 0.000, 0.000, 0.000, 17:32:58.347
154, -3822.82, -4360.33, -4197.93, -3498.55, 0.000, 0.000, 0.000, 17:32:58.347
155, -4031.06, -4588.80, -4431.30, -3749.48, 0.000, 0.000, 0.000, 17:32:58.348
156, -4131.99, -4695.56, -4514.54, -3813.91, 0.000, 0.000, 0.000, 17:32:58.348
157, -3978.28, -4514.98, -4349.44, -3638.44, 0.000, 0.000, 0.000, 17:32:58.361
158, -3835.96, -4366.22, -4216.46, -3513.72, 0.000, 0.000, 0.000, 17:32:58.361
159, -4045.97, -4617.55, -4452.33, -3763.02, 0.000, 0.000, 0.000, 17:32:58.391
160, -4131.31, -4682.00, -4515.88, -3818.42, 0.000, 0.000, 0.000, 17:32:58.391
161, -3974.37, -4512.70, -4345.62, -3643.64, 0.000, 0.000, 0.000, 17:32:58.392
162, -3835.41, -4368.26, -4209.29, -3510.52, 0.000, 0.000, 0.000, 17:32:58.392
163, -4044.84, -4616.29, -4457.61, -3762.59, 0.000, 0.000, 0.000, 17:32:58.393
164, -4142.57, -4702.55, -4517.52, -3823.80, 0.000, 0.000, 0.000, 17:32:58.393
165, -3979.89, -4524.47, -4346.94, -3645.79, 0.000, 0.000, 0.000, 17:32:58.421
166, -3833.77, -4373.25, -4210.70, -3513.07, 0.000, 0.000, 0.000, 17:32:58.422
167, -4049.90, -4614.69, -4459.11, -3764.69, 0.000, 0.000, 0.000, 17:32:58.422
168, -4133.16, -4687.73, -4519.17, -3818.25, 0.000, 0.000, 0.000, 17:32:58.422
169, -3977.24, -4502.95, -4336.04, -3636.78, 0.000, 0.000, 0.000, 17:32:58.429
170, -3825.01, -4366.77, -4198.09, -3508.69, 0.000, 0.000, 0.000, 17:32:58.430
171, -4048.70, -4622.21, -4434.90, -3764.35, 0.000, 0.000, 0.000, 17:32:58.437
172, -4137.50, -4694.27, -4527.01, -3819.21, 0.000, 0.000, 0.000, 17:32:58.437
173, -3974.00, -4521.05, -4337.92, -3643.65, 0.000, 0.000, 0.000, 17:32:58.437
174, -3845.12, -4383.41, -4212.31, -3514.47, 0.000, 0.000, 0.000, 17:32:58.438
175, -4039.51, -4617.24, -4458.35, -3755.58, 0.000, 0.000, 0.000, 17:32:58.451
176, -4142.71, -4696.67, -4537.59, -3817.96, 0.000, 0.000, 0.000, 17:32:58.451
177, -3983.95, -4516.14, -4353.33, -3639.42, 0.000, 0.000, 0.000, 17:32:58.467
178, -3836.92, -4371.36, -4214.30, -3516.94, 0.000, 0.000, 0.000, 17:32:58.467
179, -4056.46, -4622.38, -4461.65, -3765.49, 0.000, 0.000, 0.000, 17:32:58.468
180, -4159.52, -4704.21, -4542.73, -3828.53, 0.000, 0.000, 0.000, 17:32:58.468
181, -4003.15, -4517.15, -4366.72, -3654.57, 0.000, 0.000, 0.000, 17:32:58.482
182, -3844.65, -4374.62, -4214.37, -3515.07, 0.000, 0.000, 0.000, 17:32:58.482
183, -4063.36, -4645.83, -4472.60, -3776.92, 0.000, 0.000, 0.000, 17:32:58.497
184, -4142.61, -4716.29, -4532.50, -3823.91, 0.000, 0.000, 0.000, 17:32:58.497
185, -3980.32, -4499.22, -4351.64, -3636.88, 0.000, 0.000, 0.000, 17:32:58.498
186, -3854.73, -4367.54, -4234.27, -3517.53, 0.000, 0.000, 0.000, 17:32:58.498
187, -4074.48, -4638.86, -4474.17, -3773.23, 0.000, 0.000, 0.000, 17:32:58.512
188, -4140.57, -4691.13, -4519.19, -3822.24, 0.000, 0.000, 0.000, 17:32:58.512
189, -3980.71, -4520.38, -4345.84, -3640.91, 0.000, 0.000, 0.000, 17:32:58.542
190, -3842.69, -4380.03, -4211.77, -3506.51, 0.000, 0.000, 0.000, 17:32:58.542
191, -4050.26, -4627.75, -4463.65, -3764.57, 0.000, 0.000, 0.000, 17:32:58.556
192, -4131.57, -4690.80, -4512.07, -3820.80, 0.000, 0.000, 0.000, 17:32:58.556
193, -3977.33, -4522.79, -4357.02, -3653.09, 0.000, 0.000, 0.000, 17:32:58.557
194, -3835.41, -4380.74, -4213.11, -3515.58, 0.000, 0.000, 0.000, 17:32:58.557
195, -4059.52, -4650.15, -4462.55, -3774.57, 0.000, 0.000, 0.000, 17:32:58.557
196, -4135.17, -4693.71, -4516.77, -3811.09, 0.000, 0.000, 0.000, 17:32:58.558
197, -3980.67, -4526.04, -4347.53, -3643.89, 0.000, 0.000, 0.000, 17:32:58.558
198, -3846.93, -4380.63, -4223.30, -3524.04, 0.000, 0.000, 0.000, 17:32:58.558
199, -4051.30, -4615.35, -4455.16, -3762.54, 0.000, 0.000, 0.000, 17:32:58.571
200, -4128.83, -4678.31, -4516.56, -3804.29, 0.000, 0.000, 0.000, 17:32:58.572
0, -3975.58, -4518.60, -4342.08, -3638.50, 0.000, 0.000, 0.000, 17:32:58.572
1, -3834.11, -4368.49, -4209.82, -3508.84, 0.000, 0.000, 0.000, 17:32:58.602
2, -4072.83, -4641.19, -4466.13, -3783.14, 0.000, 0.000, 0.000, 17:32:58.602
3, -4146.92, -4687.97, -4509.21, -3818.99, 0.000, 0.000, 0.000, 17:32:58.602
4, -3977.14, -4511.44, -4336.55, -3635.96, 0.000, 0.000, 0.000, 17:32:58.602
5, -3836.21, -4367.40, -4199.59, -3500.33, 0.000, 0.000, 0.000, 17:32:58.618
6, -4059.25, -4628.38, -4451.39, -3768.22, 0.000, 0.000, 0.000, 17:32:58.618
7, -4136.83, -4690.83, -4522.98, -3803.26, 0.000, 0.000, 0.000, 17:32:58.618
8, -3968.11, -4505.27, -4343.81, -3638.97, 0.000, 0.000, 0.000, 17:32:58.619
9, -3822.10, -4361.41, -4213.56, -3506.91, 0.000, 0.000, 0.000, 17:32:58.631
10, -4054.77, -4627.67, -4452.88, -3771.22, 0.000, 0.000, 0.000, 17:32:58.631
11, -4135.58, -4689.79, -4517.89, -3808.58, 0.000, 0.000, 0.000, 17:32:58.647
12, -3977.08, -4508.42, -4349.02, -3635.31, 0.000, 0.000, 0.000, 17:32:58.647
13, -3829.63, -4359.01, -4206.70, -3508.45, 0.000, 0.000, 0.000, 17:32:58.647
14, -4067.69, -4627.08, -4480.76, -3782.56, 0.000, 0.000, 0.000, 17:32:58.647
15, -4133.18, -4679.58, -4520.36, -3809.62, 0.000, 0.000, 0.000, 17:32:58.661
16, -3974.42, -4500.40, -4342.51, -3637.78, 0.000, 0.000, 0.000, 17:32:58.661
17, -3833.22, -4366.18, -4210.45, -3506.76, 0.000, 0.000, 0.000, 17:32:58.662
18, -4066.92, -4639.28, -4467.82, -3771.21, 0.000, 0.000, 0.000, 17:32:58.662
19, -4137.08, -4690.50, -4518.39, -3804.66, 0.000, 0.000, 0.000, 17:32:58.677
20, -3978.28, -4513.01, -4345.08, -3634.90, 0.000, 0.000, 0.000, 17:32:58.677
21, -3837.56, -4365.14, -4213.63, -3514.00, 0.000, 0.000, 0.000, 17:32:58.691
22, -4077.76, -4636.94, -4475.74, -3780.47, 0.000, 0.000, 0.000, 17:32:58.691
23, -4142.48, -4698.50, -4519.85, -3817.03, 0.000, 0.000, 0.000, 17:32:58.691
24, -3970.14, -4508.02, -4341.80, -3632.92, 0.000, 0.000, 0.000, 17:32:58.692
25, -3834.90, -4367.52, -4207.95, -3507.09, 0.000, 0.000, 0.000, 17:32:58.706
26, -4064.02, -4632.89, -4466.99, -3786.45, 0.000, 0.000, 0.000, 17:32:58.706
27, -4136.95, -4687.71, -4521.27, -3816.28, 0.000, 0.000, 0.000, 17:32:58.721
28, -3977.08, -4519.67, -4342.03, -3638.31, 0.000, 0.000, 0.000, 17:32:58.721
29, -3838.34, -4375.52, -4211.59, -3510.14, 0.000, 0.000, 0.000, 17:32:58.722
30, -4071.22, -4643.20, -4482.55, -3793.03, 0.000, 0.000, 0.000, 17:32:58.722
31, -4138.93, -4691.17, -4524.50, -3816.59, 0.000, 0.000, 0.000, 17:32:58.736
32, -3965.35, -4512.66, -4321.83, -3630.41, 0.000, 0.000, 0.000, 17:32:58.736
33, -3834.47, -4374.69, -4210.91, -3513.63, 0.000, 0.000, 0.000, 17:32:58.767
34, -4062.63, -4637.20, -4475.43, -3780.85, 0.000, 0.000, 0.000, 17:32:58.767
35, -4126.34, -4685.79, -4518.95, -3812.34, 0.000, 0.000, 0.000, 17:32:58.767
36, -3968.61, -4492.71, -4331.81, -3636.19, 0.000, 0.000, 0.000, 17:32:58.767
37, -3837.52, -4376.71, -4219.76, -3529.22, 0.000, 0.000, 0.000, 17:32:58.768
38, -4080.78, -4648.63, -4499.05, -3793.06, 0.000, 0.000, 0.000, 17:32:58.768
39, -4140.29, -4685.49, -4526.74, -3809.59, 0.000, 0.000, 0.000, 17:32:58.781
40, -3970.65, -4510.48, -4332.32, -3640.03, 0.000, 0.000, 0.000, 17:32:58.781
41, -3834.78, -4367.32, -4219.11, -3507.98, 0.000, 0.000, 0.000, 17:32:58.782
42, -4074.32, -4645.55, -4492.24, -3782.56, 0.000, 0.000, 0.000, 17:32:58.782
43, -4134.27, -4692.66, -4523.36, -3813.77, 0.000, 0.000, 0.000, 17:32:58.797
44, -3975.80, -4512.79, -4341.12, -3633.92, 0.000, 0.000, 0.000, 17:32:58.798
45, -3838.46, -4376.13, -4217.57, -3515.93, 0.000, 0.000, 0.000, 17:32:58.812
46, -4088.45, -4669.69, -4491.22, -3790.96, 0.000, 0.000, 0.000, 17:32:58.812
47, -4145.47, -4699.31, -4522.05, -3815.40, 0.000, 0.000, 0.000, 17:32:58.812
48, -3964.35, -4491.60, -4331.27, -3631.07, 0.000, 0.000, 0.000, 17:32:58.812
49, -3835.75, -4363.90, -4221.80, -3515.11, 0.000, 0.000, 0.000, 17:32:58.826
50, -4075.06, -4667.09, -4486.59, -3794.48, 0.000, 0.000, 0.000, 17:32:58.827
51, -4127.83, -4694.29, -4514.71, -3806.49, 0.000, 0.000, 0.000, 17:32:58.857
52, -3960.69, -4508.49, -4342.21, -3624.74, 0.000, 0.000, 0.000, 17:32:58.857
53, -3831.32, -4354.75, -4211.98, -3510.15, 0.000, 0.000, 0.000, 17:32:58.871
54, -4075.54, -4645.66, -4480.61, -3795.51, 0.000, 0.000, 0.000, 17:32:58.871
55, -4134.48, -4685.39, -4518.79, -3805.46, 0.000, 0.000, 0.000, 17:32:58.872
56, -3981.51, -4541.09, -4362.49, -3645.39, 0.000, 0.000, 0.000, 17:32:58.872
57, -3837.77, -4381.20, -4219.95, -3531.30, 0.000, 0.000, 0.000, 17:32:58.872
58, -4067.78, -4638.46, -4467.00, -3795.05, 0.000, 0.000, 0.000, 17:32:58.872
59, -4115.47, -4682.04, -4513.79, -3799.55, 0.000, 0.000, 0.000, 17:32:58.873
60, -3951.94, -4493.96, -4333.43, -3628.86, 0.000, 0.000, 0.000, 17:32:58.873
61, -3826.28, -4362.04, -4214.92, -3504.04, 0.000, 0.000, 0.000, 17:32:58.886
62, -4069.78, -4644.84, -4477.37, -3786.10, 0.000, 0.000, 0.000, 17:32:58.886
63, -4127.18, -4692.05, -4512.40, -3811.08, 0.000, 0.000, 0.000, 17:32:58.902
64, -3965.32, -4509.89, -4347.49, -3638.25, 0.000, 0.000, 0.000, 17:32:58.902
65, -3842.35, -4381.69, -4215.71, -3520.57, 0.000, 0.000, 0.000, 17:32:58.903
66, -4086.16, -4663.35, -4501.51, -3806.43, 0.000, 0.000, 0.000, 17:32:58.903
67, -4137.73, -4677.79, -4518.11, -3814.80, 0.000, 0.000, 0.000, 17:32:58.923
68, -3975.94, -4493.06, -4341.42, -3635.70, 0.000, 0.000, 0.000, 17:32:58.923
69, -3844.39, -4377.01, -4219.73, -3521.10, 0.000, 0.000, 0.000, 17:32:58.932
70, -4085.67, -4667.43, -4495.26, -3808.44, 0.000, 0.000, 0.000, 17:32:58.932
71, -4123.18, -4682.81, -4501.68, -3803.64, 0.000, 0.000, 0.000, 17:32:58.932
72, -3956.22, -4504.21, -4336.37, -3630.08, 0.000, 0.000, 0.000, 17:32:58.932
73, -3833.10, -4377.98, -4218.67, -3523.69, 0.000, 0.000, 0.000, 17:32:58.961
74, -4089.38, -4667.88, -4490.96, -3812.48, 0.000, 0.000, 0.000, 17:32:58.962
75, -4134.77, -4688.18, -4512.52, -3817.81, 0.000, 0.000, 0.000, 17:32:58.962
76, -3955.45, -4486.54, -4332.00, -3630.86, 0.000, 0.000, 0.000, 17:32:58.962
77, -3825.25, -4368.98, -4209.63, -3513.31, 0.000, 0.000, 0.000, 17:32:58.963
78, -4072.08, -4653.30, -4491.40, -3795.15, 0.000, 0.000, 0.000, 17:32:58.963
79, -4119.03, -4667.41, -4499.31, -3805.72, 0.000, 0.000, 0.000, 17:32:58.977
80, -3967.75, -4492.73, -4330.74, -3625.53, 0.000, 0.000, 0.000, 17:32:58.977
81, -3826.63, -4369.59, -4212.25, -3513.14, 0.000, 0.000, 0.000, 17:32:58.991
82, -4081.12, -4655.66, -4500.21, -3796.41, 0.000, 0.000, 0.000, 17:32:58.991
83, -4128.30, -4675.53, -4515.77, -3805.93, 0.000, 0.000, 0.000, 17:32:58.992
84, -3958.25, -4504.86, -4327.37, -3630.75, 0.000, 0.000, 0.000, 17:32:58.992
85, -3841.01, -4368.06, -4228.77, -3508.37, 0.000, 0.000, 0.000, 17:32:59.006
86, -4086.74, -4659.03, -4489.01, -3796.38, 0.000, 0.000, 0.000, 17:32:59.006
87, -4123.99, -4673.97, -4508.86, -3809.17, 0.000, 0.000, 0.000, 17:32:59.021
88, -3950.41, -4496.31, -4337.06, -3623.29, 0.000, 0.000, 0.000, 17:32:59.021
89, -3820.66, -4371.80, -4214.24, -3513.71, 0.000, 0.000, 0.000, 17:32:59.022
90, -4085.93, -4661.72, -4487.51, -3798.01, 0.000, 0.000, 0.000, 17:32:59.022
91, -4128.61, -4687.67, -4511.89, -3803.32, 0.000, 0.000, 0.000, 17:32:59.036
92, -3967.27, -4500.25, -4342.81, -3622.82, 0.000, 0.000, 0.000, 17:32:59.036
93, -3839.68, -4390.11, -4234.70, -3515.82, 0.000, 0.000, 0.000, 17:32:59.051
94, -4102.49, -4687.88, -4507.79, -3820.82, 0.000, 0.000, 0.000, 17:32:59.051
95, -4123.94, -4690.97, -4515.09, -3799.58, 0.000, 0.000, 0.000, 17:32:59.052
96, -3947.68, -4503.72, -4339.68, -3617.84, 0.000, 0.000, 0.000, 17:32:59.052
97, -3837.55, -4389.23, -4219.42, -3523.05, 0.000, 0.000, 0.000, 17:32:59.067
98, -4093.83, -4678.92, -4498.49, -3809.12, 0.000, 0.000, 0.000, 17:32:59.067
99, -4110.95, -4670.16, -4490.70, -3791.83, 0.000, 0.000, 0.000, 17:32:59.082
100, -3942.68, -4481.12, -4315.06, -3620.29, 0.000, 0.000, 0.000, 17:32:59.082
101, -3822.31, -4360.76, -4201.83, -3501.67, 0.000, 0.000, 0.000, 17:32:59.083
102, -4080.41, -4655.20, -4479.87, -3798.00, 0.000, 0.000, 0.000, 17:32:59.083
103, -4116.21, -4675.01, -4494.37, -3793.40, 0.000, 0.000, 0.000, 17:32:59.111
104, -3961.80, -4496.61, -4341.44, -3623.36, 0.000, 0.000, 0.000, 17:32:59.112
105, -3837.30, -4379.22, -4202.31, -3506.79, 0.000, 0.000, 0.000, 17:32:59.112
106, -4084.94, -4670.45, -4492.83, -3804.27, 0.000, 0.000, 0.000, 17:32:59.112
107, -4112.92, -4669.29, -4520.98, -3797.07, 0.000, 0.000, 0.000, 17:32:59.113
108, -3944.15, -4479.61, -4325.27, -3619.33, 0.000, 0.000, 0.000, 17:32:59.113
109, -3843.19, -4366.68, -4212.02, -3523.91, 0.000, 0.000, 0.000, 17:32:59.126
110, -4076.54, -4657.43, -4485.02, -3788.02, 0.000, 0.000, 0.000, 17:32:59.126
111, -4120.19, -4677.89, -4510.42, -3796.23, 0.000, 0.000, 0.000, 17:32:59.141
112, -3970.17, -4501.71, -4338.49, -3615.39, 0.000, 0.000, 0.000, 17:32:59.141
113, -3834.33, -4369.66, -4212.99, -3510.08, 0.000, 0.000, 0.000, 17:32:59.142
114, -4089.22, -4649.58, -4495.57, -3790.61, 0.000, 0.000, 0.000, 17:32:59.142
115, -4122.46, -4678.52, -4504.20, -3788.30, 0.000, 0.000, 0.000, 17:32:59.156
116, -3964.65, -4505.05, -4325.73, -3624.68, 0.000, 0.000, 0.000, 17:32:59.156
117, -3829.98, -4375.10, -4223.25, -3514.66, 0.000, 0.000, 0.000, 17:32:59.171
118, -4093.18, -4662.08, -4500.20, -3801.88, 0.000, 0.000, 0.000, 17:32:59.171
119, -4131.59, -4677.69, -4514.08, -3790.19, 0.000, 0.000, 0.000, 17:32:59.172
120, -3953.60, -4498.37, -4333.50, -3614.73, 0.000, 0.000, 0.000, 17:32:59.172
121, -3846.27, -4379.49, -4225.09, -3514.35, 0.000, 0.000, 0.000, 17:32:59.187
122, -4105.42, -4680.39, -4501.76, -3819.75, 0.000, 0.000, 0.000, 17:32:59.187
123, -4119.76, -4682.41, -4506.07, -3798.79, 0.000, 0.000, 0.000, 17:32:59.201
124, -3945.79, -4497.91, -4331.51, -3614.15, 0.000, 0.000, 0.000, 17:32:59.202
125, -3847.18, -4385.76, -4221.18, -3520.56, 0.000, 0.000, 0.000, 17:32:59.217
126, -4110.89, -4681.77, -4524.10, -3812.61, 0.000, 0.000, 0.000, 17:32:59.217
127, -4133.22, -4685.44, -4522.71, -3806.78, 0.000, 0.000, 0.000, 17:32:59.217
128, -3960.30, -4498.37, -4319.78, -3619.54, 0.000, 0.000, 0.000, 17:32:59.217
129, -3837.91, -4393.48, -4227.74, -3520.12, 0.000, 0.000, 0.000, 17:32:59.232
130, -4110.80, -4681.51, -4525.93, -3820.22, 0.000, 0.000, 0.000, 17:32:59.232
131, -4115.91, -4672.20, -4495.39, -3792.50, 0.000, 0.000, 0.000, 17:32:59.233
132, -3947.27, -4478.95, -4326.27, -3611.12, 0.000, 0.000, 0.000, 17:32:59.233
133, -3831.43, -4356.30, -4222.09, -3518.53, 0.000, 0.000, 0.000, 17:32:59.246
134, -4110.08, -4694.98, -4512.48, -3823.20, 0.000, 0.000, 0.000, 17:32:59.246
135, -4128.25, -4687.60, -4505.95, -3800.36, 0.000, 0.000, 0.000, 17:32:59.261
136, -3937.96, -4494.08, -4318.33, -3608.40, 0.000, 0.000, 0.000, 17:32:59.261
137, -3835.07, -4377.91, -4219.96, -3519.46, 0.000, 0.000, 0.000, 17:32:59.261
138, -4109.61, -4696.83, -4519.48, -3830.50, 0.000, 0.000, 0.000, 17:32:59.262
139, -4110.79, -4663.71, -4498.59, -3793.88, 0.000, 0.000, 0.000, 17:32:59.276
140, -3944.95, -4475.63, -4315.00, -3612.92, 0.000, 0.000, 0.000, 17:32:59.276
141, -3838.25, -4386.58, -4198.53, -3523.06, 0.000, 0.000, 0.000, 17:32:59.291
142, -4114.67, -4689.66, -4511.25, -3825.34, 0.000, 0.000, 0.000, 17:32:59.291
143, -4110.89, -4655.07, -4496.62, -3793.34, 0.000, 0.000, 0.000, 17:32:59.300
144, -3950.84, -4479.73, -4322.47, -3611.99, 0.000, 0.000, 0.000, 17:32:59.300
145, -3829.63, -4381.23, -4210.80, -3521.02, 0.000, 0.000, 0.000, 17:32:59.306
146, -4101.55, -4673.96, -4505.78, -3822.50, 0.000, 0.000, 0.000, 17:32:59.306
147, -4122.36, -4674.01, -4512.30, -3803.17, 0.000, 0.000, 0.000, 17:32:59.322
148, -3967.18, -4508.49, -4334.24, -3632.21, 0.000, 0.000, 0.000, 17:32:59.322
149, -3870.50, -4400.49, -4260.54, -3534.63, 0.000, 0.000, 0.000, 17:32:59.322
150, -4135.08, -4705.87, -4536.58, -3838.07, 0.000, 0.000, 0.000, 17:32:59.322
151, -4128.49, -4677.64, -4502.88, -3801.31, 0.000, 0.000, 0.000, 17:32:59.337
152, -3958.93, -4502.12, -4333.07, -3630.84, 0.000, 0.000, 0.000, 17:32:59.337
153, -3838.87, -4380.77, -4230.21, -3528.03, 0.000, 0.000, 0.000, 17:32:59.352
154, -4085.79, -4668.12, -4488.15, -3808.21, 0.000, 0.000, 0.000, 17:32:59.352
155, -4103.36, -4637.97, -4475.01, -3775.19, 0.000, 0.000, 0.000, 17:32:59.353
156, -3948.68, -4475.71, -4305.40, -3613.37, 0.000, 0.000, 0.000, 17:32:59.353
157, -3837.30, -4380.23, -4188.33, -3515.96, 0.000, 0.000, 0.000, 17:32:59.367
158, -4090.58, -4665.03, -4511.11, -3807.69, 0.000, 0.000, 0.000, 17:32:59.367
159, -4105.58, -4654.01, -4496.53, -3786.25, 0.000, 0.000, 0.000, 17:32:59.382
160, -3946.97, -4484.59, -4322.60, -3611.69, 0.000, 0.000, 0.000, 17:32:59.382
161, -3839.54, -4383.25, -4228.48, -3525.09, 0.000, 0.000, 0.000, 17:32:59.383
162, -4107.33, -4679.66, -4507.97, -3825.24, 0.000, 0.000, 0.000, 17:32:59.383
163, -4118.05, -4665.77, -4496.73, -3799.70, 0.000, 0.000, 0.000, 17:32:59.397
164, -3942.52, -4473.79, -4311.00, -3610.85, 0.000, 0.000, 0.000, 17:32:59.397
165, -3842.49, -4390.85, -4208.88, -3529.62, 0.000, 0.000, 0.000, 17:32:59.412
166, -4121.76, -4691.63, -4534.19, -3826.12, 0.000, 0.000, 0.000, 17:32:59.412
167, -4127.74, -4662.02, -4510.75, -3794.77, 0.000, 0.000, 0.000, 17:32:59.412
168, -3959.14, -4492.86, -4328.65, -3621.18, 0.000, 0.000, 0.000, 17:32:59.412
169, -3846.06, -4402.86, -4242.27, -3537.59, 0.000, 0.000, 0.000, 17:32:59.427
170, -4109.59, -4673.39, -4524.83, -3828.42, 0.000, 0.000, 0.000, 17:32:59.427
171, -4115.08, -4661.91, -4495.45, -3789.60, 0.000, 0.000, 0.000, 17:32:59.456
172, -3947.62, -4469.03, -4309.18, -3616.27, 0.000, 0.000, 0.000, 17:32:59.457
173, -3846.97, -4376.45, -4231.05, -3530.16, 0.000, 0.000, 0.000, 17:32:59.457
174, -4112.63, -4687.19, -4514.06, -3823.61, 0.000, 0.000, 0.000, 17:32:59.457
175, -4108.74, -4664.87, -4482.53, -3781.76, 0.000, 0.000, 0.000, 17:32:59.458
176, -3935.93, -4462.73, -4302.53, -3604.40, 0.000, 0.000, 0.000, 17:32:59.458
177, -3838.69, -4376.62, -4223.86, -3520.84, 0.000, 0.000, 0.000, 17:32:59.472
178, -4110.94, -4684.18, -4523.63, -3819.20, 0.000, 0.000, 0.000, 17:32:59.472
179, -4113.24, -4667.34, -4490.00, -3787.78, 0.000, 0.000, 0.000, 17:32:59.472
180, -3950.01, -4490.14, -4325.52, -3615.22, 0.000, 0.000, 0.000, 17:32:59.472
181, -3865.13, -4398.34, -4243.90, -3531.63, 0.000, 0.000, 0.000, 17:32:59.487
182, -4125.96, -4698.96, -4528.61, -3831.19, 0.000, 0.000, 0.000, 17:32:59.487
183, -4104.90, -4646.36, -4495.11, -3779.88, 0.000, 0.000, 0.000, 17:32:59.502
184, -3947.22, -4486.65, -4317.20, -3607.06, 0.000, 0.000, 0.000, 17:32:59.502
185, -3854.01, -4395.90, -4243.49, -3536.57, 0.000, 0.000, 0.000, 17:32:59.503
186, -4122.33, -4690.96, -4528.31, -3832.71, 0.000, 0.000, 0.000, 17:32:59.503
187, -4109.14, -4650.42, -4483.07, -3775.55, 0.000, 0.000, 0.000, 17:32:59.517
188, -3942.21, -4473.56, -4323.57, -3606.72, 0.000, 0.000, 0.000, 17:32:59.517
189, -3844.31, -4384.72, -4227.48, -3533.40, 0.000, 0.000, 0.000, 17:32:59.545
190, -4107.84, -4688.43, -4520.82, -3830.13, 0.000, 0.000, 0.000, 17:32:59.545
191, -4104.08, -4656.31, -4483.58, -3793.55, 0.000, 0.000, 0.000, 17:32:59.546
192, -3946.88, -4472.32, -4310.84, -3610.47, 0.000, 0.000, 0.000, 17:32:59.546
193, -3846.57, -4385.24, -4227.55, -3527.67, 0.000, 0.000, 0.000, 17:32:59.546
194, -4107.78, -4683.66, -4512.15, -3823.98, 0.000, 0.000, 0.000, 17:32:59.547
195, -4104.17, -4651.83, -4483.65, -3777.19, 0.000, 0.000, 0.000, 17:32:59.561
196, -3942.40, -4467.48, -4307.35, -3600.62, 0.000, 0.000, 0.000, 17:32:59.561
197, -3847.39, -4378.24, -4227.48, -3532.80, 0.000, 0.000, 0.000, 17:32:59.562
198, -4113.70, -4693.99, -4525.17, -3829.33, 0.000, 0.000, 0.000, 17:32:59.562
199, -4106.93, -4669.30, -4502.52, -3782.58, 0.000, 0.000, 0.000, 17:32:59.577
200, -3932.95, -4475.06, -4316.96, -3594.05, 0.000, 0.000, 0.000, 17:32:59.577
0, -3849.88, -4391.66, -4230.30, -3528.15, 0.000, 0.000, 0.000, 17:32:59.577
1, -4117.37, -4693.68, -4529.98, -3825.41, 0.000, 0.000, 0.000, 17:32:59.591
2, -4100.46, -4644.21, -4483.01, -3778.06, 0.000, 0.000, 0.000, 17:32:59.592
3, -3931.12, -4479.57, -4297.34, -3606.06, 0.000, 0.000, 0.000, 17:32:59.607
4, -3840.36, -4381.27, -4234.04, -3526.02, 0.000, 0.000, 0.000, 17:32:59.607
5, -4115.57, -4694.23, -4528.99, -3829.99, 0.000, 0.000, 0.000, 17:32:59.607
6, -4110.18, -4657.71, -4496.80, -3781.46, 0.000, 0.000, 0.000, 17:32:59.607
7, -3937.55, -4475.80, -4315.30, -3599.25, 0.000, 0.000, 0.000, 17:32:59.622
8, -3839.67, -4381.80, -4229.05, -3521.52, 0.000, 0.000, 0.000, 17:32:59.622
9, -4113.06, -4682.80, -4519.15, -3836.89, 0.000, 0.000, 0.000, 17:32:59.636
10, -4096.68, -4658.45, -4471.40, -3783.67, 0.000, 0.000, 0.000, 17:32:59.637
11, -3936.33, -4479.43, -4312.41, -3609.03, 0.000, 0.000, 0.000, 17:32:59.637
12, -3842.72, -4391.08, -4225.95, -3534.53, 0.000, 0.000, 0.000, 17:32:59.637
13, -4123.89, -4666.83, -4516.55, -3839.38, 0.000, 0.000, 0.000, 17:32:59.652
14, -4109.97, -4660.64, -4482.62, -3789.07, 0.000, 0.000, 0.000, 17:32:59.652
15, -3946.99, -4476.63, -4315.08, -3607.11, 0.000, 0.000, 0.000, 17:32:59.666
16, -3848.85, -4401.76, -4241.46, -3531.63, 0.000, 0.000, 0.000, 17:32:59.666
17, -4119.73, -4698.23, -4532.70, -3837.58, 0.000, 0.000, 0.000, 17:32:59.667
18, -4115.73, -4671.54, -4509.35, -3777.88, 0.000, 0.000, 0.000, 17:32:59.669
19, -3952.27, -4484.80, -4331.58, -3608.18, 0.000, 0.000, 0.000, 17:32:59.682
20, -3836.98, -4380.29, -4230.66, -3520.53, 0.000, 0.000, 0.000, 17:32:59.682
21, -4118.19, -4686.27, -4512.40, -3828.01, 0.000, 0.000, 0.000, 17:32:59.697
22, -4103.72, -4653.33, -4487.05, -3776.19, 0.000, 0.000, 0.000, 17:32:59.697
23, -3939.00, -4483.93, -4310.06, -3601.07, 0.000, 0.000, 0.000, 17:32:59.697
24, -3845.64, -4394.32, -4235.81, -3534.22, 0.000, 0.000, 0.000, 17:32:59.697
25, -4123.96, -4706.98, -4526.53, -3831.47, 0.000, 0.000, 0.000, 17:32:59.711
26, -4107.75, -4653.74, -4478.72, -3774.97, 0.000, 0.000, 0.000, 17:32:59.711
27, -3940.14, -4476.34, -4308.46, -3600.49, 0.000, 0.000, 0.000, 17:32:59.726
28, -3845.77, -4390.24, -4232.67, -3540.85, 0.000, 0.000, 0.000, 17:32:59.726
29, -4129.16, -4701.77, -4525.58, -3840.02, 0.000, 0.000, 0.000, 17:32:59.727
30, -4091.77, -4628.36, -4477.27, -3771.79, 0.000, 0.000, 0.000, 17:32:59.727
31, -3938.74, -4476.81, -4300.90, -3600.22, 0.000, 0.000, 0.000, 17:32:59.749
32, -3853.47, -4397.58, -4247.09, -3536.48, 0.000, 0.000, 0.000, 17:32:59.749
33, -4123.74, -4710.29, -4542.32, -3837.34, 0.000, 0.000, 0.000, 17:32:59.756
34, -4102.82, -4648.43, -4500.11, -3774.65, 0.000, 0.000, 0.000, 17:32:59.757
35, -3941.45, -4472.48, -4317.78, -3604.97, 0.000, 0.000, 0.000, 17:32:59.757
36, -3849.92, -4381.81, -4244.81, -3542.28, 0.000, 0.000, 0.000, 17:32:59.757
37, -4118.69, -4688.01, -4528.24, -3827.54, 0.000, 0.000, 0.000, 17:32:59.771
38, -4095.65, -4648.35, -4470.13, -3764.56, 0.000, 0.000, 0.000, 17:32:59.771
39, -3919.72, -4449.36, -4288.80, -3587.61, 0.000, 0.000, 0.000, 17:32:59.787
40, -3846.48, -4391.71, -4228.03, -3533.31, 0.000, 0.000, 0.000, 17:32:59.787
41, -4136.72, -4693.99, -4544.90, -3840.59, 0.000, 0.000, 0.000, 17:32:59.787
42, -4106.46, -4658.54, -4473.36, -3782.15, 0.000, 0.000, 0.000, 17:32:59.788
43, -3930.17, -4456.16, -4296.44, -3596.65, 0.000, 0.000, 0.000, 17:32:59.802
44, -3850.66, -4401.16, -4231.46, -3534.01, 0.000, 0.000, 0.000, 17:32:59.802
45, -4130.05, -4695.59, -4540.37, -3829.70, 0.000, 0.000, 0.000, 17:32:59.816
46, -4111.91, -4655.63, -4498.45, -3780.76, 0.000, 0.000, 0.000, 17:32:59.817
47, -3943.75, -4485.10, -4315.50, -3609.08, 0.000, 0.000, 0.000, 17:32:59.817
48, -3863.04, -4419.54, -4254.40, -3539.47, 0.000, 0.000, 0.000, 17:32:59.817
49, -4135.39, -4712.36, -4550.03, -3847.84, 0.000, 0.000, 0.000, 17:32:59.832
50, -4098.35, -4651.92, -4477.25, -3772.50, 0.000, 0.000, 0.000, 17:32:59.832
51, -3934.12, -4477.40, -4308.69, -3596.30, 0.000, 0.000, 0.000, 17:32:59.847
52, -3847.01, -4394.67, -4234.54, -3534.05, 0.000, 0.000, 0.000, 17:32:59.847
53, -4127.25, -4698.00, -4535.95, -3836.93, 0.000, 0.000, 0.000, 17:32:59.848
54, -4096.49, -4642.53, -4476.21, -3768.47, 0.000, 0.000, 0.000, 17:32:59.848
55, -3916.93, -4451.24, -4282.70, -3580.32, 0.000, 0.000, 0.000, 17:32:59.861
56, -3844.95, -4384.51, -4222.23, -3520.89, 0.000, 0.000, 0.000, 17:32:59.861
57, -4112.44, -4693.15, -4518.76, -3835.13, 0.000, 0.000, 0.000, 17:32:59.877
58, -4083.44, -4643.96, -4472.75, -3761.34, 0.000, 0.000, 0.000, 17:32:59.877
59, -3922.35, -4454.48, -4310.23, -3596.99, 0.000, 0.000, 0.000, 17:32:59.877
60, -3852.39, -4398.71, -4243.85, -3544.48, 0.000, 0.000, 0.000, 17:32:59.877
61, -4128.18, -4692.05, -4538.02, -3846.12, 0.000, 0.000, 0.000, 17:32:59.891
62, -4101.06, -4643.11, -4487.29, -3775.02, 0.000, 0.000, 0.000, 17:32:59.891
63, -3917.27, -4457.27, -4287.53, -3594.60, 0.000, 0.000, 0.000, 17:32:59.906
64, -3838.94, -4390.75, -4235.24, -3538.26, 0.000, 0.000, 0.000, 17:32:59.906
65, -4119.10, -4700.07, -4532.90, -3835.28, 0.000, 0.000, 0.000, 17:32:59.907
66, -4104.94, -4658.68, -4496.43, -3776.43, 0.000, 0.000, 0.000, 17:32:59.907
67, -3944.50, -4481.65, -4313.76, -3603.92, 0.000, 0.000, 0.000, 17:32:59.921
68, -3854.49, -4396.95, -4250.88, -3544.01, 0.000, 0.000, 0.000, 17:32:59.921
69, -4133.76, -4707.00, -4529.02, -3845.00, 0.000, 0.000, 0.000, 17:32:59.967
70, -4091.92, -4637.75, -4467.57, -3762.43, 0.000, 0.000, 0.000, 17:32:59.967
71, -3916.79, -4457.39, -4277.65, -3581.39, 0.000, 0.000, 0.000, 17:32:59.967
72, -3849.31, -4379.70, -4237.35, -3539.48, 0.000, 0.000, 0.000, 17:32:59.967
73, -4133.08, -4702.44, -4534.68, -3840.44, 0.000, 0.000, 0.000, 17:32:59.968
74, -4094.61, -4645.74, -4473.20, -3763.69, 0.000, 0.000, 0.000, 17:32:59.968
75, -3937.70, -4469.07, -4304.98, -3594.09, 0.000, 0.000, 0.000, 17:32:59.969
76, -3862.75, -4410.85, -4253.19, -3550.16, 0.000, 0.000, 0.000, 17:32:59.969
77, -4133.18, -4712.48, -4538.62, -3853.77, 0.000, 0.000, 0.000, 17:32:59.969
78, -4092.75, -4631.27, -4479.83, -3773.25, 0.000, 0.000, 0.000, 17:32:59.969
79, -3931.76, -4462.59, -4306.88, -3590.51, 0.000, 0.000, 0.000, 17:32:59.982
80, -3865.51, -4415.53, -4258.11, -3552.56, 0.000, 0.000, 0.000, 17:32:59.982
81, -4131.59, -4707.41, -4530.62, -3845.74, 0.000, 0.000, 0.000, 17:32:59.997
82, -4093.21, -4635.64, -4478.65, -3772.78, 0.000, 0.000, 0.000, 17:32:59.997
83, -3933.83, -4464.22, -4298.93, -3588.23, 0.000, 0.000, 0.000, 17:32:59.997
84, -3862.97, -4411.59, -4247.06, -3536.96, 0.000, 0.000, 0.000, 17:32:59.997
85, -4142.07, -4703.48, -4540.02, -3848.37, 0.000, 0.000, 0.000, 17:33:00.011
86, -4100.71, -4646.79, -4475.64, -3771.67, 0.000, 0.000, 0.000, 17:33:00.011
87, -3926.23, -4454.10, -4298.57, -3593.16, 0.000, 0.000, 0.000, 17:33:00.027
88, -3865.37, -4418.44, -4269.23, -3548.49, 0.000, 0.000, 0.000, 17:33:00.027
89, -4139.25, -4716.03, -4556.37, -3850.77, 0.000, 0.000, 0.000, 17:33:00.027
90, -4105.94, -4657.63, -4496.42, -3775.49, 0.000, 0.000, 0.000, 17:33:00.027
91, -3931.22, -4455.18, -4294.69, -3588.76, 0.000, 0.000, 0.000, 17:33:00.042
92, -3863.54, -4415.63, -4256.60, -3555.99, 0.000, 0.000, 0.000, 17:33:00.042
93, -4146.63, -4730.20, -4560.17, -3852.73, 0.000, 0.000, 0.000, 17:33:00.056
94, -4097.26, -4652.21, -4485.08, -3776.68, 0.000, 0.000, 0.000, 17:33:00.056
95, -3914.17, -4440.31, -4288.83, -3587.12, 0.000, 0.000, 0.000, 17:33:00.057
96, -3852.87, -4406.54, -4235.08, -3554.89, 0.000, 0.000, 0.000, 17:33:00.057
97, -4143.90, -4720.83, -4545.33, -3864.35, 0.000, 0.000, 0.000, 17:33:00.087
98, -4092.97, -4642.50, -4478.87, -3777.28, 0.000, 0.000, 0.000, 17:33:00.087
99, -3924.64, -4445.33, -4298.12, -3590.46, 0.000, 0.000, 0.000, 17:33:00.087
100, -3875.04, -4416.40, -4261.22, -3566.77, 0.000, 0.000, 0.000, 17:33:00.087
101, -4148.65, -4717.71, -4553.10, -3860.93, 0.000, 0.000, 0.000, 17:33:00.088
102, -4092.99, -4642.40, -4470.08, -3761.50, 0.000, 0.000, 0.000, 17:33:00.088
103, -3927.60, -4455.54, -4302.81, -3584.40, 0.000, 0.000, 0.000, 17:33:00.103
104, -3872.30, -4416.79, -4260.35, -3559.19, 0.000, 0.000, 0.000, 17:33:00.103
105, -4146.43, -4729.00, -4554.06, -3850.95, 0.000, 0.000, 0.000, 17:33:00.116
106, -4094.98, -4636.29, -4473.94, -3762.45, 0.000, 0.000, 0.000, 17:33:00.117
107, -3924.26, -4456.50, -4293.86, -3588.75, 0.000, 0.000, 0.000, 17:33:00.117
108, -3857.30, -4404.58, -4248.73, -3557.19, 0.000, 0.000, 0.000, 17:33:00.117
109, -4136.39, -4701.04, -4535.12, -3842.50, 0.000, 0.000, 0.000, 17:33:00.132
110, -4092.04, -4634.47, -4469.00, -3762.59, 0.000, 0.000, 0.000, 17:33:00.132
111, -3919.96, -4468.89, -4299.21, -3582.88, 0.000, 0.000, 0.000, 17:33:00.147
112, -3857.17, -4405.04, -4253.72, -3552.60, 0.000, 0.000, 0.000, 17:33:00.147
113, -4137.42, -4713.19, -4532.67, -3853.36, 0.000, 0.000, 0.000, 17:33:00.147
114, -4098.31, -4634.57, -4462.41, -3768.02, 0.000, 0.000, 0.000, 17:33:00.147
115, -3928.29, -4461.99, -4305.21, -3593.95, 0.000, 0.000, 0.000, 17:33:00.161
116, -3857.80, -4401.20, -4248.06, -3551.23, 0.000, 0.000, 0.000, 17:33:00.161
117, -4130.12, -4703.22, -4546.53, -3851.70, 0.000, 0.000, 0.000, 17:33:00.176
118, -4092.88, -4655.06, -4477.76, -3770.24, 0.000, 0.000, 0.000, 17:33:00.176
119, -3922.12, -4467.26, -4304.58, -3593.53, 0.000, 0.000, 0.000, 17:33:00.177
120, -3870.79, -4413.85, -4266.02, -3554.13, 0.000, 0.000, 0.000, 17:33:00.177
121, -4158.19, -4732.90, -4565.40, -3858.87, 0.000, 0.000, 0.000, 17:33:00.191
122, -4105.45, -4655.73, -4488.80, -3769.33, 0.000, 0.000, 0.000, 17:33:00.191
123, -3931.58, -4457.85, -4297.46, -3586.60, 0.000, 0.000, 0.000, 17:33:00.207
124, -3879.15, -4431.23, -4274.84, -3566.73, 0.000, 0.000, 0.000, 17:33:00.207
125, -4142.36, -4714.38, -4548.61, -3857.91, 0.000, 0.000, 0.000, 17:33:00.207
126, -4077.49, -4632.87, -4469.58, -3749.32, 0.000, 0.000, 0.000, 17:33:00.207
127, -3906.59, -4441.74, -4286.73, -3581.86, 0.000, 0.000, 0.000, 17:33:00.222
128, -3857.79, -4409.49, -4259.18, -3557.43, 0.000, 0.000, 0.000, 17:33:00.222
129, -4134.94, -4699.90, -4529.88, -3842.55, 0.000, 0.000, 0.000, 17:33:00.236
130, -4089.08, -4638.00, -4464.20, -3762.57, 0.000, 0.000, 0.000, 17:33:00.236
131, -3914.87, -4447.67, -4281.33, -3580.32, 0.000, 0.000, 0.000, 17:33:00.237
132, -3861.18, -4405.47, -4246.51, -3549.36, 0.000, 0.000, 0.000, 17:33:00.237
133, -4136.50, -4707.11, -4543.60, -3842.26, 0.000, 0.000, 0.000, 17:33:00.252
134, -4090.19, -4635.47, -4472.31, -3766.22, 0.000, 0.000, 0.000, 17:33:00.252
135, -3911.59, -4464.24, -4288.00, -3583.65, 0.000, 0.000, 0.000, 17:33:00.266
136, -3853.74, -4411.81, -4251.34, -3558.52, 0.000, 0.000, 0.000, 17:33:00.267
137, -4130.73, -4701.74, -4540.08, -3844.94, 0.000, 0.000, 0.000, 17:33:00.267
138, -4083.58, -4621.10, -4472.89, -3754.52, 0.000, 0.000, 0.000, 17:33:00.267
139, -3918.43, -4449.52, -4286.91, -3580.71, 0.000, 0.000, 0.000, 17:33:00.283
140, -3868.63, -4420.82, -4260.00, -3559.69, 0.000, 0.000, 0.000, 17:33:00.283
141, -4144.40, -4704.32, -4548.56, -3858.17, 0.000, 0.000, 0.000, 17:33:00.297
142, -4079.67, -4628.15, -4468.65, -3766.26, 0.000, 0.000, 0.000, 17:33:00.297
143, -3908.66, -4440.73, -4286.42, -3576.22, 0.000, 0.000, 0.000, 17:33:00.297
144, -3869.60, -4417.67, -4255.92, -3563.13, 0.000, 0.000, 0.000, 17:33:00.297
145, -4143.38, -4710.10, -4543.14, -3856.50, 0.000, 0.000, 0.000, 17:33:00.312
146, -4095.27, -4642.30, -4468.51, -3759.12, 0.000, 0.000, 0.000, 17:33:00.312
147, -3917.57, -4442.60, -4280.32, -3578.71, 0.000, 0.000, 0.000, 17:33:00.326
148, -3864.37, -4411.80, -4254.94, -3565.25, 0.000, 0.000, 0.000, 17:33:00.326
149, -4135.21, -4694.45, -4542.55, -3847.98, 0.000, 0.000, 0.000, 17:33:00.327
150, -4075.68, -4617.13, -4459.35, -3755.79, 0.000, 0.000, 0.000, 17:33:00.327
151, -3900.20, -4444.61, -4283.48, -3569.84, 0.000, 0.000, 0.000, 17:33:00.341
152, -3862.46, -4412.37, -4257.59, -3558.37, 0.000, 0.000, 0.000, 17:33:00.341
153, -4143.84, -4705.94, -4545.41, -3855.42, 0.000, 0.000, 0.000, 17:33:00.357
154, -4091.02, -4628.68, -4463.19, -3751.39, 0.000, 0.000, 0.000, 17:33:00.357
155, -3907.77, -4448.40, -4279.04, -3578.12, 0.000, 0.000, 0.000, 17:33:00.357
156, -3869.64, -4422.44, -4253.77, -3559.54, 0.000, 0.000, 0.000, 17:33:00.358
157, -4154.10, -4732.31, -4561.54, -3851.45, 0.000, 0.000, 0.000, 17:33:00.371
158, -4087.16, -4636.96, -4457.74, -3759.63, 0.000, 0.000, 0.000, 17:33:00.371
159, -3911.32, -4444.74, -4279.48, -3578.47, 0.000, 0.000, 0.000, 17:33:00.387
160, -3869.40, -4422.44, -4252.55, -3554.29, 0.000, 0.000, 0.000, 17:33:00.387
161, -4150.16, -4720.63, -4551.30, -3855.90, 0.000, 0.000, 0.000, 17:33:00.387
162, -4088.68, -4636.79, -4473.76, -3754.19, 0.000, 0.000, 0.000, 17:33:00.387
163, -3905.88, -4449.71, -4274.32, -3578.66, 0.000, 0.000, 0.000, 17:33:00.403
164, -3865.28, -4417.23, -4255.37, -3558.04, 0.000, 0.000, 0.000, 17:33:00.403
165, -4140.19, -4715.49, -4554.25, -3847.90, 0.000, 0.000, 0.000, 17:33:00.417
166, -4083.48, -4613.22, -4471.05, -3751.90, 0.000, 0.000, 0.000, 17:33:00.417
167, -3905.26, -4440.51, -4288.78, -3580.55, 0.000, 0.000, 0.000, 17:33:00.418
168, -3887.52, -4430.06, -4276.02, -3581.77, 0.000, 0.000, 0.000, 17:33:00.418
169, -4145.46, -4721.15, -4543.07, -3852.24, 0.000, 0.000, 0.000, 17:33:00.432
170, -4066.16, -4626.38, -4456.70, -3738.63, 0.000, 0.000, 0.000, 17:33:00.432
171, -3900.40, -4451.20, -4283.11, -3566.22, 0.000, 0.000, 0.000, 17:33:00.447
172, -3870.77, -4430.66, -4274.90, -3568.80, 0.000, 0.000, 0.000, 17:33:00.447
173, -4139.09, -4731.11, -4551.86, -3857.86, 0.000, 0.000, 0.000, 17:33:00.447
174, -4074.09, -4628.05, -4454.23, -3747.55, 0.000, 0.000, 0.000, 17:33:00.447
175, -3894.72, -4431.60, -4270.68, -3562.94, 0.000, 0.000, 0.000, 17:33:00.462
176, -3859.41, -4419.74, -4260.05, -3558.93, 0.000, 0.000, 0.000, 17:33:00.462
177, -4145.54, -4726.78, -4540.20, -3853.88, 0.000, 0.000, 0.000, 17:33:00.476
178, -4070.58, -4634.55, -4451.86, -3748.98, 0.000, 0.000, 0.000, 17:33:00.476
179, -3892.63, -4423.38, -4271.20, -3565.34, 0.000, 0.000, 0.000, 17:33:00.477
180, -3873.72, -4415.77, -4268.40, -3578.09, 0.000, 0.000, 0.000, 17:33:00.477
181, -4143.50, -4715.24, -4554.50, -3858.20, 0.000, 0.000, 0.000, 17:33:00.491
182, -4072.12, -4623.15, -4473.56, -3745.37, 0.000, 0.000, 0.000, 17:33:00.491
183, -3886.71, -4423.34, -4268.10, -3559.50, 0.000, 0.000, 0.000, 17:33:00.521
184, -3881.48, -4444.00, -4281.21, -3568.06, 0.000, 0.000, 0.000, 17:33:00.521
185, -4152.37, -4740.01, -4560.13, -3856.12, 0.000, 0.000, 0.000, 17:33:00.522
186, -4085.40, -4640.19, -4477.28, -3752.94, 0.000, 0.000, 0.000, 17:33:00.522
187, -3910.10, -4437.44, -4281.25, -3574.60, 0.000, 0.000, 0.000, 17:33:00.522
188, -3874.17, -4418.27, -4275.10, -3568.82, 0.000, 0.000, 0.000, 17:33:00.522
189, -4150.86, -4720.14, -4556.10, -3863.57, 0.000, 0.000, 0.000, 17:33:00.536
190, -4071.87, -4623.42, -4464.72, -3753.87, 0.000, 0.000, 0.000, 17:33:00.537
191, -3894.40, -4436.71, -4268.23, -3566.97, 0.000, 0.000, 0.000, 17:33:00.537
192, -3873.89, -4432.63, -4266.91, -3571.23, 0.000, 0.000, 0.000, 17:33:00.537
193, -4157.09, -4725.84, -4555.73, -3863.29, 0.000, 0.000, 0.000, 17:33:00.567
194, -4084.76, -4639.69, -4468.73, -3759.73, 0.000, 0.000, 0.000, 17:33:00.567
195, -3901.69, -4442.15, -4271.17, -3562.63, 0.000, 0.000, 0.000, 17:33:00.568
196, -3882.60, -4434.69, -4282.17, -3578.00, 0.000, 0.000, 0.000, 17:33:00.568
197, -4162.26, -4749.20, -4575.69, -3861.50, 0.000, 0.000, 0.000, 17:33:00.568
198, -4081.74, -4642.39, -4466.71, -3755.33, 0.000, 0.000, 0.000, 17:33:00.568
199, -3915.01, -4447.52, -4278.95, -3571.75, 0.000, 0.000, 0.000, 17:33:00.582
200, -3892.48, -4432.66, -4275.74, -3578.26, 0.000, 0.000, 0.000, 17:33:00.582
0, -4158.13, -4740.23, -4556.61, -3861.17, 0.000, 0.000, 0.000, 17:33:00.588
1, -4081.28, -4624.23, -4458.71, -3743.49, 0.000, 0.000, 0.000, 17:33:00.597
2, -3904.95, -4441.62, -4284.06, -3562.69, 0.000, 0.000, 0.000, 17:33:00.597
3, -3878.52, -4431.18, -4274.69, -3572.84, 0.000, 0.000, 0.000, 17:33:00.611
4, -4142.49, -4712.45, -4551.32, -3860.02, 0.000, 0.000, 0.000, 17:33:00.611
5, -4065.02, -4614.56, -4441.26, -3739.35, 0.000, 0.000, 0.000, 17:33:00.612
6, -3901.81, -4430.35, -4281.56, -3572.99, 0.000, 0.000, 0.000, 17:33:00.612
7, -3888.10, -4430.57, -4281.23, -3579.13, 0.000, 0.000, 0.000, 17:33:00.641
8, -4165.46, -4737.28, -4573.04, -3863.75, 0.000, 0.000, 0.000, 17:33:00.641
9, -4090.01, -4631.67, -4477.64, -3750.99, 0.000, 0.000, 0.000, 17:33:00.642
10, -3895.58, -4431.37, -4270.96, -3559.96, 0.000, 0.000, 0.000, 17:33:00.642
11, -3884.38, -4447.80, -4274.63, -3570.66, 0.000, 0.000, 0.000, 17:33:00.642
12, -4163.76, -4744.06, -4582.29, -3867.68, 0.000, 0.000, 0.000, 17:33:00.642
13, -4075.03, -4619.00, -4455.94, -3753.33, 0.000, 0.000, 0.000, 17:33:00.656
14, -3895.65, -4438.26, -4273.51, -3568.16, 0.000, 0.000, 0.000, 17:33:00.656
15, -3873.68, -4433.53, -4275.91, -3574.25, 0.000, 0.000, 0.000, 17:33:00.672
16, -4144.77, -4718.57, -4553.95, -3852.85, 0.000, 0.000, 0.000, 17:33:00.672
17, -4073.85, -4625.49, -4444.83, -3742.75, 0.000, 0.000, 0.000, 17:33:00.673
18, -3894.30, -4425.60, -4275.41, -3560.60, 0.000, 0.000, 0.000, 17:33:00.673
19, -3877.28, -4428.37, -4272.26, -3575.86, 0.000, 0.000, 0.000, 17:33:00.687
20, -4156.06, -4725.68, -4541.30, -3859.83, 0.000, 0.000, 0.000, 17:33:00.688
21, -4076.26, -4619.35, -4455.05, -3757.81, 0.000, 0.000, 0.000, 17:33:00.718
22, -3901.24, -4442.52, -4278.93, -3567.72, 0.000, 0.000, 0.000, 17:33:00.718
23, -3881.75, -4438.48, -4281.24, -3582.84, 0.000, 0.000, 0.000, 17:33:00.718
24, -4159.71, -4732.46, -4560.27, -3864.95, 0.000, 0.000, 0.000, 17:33:00.718
25, -4075.45, -4610.94, -4446.38, -3746.25, 0.000, 0.000, 0.000, 17:33:00.718
26, -3903.42, -4432.34, -4285.24, -3570.66, 0.000, 0.000, 0.000, 17:33:00.718
27, -3891.46, -4441.09, -4291.35, -3582.26, 0.000, 0.000, 0.000, 17:33:00.732
28, -4169.30, -4745.90, -4571.25, -3862.31, 0.000, 0.000, 0.000, 17:33:00.732
29, -4083.00, -4626.04, -4465.58, -3752.53, 0.000, 0.000, 0.000, 17:33:00.732
30, -3894.81, -4431.00, -4272.71, -3560.57, 0.000, 0.000, 0.000, 17:33:00.732
31, -3891.24, -4431.25, -4286.60, -3586.11, 0.000, 0.000, 0.000, 17:33:00.747
32, -4161.84, -4726.04, -4563.20, -3857.03, 0.000, 0.000, 0.000, 17:33:00.747
33, -4068.93, -4623.03, -4459.29, -3740.74, 0.000, 0.000, 0.000, 17:33:00.762
34, -3887.46, -4430.06, -4256.78, -3555.31, 0.000, 0.000, 0.000, 17:33:00.762
35, -3889.43, -4442.45, -4280.80, -3583.73, 0.000, 0.000, 0.000, 17:33:00.763
36, -4160.99, -4734.55, -4564.97, -3868.65, 0.000, 0.000, 0.000, 17:33:00.763
37, -4064.47, -4621.89, -4457.97, -3737.18, 0.000, 0.000, 0.000, 17:33:00.776
38, -3885.70, -4425.68, -4277.61, -3555.12, 0.000, 0.000, 0.000, 17:33:00.777
39, -3879.12, -4439.20, -4284.58, -3582.32, 0.000, 0.000, 0.000, 17:33:00.791
40, -4158.95, -4724.77, -4562.93, -3863.78, 0.000, 0.000, 0.000, 17:33:00.791
41, -4063.61, -4594.80, -4445.20, -3735.11, 0.000, 0.000, 0.000, 17:33:00.792
42, -3888.66, -4425.58, -4259.44, -3555.57, 0.000, 0.000, 0.000, 17:33:00.792
43, -3900.07, -4449.71, -4303.28, -3592.91, 0.000, 0.000, 0.000, 17:33:00.806
44, -4165.56, -4738.50, -4567.31, -3871.68, 0.000, 0.000, 0.000, 17:33:00.806
45, -4062.49, -4613.59, -4435.15, -3724.66, 0.000, 0.000, 0.000, 17:33:00.822
46, -3889.16, -4421.25, -4253.09, -3554.15, 0.000, 0.000, 0.000, 17:33:00.822
47, -3880.92, -4426.43, -4273.95, -3587.79, 0.000, 0.000, 0.000, 17:33:00.822
48, -4138.64, -4708.60, -4543.20, -3848.42, 0.000, 0.000, 0.000, 17:33:00.822
49, -4061.20, -4596.20, -4430.65, -3738.16, 0.000, 0.000, 0.000, 17:33:00.837
50, -3893.68, -4430.33, -4272.70, -3566.46, 0.000, 0.000, 0.000, 17:33:00.837
51, -3899.86, -4456.46, -4309.24, -3601.69, 0.000, 0.000, 0.000, 17:33:00.852
52, -4166.36, -4741.77, -4571.96, -3876.16, 0.000, 0.000, 0.000, 17:33:00.852
53, -4067.78, -4611.64, -4446.42, -3730.01, 0.000, 0.000, 0.000, 17:33:00.853
54, -3890.46, -4429.43, -4269.66, -3558.78, 0.000, 0.000, 0.000, 17:33:00.853
55, -3889.51, -4431.45, -4291.26, -3587.46, 0.000, 0.000, 0.000, 17:33:00.881
56, -4161.28, -4735.50, -4559.68, -3873.15, 0.000, 0.000, 0.000, 17:33:00.882
57, -4066.93, -4614.97, -4456.70, -3738.96, 0.000, 0.000, 0.000, 17:33:00.882
58, -3898.69, -4431.55, -4262.94, -3561.72, 0.000, 0.000, 0.000, 17:33:00.882
59, -3894.89, -4457.34, -4291.59, -3601.09, 0.000, 0.000, 0.000, 17:33:00.883
60, -4170.28, -4746.76, -4560.19, -3880.62, 0.000, 0.000, 0.000, 17:33:00.883
61, -4064.55, -4603.43, -4449.84, -3739.69, 0.000, 0.000, 0.000, 17:33:00.903
62, -3875.96, -4413.00, -4255.67, -3547.27, 0.000, 0.000, 0.000, 17:33:00.903
63, -3893.16, -4449.39, -4288.15, -3584.50, 0.000, 0.000, 0.000, 17:33:00.911
64, -4160.37, -4725.51, -4567.14, -3867.16, 0.000, 0.000, 0.000, 17:33:00.912
65, -4066.42, -4611.00, -4455.55, -3733.93, 0.000, 0.000, 0.000, 17:33:00.912
66, -3884.78, -4407.45, -4240.40, -3546.50, 0.000, 0.000, 0.000, 17:33:00.913
67, -3894.02, -4455.60, -4291.78, -3592.88, 0.000, 0.000, 0.000, 17:33:00.941
68, -4160.06, -4746.40, -4560.76, -3867.56, 0.000, 0.000, 0.000, 17:33:00.941
69, -4071.28, -4610.73, -4448.30, -3749.91, 0.000, 0.000, 0.000, 17:33:00.942
70, -3900.60, -4431.53, -4257.97, -3551.83, 0.000, 0.000, 0.000, 17:33:00.942
71, -3890.28, -4443.88, -4298.34, -3595.09, 0.000, 0.000, 0.000, 17:33:00.943
72, -4151.17, -4735.01, -4573.95, -3869.48, 0.000, 0.000, 0.000, 17:33:00.943
73, -4066.89, -4609.17, -4440.26, -3733.97, 0.000, 0.000, 0.000, 17:33:00.957
74, -3901.29, -4426.56, -4279.67, -3556.89, 0.000, 0.000, 0.000, 17:33:00.957
75, -3896.07, -4437.53, -4297.41, -3597.99, 0.000, 0.000, 0.000, 17:33:00.971
76, -4158.91, -4733.55, -4556.19, -3867.08, 0.000, 0.000, 0.000, 17:33:00.971
77, -4064.17, -4610.11, -4443.06, -3736.44, 0.000, 0.000, 0.000, 17:33:00.972
78, -3888.92, -4425.45, -4263.04, -3563.39, 0.000, 0.000, 0.000, 17:33:00.972
79, -3896.67, -4449.43, -4301.42, -3594.83, 0.000, 0.000, 0.000, 17:33:00.987
80, -4155.29, -4730.51, -4566.70, -3862.75, 0.000, 0.000, 0.000, 17:33:00.987
81, -4062.98, -4580.09, -4436.90, -3735.15, 0.000, 0.000, 0.000, 17:33:01.003
82, -3893.63, -4423.94, -4261.25, -3556.83, 0.000, 0.000, 0.000, 17:33:01.003
83, -3899.19, -4460.52, -4292.95, -3600.04, 0.000, 0.000, 0.000, 17:33:01.003
84, -4161.38, -4727.82, -4567.76, -3870.62, 0.000, 0.000, 0.000, 17:33:01.003
85, -4055.88, -4599.75, -4442.05, -3728.64, 0.000, 0.000, 0.000, 17:33:01.017
86, -3879.94, -4398.49, -4259.35, -3551.77, 0.000, 0.000, 0.000, 17:33:01.017
87, -3890.69, -4440.11, -4284.24, -3600.09, 0.000, 0.000, 0.000, 17:33:01.032
88, -4160.45, -4725.42, -4558.67, -3865.79, 0.000, 0.000, 0.000, 17:33:01.032
89, -4075.82, -4606.54, -4445.95, -3733.25, 0.000, 0.000, 0.000, 17:33:01.032
90, -3901.61, -4437.77, -4269.49, -3569.41, 0.000, 0.000, 0.000, 17:33:01.032
91, -3908.78, -4459.69, -4310.20, -3611.64, 0.000, 0.000, 0.000, 17:33:01.047
92, -4169.20, -4745.91, -4578.36, -3871.33, 0.000, 0.000, 0.000, 17:33:01.047
93, -4059.17, -4614.31, -4430.47, -3727.94, 0.000, 0.000, 0.000, 17:33:01.076
94, -3871.26, -4404.46, -4242.50, -3548.84, 0.000, 0.000, 0.000, 17:33:01.076
95, -3902.96, -4454.48, -4294.01, -3608.90, 0.000, 0.000, 0.000, 17:33:01.076
96, -4156.90, -4720.70, -4567.66, -3872.50, 0.000, 0.000, 0.000, 17:33:01.076
97, -4059.14, -4588.37, -4428.80, -3728.91, 0.000, 0.000, 0.000, 17:33:01.078
98, -3884.54, -4403.38, -4256.34, -3549.22, 0.000, 0.000, 0.000, 17:33:01.078
99, -3905.36, -4447.73, -4292.70, -3602.28, 0.000, 0.000, 0.000, 17:33:01.091
100, -4152.37, -4726.50, -4545.38, -3865.02, 0.000, 0.000, 0.000, 17:33:01.091
101, -4058.85, -4604.23, -4419.78, -3727.70, 0.000, 0.000, 0.000, 17:33:01.092
102, -3887.17, -4414.82, -4257.66, -3548.58, 0.000, 0.000, 0.000, 17:33:01.092
103, -3900.54, -4452.93, -4297.20, -3606.89, 0.000, 0.000, 0.000, 17:33:01.106
104, -4170.05, -4749.76, -4570.22, -3868.55, 0.000, 0.000, 0.000, 17:33:01.106
105, -4060.25, -4603.17, -4448.29, -3724.36, 0.000, 0.000, 0.000, 17:33:01.121
106, -3886.27, -4412.40, -4264.08, -3556.38, 0.000, 0.000, 0.000, 17:33:01.121
107, -3900.16, -4446.31, -4310.05, -3606.00, 0.000, 0.000, 0.000, 17:33:01.122
108, -4163.64, -4727.11, -4569.31, -3869.52, 0.000, 0.000, 0.000, 17:33:01.122
109, -4054.62, -4595.37, -4438.95, -3728.77, 0.000, 0.000, 0.000, 17:33:01.136
110, -3882.83, -4412.03, -4266.28, -3550.86, 0.000, 0.000, 0.000, 17:33:01.136
111, -3909.80, -4461.66, -4307.76, -3610.94, 0.000, 0.000, 0.000, 17:33:01.153
112, -4161.92, -4725.82, -4555.25, -3862.64, 0.000, 0.000, 0.000, 17:33:01.153
113, -4058.80, -4597.82, -4441.21, -3724.19, 0.000, 0.000, 0.000, 17:33:01.153
114, -3878.33, -4406.78, -4257.04, -3540.70, 0.000, 0.000, 0.000, 17:33:01.154
115, -3909.32, -4467.92, -4313.72, -3608.90, 0.000, 0.000, 0.000, 17:33:01.167
116, -4171.31, -4737.75, -4571.81, -3876.01, 0.000, 0.000, 0.000, 17:33:01.167
117, -4075.69, -4612.31, -4440.98, -3734.93, 0.000, 0.000, 0.000, 17:33:01.181
118, -3885.03, -4400.87, -4257.60, -3546.81, 0.000, 0.000, 0.000, 17:33:01.181
119, -3904.83, -4463.17, -4301.88, -3613.95, 0.000, 0.000, 0.000, 17:33:01.182
120, -4166.50, -4737.24, -4554.55, -3870.88, 0.000, 0.000, 0.000, 17:33:01.182
121, -4063.51, -4603.91, -4430.17, -3733.88, 0.000, 0.000, 0.000, 17:33:01.205
122, -3881.58, -4413.57, -4244.74, -3541.44, 0.000, 0.000, 0.000, 17:33:01.205
123, -3904.29, -4467.37, -4311.94, -3612.00, 0.000, 0.000, 0.000, 17:33:01.227
124, -4165.20, -4727.79, -4566.53, -3863.52, 0.000, 0.000, 0.000, 17:33:01.227
125, -4050.80, -4604.42, -4425.61, -3720.33, 0.000, 0.000, 0.000, 17:33:01.227
126, -3869.23, -4395.10, -4254.14, -3541.25, 0.000, 0.000, 0.000, 17:33:01.227
127, -3913.75, -4462.84, -4317.37, -3613.49, 0.000, 0.000, 0.000, 17:33:01.228
128, -4181.19, -4755.33, -4578.89, -3873.49, 0.000, 0.000, 0.000, 17:33:01.228
129, -4069.84, -4627.72, -4436.99, -3737.72, 0.000, 0.000, 0.000, 17:33:01.242
130, -3882.82, -4391.02, -4254.73, -3541.92, 0.000, 0.000, 0.000, 17:33:01.242
131, -3914.11, -4474.72, -4314.93, -3610.51, 0.000, 0.000, 0.000, 17:33:01.242
132, -4166.04, -4732.93, -4564.33, -3869.28, 0.000, 0.000, 0.000, 17:33:01.242
133, -4066.54, -4597.42, -4443.69, -3725.57, 0.000, 0.000, 0.000, 17:33:01.256
134, -3880.98, -4411.46, -4247.89, -3542.32, 0.000, 0.000, 0.000, 17:33:01.256
135, -3919.90, -4471.69, -4323.11, -3604.99, 0.000, 0.000, 0.000, 17:33:01.271
136, -4172.73, -4739.10, -4568.63, -3866.44, 0.000, 0.000, 0.000, 17:33:01.271
137, -4065.61, -4613.94, -4453.68, -3729.84, 0.000, 0.000, 0.000, 17:33:01.272
138, -3902.83, -4440.38, -4271.41, -3550.66, 0.000, 0.000, 0.000, 17:33:01.272
139, -3928.13, -4494.67, -4334.93, -3625.09, 0.000, 0.000, 0.000, 17:33:01.286
140, -4165.77, -4744.20, -4574.80, -3866.94, 0.000, 0.000, 0.000, 17:33:01.286
141, -4026.97, -4584.58, -4413.40, -3716.51, 0.000, 0.000, 0.000, 17:33:01.302
142, -3857.70, -4395.89, -4243.33, -3534.16, 0.000, 0.000, 0.000, 17:33:01.302
143, -3898.52, -4464.60, -4299.72, -3606.91, 0.000, 0.000, 0.000, 17:33:01.302
144, -4158.56, -4733.85, -4556.04, -3862.56, 0.000, 0.000, 0.000, 17:33:01.302
145, -4061.94, -4605.61, -4432.70, -3726.71, 0.000, 0.000, 0.000, 17:33:01.332
146, -3881.59, -4411.87, -4245.22, -3552.03, 0.000, 0.000, 0.000, 17:33:01.332
147, -3910.39, -4452.84, -4306.09, -3618.05, 0.000, 0.000, 0.000, 17:33:01.332
148, -4166.56, -4729.10, -4569.46, -3871.51, 0.000, 0.000, 0.000, 17:33:01.333
149, -4052.14, -4587.25, -4437.55, -3720.21, 0.000, 0.000, 0.000, 17:33:01.333
150, -3873.93, -4412.21, -4252.24, -3530.87, 0.000, 0.000, 0.000, 17:33:01.333
151, -3903.42, -4478.87, -4304.62, -3611.78, 0.000, 0.000, 0.000, 17:33:01.347
152, -4159.77, -4748.68, -4563.92, -3863.02, 0.000, 0.000, 0.000, 17:33:01.347
153, -4042.39, -4600.39, -4430.04, -3715.81, 0.000, 0.000, 0.000, 17:33:01.361
154, -3867.05, -4394.88, -4249.04, -3541.96, 0.000, 0.000, 0.000, 17:33:01.361
155, -3915.10, -4471.48, -4318.83, -3621.99, 0.000, 0.000, 0.000, 17:33:01.362
156, -4153.58, -4713.69, -4554.70, -3862.65, 0.000, 0.000, 0.000, 17:33:01.362
157, -4044.81, -4596.56, -4425.15, -3714.28, 0.000, 0.000, 0.000, 17:33:01.377
158, -3877.10, -4429.32, -4256.85, -3542.14, 0.000, 0.000, 0.000, 17:33:01.377
159, -3920.50, -4469.53, -4317.14, -3623.41, 0.000, 0.000, 0.000, 17:33:01.391
160, -4168.60, -4748.44, -4569.78, -3868.49, 0.000, 0.000, 0.000, 17:33:01.391
161, -4053.76, -4590.74, -4431.92, -3715.05, 0.000, 0.000, 0.000, 17:33:01.392
162, -3873.32, -4393.53, -4230.99, -3539.97, 0.000, 0.000, 0.000, 17:33:01.392
163, -3927.41, -4484.58, -4337.81, -3630.20, 0.000, 0.000, 0.000, 17:33:01.422
164, -4170.18, -4741.16, -4574.39, -3872.40, 0.000, 0.000, 0.000, 17:33:01.422
165, -4053.85, -4599.55, -4420.98, -3712.25, 0.000, 0.000, 0.000, 17:33:01.422
166, -3874.58, -4390.31, -4244.85, -3540.00, 0.000, 0.000, 0.000, 17:33:01.422
167, -3939.84, -4510.25, -4330.18, -3638.84, 0.000, 0.000, 0.000, 17:33:01.423
168, -4173.62, -4757.13, -4577.42, -3876.68, 0.000, 0.000, 0.000, 17:33:01.423
169, -4052.25, -4581.48, -4428.93, -3711.52, 0.000, 0.000, 0.000, 17:33:01.437
170, -3872.65, -4386.19, -4229.95, -3537.28, 0.000, 0.000, 0.000, 17:33:01.437
171, -3929.71, -4479.70, -4319.30, -3630.17, 0.000, 0.000, 0.000, 17:33:01.451
172, -4179.56, -4735.38, -4562.30, -3879.10, 0.000, 0.000, 0.000, 17:33:01.452
173, -4053.87, -4578.53, -4429.30, -3717.83, 0.000, 0.000, 0.000, 17:33:01.453
174, -3878.70, -4410.17, -4249.48, -3542.77, 0.000, 0.000, 0.000, 17:33:01.453
175, -3927.59, -4489.59, -4323.77, -3639.62, 0.000, 0.000, 0.000, 17:33:01.466
176, -4174.24, -4751.82, -4576.77, -3877.29, 0.000, 0.000, 0.000, 17:33:01.466
177, -4050.21, -4600.92, -4438.68, -3724.15, 0.000, 0.000, 0.000, 17:33:01.482
178, -3880.13, -4412.58, -4250.30, -3544.22, 0.000, 0.000, 0.000, 17:33:01.482
179, -3924.17, -4495.33, -4336.62, -3630.20, 0.000, 0.000, 0.000, 17:33:01.483
180, -4159.29, -4717.96, -4565.37, -3863.83, 0.000, 0.000, 0.000, 17:33:01.483
181, -4049.03, -4595.27, -4430.54, -3720.15, 0.000, 0.000, 0.000, 17:33:01.497
182, -3873.95, -4413.66, -4247.36, -3542.35, 0.000, 0.000, 0.000, 17:33:01.497
183, -3935.35, -4483.11, -4340.21, -3646.56, 0.000, 0.000, 0.000, 17:33:01.511
184, -4155.43, -4731.92, -4570.70, -3856.77, 0.000, 0.000, 0.000, 17:33:01.511
185, -4046.86, -4574.15, -4444.20, -3711.37, 0.000, 0.000, 0.000, 17:33:01.512
186, -3872.40, -4408.11, -4249.36, -3542.43, 0.000, 0.000, 0.000, 17:33:01.512
187, -3930.18, -4498.85, -4337.08, -3640.42, 0.000, 0.000, 0.000, 17:33:01.526
188, -4178.95, -4753.90, -4578.65, -3876.77, 0.000, 0.000, 0.000, 17:33:01.526
189, -4042.76, -4586.65, -4411.89, -3712.33, 0.000, 0.000, 0.000, 17:33:01.542
190, -3866.08, -4391.97, -4239.69, -3532.77, 0.000, 0.000, 0.000, 17:33:01.542
191, -3934.94, -4494.77, -4349.56, -3641.37, 0.000, 0.000, 0.000, 17:33:01.542
192, -4158.08, -4717.14, -4564.51, -3869.78, 0.000, 0.000, 0.000, 17:33:01.542
193, -4035.27, -4584.84, -4423.70, -3708.32, 0.000, 0.000, 0.000, 17:33:01.557
194, -3851.91, -4380.56, -4241.08, -3531.26, 0.000, 0.000, 0.000, 17:33:01.557
195, -3922.06, -4496.17, -4337.82, -3629.32, 0.000, 0.000, 0.000, 17:33:01.571
196, -4157.90, -4740.24, -4564.26, -3861.07, 0.000, 0.000, 0.000, 17:33:01.571
197, -4027.76, -4579.07, -4393.05, -3695.07, 0.000, 0.000, 0.000, 17:33:01.572
198, -3857.95, -4394.18, -4238.42, -3535.12, 0.000, 0.000, 0.000, 17:33:01.572
199, -3933.07, -4505.70, -4341.05, -3648.97, 0.000, 0.000, 0.000, 17:33:01.587
200, -4177.79, -4746.63, -4580.55, -3875.21, 0.000, 0.000, 0.000, 17:33:01.587
0, -4032.31, -4583.02, -4405.48, -3709.89, 0.000, 0.000, 0.000, 17:33:01.587
1, -3866.48, -4412.53, -4247.72, -3539.30, 0.000, 0.000, 0.000, 17:33:01.602
2, -3933.38, -4501.33, -4341.18, -3647.97, 0.000, 0.000, 0.000, 17:33:01.602
3, -4171.86, -4745.52, -4578.83, -3873.49, 0.000, 0.000, 0.000, 17:33:01.616
4, -4043.23, -4596.50, -4418.24, -3712.91, 0.000, 0.000, 0.000, 17:33:01.616
5, -3865.34, -4403.31, -4230.04, -3535.72, 0.000, 0.000, 0.000, 17:33:01.632
6, -3933.45, -4483.17, -4330.91, -3636.04, 0.000, 0.000, 0.000, 17:33:01.632
7, -4165.98, -4724.58, -4566.47, -3872.54, 0.000, 0.000, 0.000, 17:33:01.632
8, -4037.99, -4571.49, -4417.38, -3702.07, 0.000, 0.000, 0.000, 17:33:01.632
9, -3860.64, -4393.66, -4236.63, -3526.96, 0.000, 0.000, 0.000, 17:33:01.647
10, -3945.28, -4490.73, -4352.40, -3647.48, 0.000, 0.000, 0.000, 17:33:01.647
11, -4168.02, -4724.32, -4568.85, -3873.23, 0.000, 0.000, 0.000, 17:33:01.647
12, -4030.78, -4584.25, -4424.00, -3702.14, 0.000, 0.000, 0.000, 17:33:01.647
13, -3865.50, -4390.38, -4240.39, -3527.72, 0.000, 0.000, 0.000, 17:33:01.662
14, -3934.30, -4489.58, -4334.54, -3641.38, 0.000, 0.000, 0.000, 17:33:01.662
15, -4169.12, -4736.59, -4548.03, -3863.59, 0.000, 0.000, 0.000, 17:33:01.676
16, -4041.28, -4574.08, -4418.56, -3714.49, 0.000, 0.000, 0.000, 17:33:01.676
17, -3876.26, -4419.43, -4253.09, -3542.67, 0.000, 0.000, 0.000, 17:33:01.677
18, -3936.60, -4488.81, -4350.21, -3647.45, 0.000, 0.000, 0.000, 17:33:01.677
19, -4160.98, -4732.54, -4557.11, -3873.30, 0.000, 0.000, 0.000, 17:33:01.691
20, -4032.35, -4570.82, -4413.79, -3709.05, 0.000, 0.000, 0.000, 17:33:01.691
21, -3867.15, -4389.38, -4237.44, -3537.52, 0.000, 0.000, 0.000, 17:33:01.706
22, -3932.36, -4505.31, -4339.89, -3646.77, 0.000, 0.000, 0.000, 17:33:01.706
23, -4158.13, -4736.49, -4560.87, -3855.63, 0.000, 0.000, 0.000, 17:33:01.707
24, -4039.84, -4589.71, -4427.83, -3710.41, 0.000, 0.000, 0.000, 17:33:01.707
25, -3872.18, -4421.81, -4259.73, -3535.32, 0.000, 0.000, 0.000, 17:33:01.721
26, -3950.32, -4524.17, -4350.96, -3660.47, 0.000, 0.000, 0.000, 17:33:01.721
27, -4159.27, -4723.13, -4568.18, -3857.47, 0.000, 0.000, 0.000, 17:33:01.736
28, -4028.45, -4564.01, -4416.54, -3695.39, 0.000, 0.000, 0.000, 17:33:01.736
29, -3860.24, -4403.71, -4229.02, -3530.75, 0.000, 0.000, 0.000, 17:33:01.737
30, -3936.05, -4495.86, -4344.00, -3646.05, 0.000, 0.000, 0.000, 17:33:01.737
31, -4160.47, -4739.02, -4565.07, -3854.48, 0.000, 0.000, 0.000, 17:33:01.752
32, -4041.88, -4583.80, -4417.21, -3714.25, 0.000, 0.000, 0.000, 17:33:01.752
33, -3870.99, -4415.74, -4240.35, -3537.15, 0.000, 0.000, 0.000, 17:33:01.767
34, -3950.64, -4517.33, -4356.23, -3662.76, 0.000, 0.000, 0.000, 17:33:01.767
35, -4158.18, -4722.32, -4561.07, -3868.34, 0.000, 0.000, 0.000, 17:33:01.767
36, -4018.38, -4566.00, -4403.26, -3694.42, 0.000, 0.000, 0.000, 17:33:01.768
37, -3857.99, -4408.48, -4233.05, -3528.34, 0.000, 0.000, 0.000, 17:33:01.782
38, -3945.06, -4520.14, -4356.70, -3650.03, 0.000, 0.000, 0.000, 17:33:01.783
39, -4152.97, -4738.42, -4565.28, -3866.19, 0.000, 0.000, 0.000, 17:33:01.797
40, -4022.16, -4567.89, -4397.79, -3687.71, 0.000, 0.000, 0.000, 17:33:01.797
41, -3854.44, -4374.84, -4236.11, -3515.66, 0.000, 0.000, 0.000, 17:33:01.798
42, -3936.75, -4502.22, -4345.12, -3647.54, 0.000, 0.000, 0.000, 17:33:01.798
43, -4159.84, -4717.69, -4555.45, -3854.76, 0.000, 0.000, 0.000, 17:33:01.811
44, -4022.95, -4580.94, -4392.86, -3704.22, 0.000, 0.000, 0.000, 17:33:01.811
45, -3860.28, -4396.35, -4248.71, -3531.65, 0.000, 0.000, 0.000, 17:33:01.826
46, -3946.63, -4510.98, -4359.33, -3651.63, 0.000, 0.000, 0.000, 17:33:01.826
47, -4165.99, -4736.99, -4578.47, -3857.15, 0.000, 0.000, 0.000, 17:33:01.827
48, -4034.21, -4571.45, -4422.59, -3701.34, 0.000, 0.000, 0.000, 17:33:01.827
49, -3867.69, -4410.40, -4235.65, -3531.81, 0.000, 0.000, 0.000, 17:33:01.842
50, -3949.03, -4507.29, -4354.62, -3654.32, 0.000, 0.000, 0.000, 17:33:01.842
51, -4154.55, -4718.67, -4557.46, -3857.50, 0.000, 0.000, 0.000, 17:33:01.856
52, -4024.96, -4577.26, -4409.34, -3698.01, 0.000, 0.000, 0.000, 17:33:01.856
53, -3872.85, -4406.77, -4250.47, -3535.69, 0.000, 0.000, 0.000, 17:33:01.857
54, -3950.46, -4508.78, -4357.13, -3659.08, 0.000, 0.000, 0.000, 17:33:01.857
55, -4150.69, -4712.74, -4559.18, -3842.91, 0.000, 0.000, 0.000, 17:33:01.887
56, -4017.92, -4564.20, -4408.32, -3688.88, 0.000, 0.000, 0.000, 17:33:01.887
57, -3855.77, -4400.72, -4244.35, -3525.85, 0.000, 0.000, 0.000, 17:33:01.887
58, -3956.26, -4513.30, -4353.70, -3673.01, 0.000, 0.000, 0.000, 17:33:01.887
59, -4160.76, -4729.38, -4564.52, -3860.44, 0.000, 0.000, 0.000, 17:33:01.888
60, -4025.41, -4572.83, -4397.24, -3694.47, 0.000, 0.000, 0.000, 17:33:01.888
61, -3853.86, -4403.19, -4232.19, -3524.50, 0.000, 0.000, 0.000, 17:33:01.902
62, -3955.75, -4530.40, -4367.54, -3663.91, 0.000, 0.000, 0.000, 17:33:01.902
63, -4160.34, -4729.50, -4562.47, -3853.60, 0.000, 0.000, 0.000, 17:33:01.917
64, -4027.40, -4559.62, -4404.56, -3687.95, 0.000, 0.000, 0.000, 17:33:01.917
65, -3859.20, -4406.46, -4242.53, -3534.01, 0.000, 0.000, 0.000, 17:33:01.917
66, -3966.78, -4528.83, -4378.42, -3672.07, 0.000, 0.000, 0.000, 17:33:01.917
67, -4168.26, -4733.24, -4573.97, -3861.14, 0.000, 0.000, 0.000, 17:33:01.931
68, -4036.78, -4559.70, -4414.59, -3696.26, 0.000, 0.000, 0.000, 17:33:01.931
69, -3858.47, -4400.46, -4240.80, -3523.57, 0.000, 0.000, 0.000, 17:33:01.947
70, -3956.55, -4525.07, -4363.71, -3660.67, 0.000, 0.000, 0.000, 17:33:01.947
71, -4176.04, -4747.20, -4572.77, -3867.74, 0.000, 0.000, 0.000, 17:33:01.961
72, -4035.12, -4596.26, -4434.07, -3707.16, 0.000, 0.000, 0.000, 17:33:01.961
73, -3879.22, -4424.55, -4271.11, -3540.47, 0.000, 0.000, 0.000, 17:33:01.961
74, -3962.30, -4533.34, -4382.81, -3676.42, 0.000, 0.000, 0.000, 17:33:01.962
75, -4160.42, -4732.33, -4563.64, -3860.32, 0.000, 0.000, 0.000, 17:33:01.977
76, -4023.38, -4567.13, -4386.15, -3690.80, 0.000, 0.000, 0.000, 17:33:01.977
77, -3853.07, -4397.63, -4226.89, -3524.74, 0.000, 0.000, 0.000, 17:33:01.977
78, -3958.50, -4511.64, -4362.68, -3669.53, 0.000, 0.000, 0.000, 17:33:01.977
79, -4156.26, -4710.53, -4548.84, -3850.69, 0.000, 0.000, 0.000, 17:33:01.991
80, -4031.10, -4562.86, -4393.94, -3695.83, 0.000, 0.000, 0.000, 17:33:01.992
81, -3867.05, -4407.33, -4241.86, -3543.97, 0.000, 0.000, 0.000, 17:33:02.021
82, -3955.59, -4513.62, -4358.94, -3666.92, 0.000, 0.000, 0.000, 17:33:02.021
83, -4160.39, -4718.80, -4562.21, -3851.09, 0.000, 0.000, 0.000, 17:33:02.022
84, -4020.72, -4564.34, -4400.64, -3688.69, 0.000, 0.000, 0.000, 17:33:02.022
85, -3867.31, -4398.17, -4233.13, -3535.39, 0.000, 0.000, 0.000, 17:33:02.029
86, -3961.01, -4533.59, -4362.91, -3675.15, 0.000, 0.000, 0.000, 17:33:02.029
87, -4157.39, -4727.96, -4548.80, -3858.75, 0.000, 0.000, 0.000, 17:33:02.037
88, -4025.85, -4570.58, -4396.99, -3691.52, 0.000, 0.000, 0.000, 17:33:02.037
89, -3868.95, -4405.13, -4241.97, -3546.85, 0.000, 0.000, 0.000, 17:33:02.037
90, -3975.50, -4539.02, -4382.84, -3685.96, 0.000, 0.000, 0.000, 17:33:02.037
91, -4162.56, -4710.11, -4573.48, -3856.55, 0.000, 0.000, 0.000, 17:33:02.051
92, -4029.07, -4556.73, -4405.36, -3695.38, 0.000, 0.000, 0.000, 17:33:02.052
93, -3864.17, -4399.53, -4246.18, -3538.36, 0.000, 0.000, 0.000, 17:33:02.066
94, -3980.25, -4550.08, -4394.85, -3680.73, 0.000, 0.000, 0.000, 17:33:02.066
95, -4166.62, -4729.41, -4566.74, -3858.53, 0.000, 0.000, 0.000, 17:33:02.067
96, -4025.46, -4560.54, -4416.23, -3683.09, 0.000, 0.000, 0.000, 17:33:02.067
97, -3878.33, -4410.61, -4259.12, -3543.89, 0.000, 0.000, 0.000, 17:33:02.082
98, -3999.94, -4572.19, -4412.44, -3702.02, 0.000, 0.000, 0.000, 17:33:02.082
99, -4156.12, -4721.68, -4554.84, -3855.01, 0.000, 0.000, 0.000, 17:33:02.097
100, -4023.05, -4565.82, -4399.86, -3684.90, 0.000, 0.000, 0.000, 17:33:02.097
101, -3869.94, -4410.39, -4241.82, -3543.96, 0.000, 0.000, 0.000, 17:33:02.097
102, -3979.50, -4541.75, -4388.12, -3688.07, 0.000, 0.000, 0.000, 17:33:02.097
103, -4159.08, -4714.32, -4551.88, -3841.54, 0.000, 0.000, 0.000, 17:33:02.112
104, -4026.40, -4569.47, -4398.05, -3684.64, 0.000, 0.000, 0.000, 17:33:02.112
105, -3876.98, -4419.01, -4258.96, -3539.33, 0.000, 0.000, 0.000, 17:33:02.126
106, -3973.27, -4533.64, -4384.12, -3685.16, 0.000, 0.000, 0.000, 17:33:02.126
107, -4154.40, -4711.45, -4556.32, -3843.32, 0.000, 0.000, 0.000, 17:33:02.142
108, -4020.77, -4549.19, -4383.35, -3685.88, 0.000, 0.000, 0.000, 17:33:02.142
109, -3863.79, -4398.31, -4241.74, -3538.90, 0.000, 0.000, 0.000, 17:33:02.142
110, -3976.52, -4546.99, -4386.46, -3693.41, 0.000, 0.000, 0.000, 17:33:02.142
111, -4161.07, -4724.62, -4557.99, -3848.38, 0.000, 0.000, 0.000, 17:33:02.156
112, -4028.00, -4562.88, -4387.53, -3683.77, 0.000, 0.000, 0.000, 17:33:02.156
113, -3864.02, -4394.92, -4239.87, -3524.35, 0.000, 0.000, 0.000, 17:33:02.157
114, -3976.22, -4548.93, -4384.59, -3684.14, 0.000, 0.000, 0.000, 17:33:02.157
115, -4158.69, -4715.34, -4558.55, -3851.98, 0.000, 0.000, 0.000, 17:33:02.172
116, -4030.82, -4568.86, -4406.66, -3682.55, 0.000, 0.000, 0.000, 17:33:02.172
117, -3878.41, -4414.72, -4259.17, -3539.71, 0.000, 0.000, 0.000, 17:33:02.202
118, -3986.63, -4544.26, -4385.67, -3697.29, 0.000, 0.000, 0.000, 17:33:02.202
119, -4162.12, -4715.77, -4559.07, -3852.99, 0.000, 0.000, 0.000, 17:33:02.202
120, -4018.71, -4554.32, -4397.34, -3689.67, 0.000, 0.000, 0.000, 17:33:02.202
121, -3854.54, -4386.76, -4221.60, -3526.49, 0.000, 0.000, 0.000, 17:33:02.203
122, -3974.02, -4533.49, -4378.44, -3695.46, 0.000, 0.000, 0.000, 17:33:02.203
123, -4139.01, -4704.33, -4539.21, -3844.01, 0.000, 0.000, 0.000, 17:33:02.216
124, -4000.67, -4538.55, -4380.22, -3681.81, 0.000, 0.000, 0.000, 17:33:02.216
125, -3866.38, -4394.89, -4253.82, -3537.22, 0.000, 0.000, 0.000, 17:33:02.217
126, -3985.34, -4560.40, -4389.00, -3704.66, 0.000, 0.000, 0.000, 17:33:02.217
127, -4151.64, -4716.34, -4548.52, -3845.46, 0.000, 0.000, 0.000, 17:33:02.232
128, -4005.52, -4546.29, -4386.09, -3674.98, 0.000, 0.000, 0.000, 17:33:02.232
129, -3858.33, -4401.37, -4234.85, -3536.23, 0.000, 0.000, 0.000, 17:33:02.246
130, -3978.84, -4536.24, -4391.91, -3695.46, 0.000, 0.000, 0.000, 17:33:02.246
131, -4149.28, -4714.19, -4548.27, -3847.72, 0.000, 0.000, 0.000, 17:33:02.247
132, -4015.48, -4555.74, -4398.37, -3677.49, 0.000, 0.000, 0.000, 17:33:02.247
133, -3866.41, -4408.23, -4243.53, -3541.95, 0.000, 0.000, 0.000, 17:33:02.262
134, -3977.14, -4534.71, -4393.64, -3696.64, 0.000, 0.000, 0.000, 17:33:02.262
135, -4137.57, -4700.54, -4538.46, -3836.29, 0.000, 0.000, 0.000, 17:33:02.276
136, -4008.46, -4545.32, -4382.22, -3676.77, 0.000, 0.000, 0.000, 17:33:02.276
137, -3869.90, -4400.64, -4245.15, -3539.52, 0.000, 0.000, 0.000, 17:33:02.277
138, -3988.83, -4553.66, -4396.20, -3708.14, 0.000, 0.000, 0.000, 17:33:02.277
139, -4142.72, -4702.04, -4534.57, -3838.46, 0.000, 0.000, 0.000, 17:33:02.306
140, -4011.77, -4546.12, -4381.41, -3680.25, 0.000, 0.000, 0.000, 17:33:02.306
141, -3872.97, -4403.73, -4253.84, -3541.94, 0.000, 0.000, 0.000, 17:33:02.307
142, -3983.29, -4556.70, -4388.75, -3699.61, 0.000, 0.000, 0.000, 17:33:02.307
143, -4150.36, -4700.50, -4545.37, -3838.97, 0.000, 0.000, 0.000, 17:33:02.315
144, -4019.11, -4550.08, -4384.51, -3677.03, 0.000, 0.000, 0.000, 17:33:02.315
145, -3882.11, -4407.92, -4260.91, -3543.64, 0.000, 0.000, 0.000, 17:33:02.321
146, -3996.10, -4557.02, -4395.26, -3699.51, 0.000, 0.000, 0.000, 17:33:02.322
147, -4146.91, -4710.71, -4554.04, -3837.06, 0.000, 0.000, 0.000, 17:33:02.336
148, -4009.76, -4537.07, -4388.55, -3676.46, 0.000, 0.000, 0.000, 17:33:02.336
149, -3865.38, -4402.62, -4230.58, -3535.35, 0.000, 0.000, 0.000, 17:33:02.337
150, -4000.08, -4561.35, -4395.36, -3700.75, 0.000, 0.000, 0.000, 17:33:02.337
151, -4152.64, -4725.55, -4551.34, -3846.72, 0.000, 0.000, 0.000, 17:33:02.352
152, -4020.61, -4554.81, -4397.41, -3688.05, 0.000, 0.000, 0.000, 17:33:02.352
153, -3876.20, -4422.56, -4253.71, -3549.15, 0.000, 0.000, 0.000, 17:33:02.367
154, -3991.20, -4553.66, -4399.64, -3708.42, 0.000, 0.000, 0.000, 17:33:02.367
155, -4143.48, -4710.00, -4537.50, -3848.59, 0.000, 0.000, 0.000, 17:33:02.367
156, -4010.91, -4549.44, -4385.19, -3683.55, 0.000, 0.000, 0.000, 17:33:02.367
157, -3862.56, -4395.29, -4236.25, -3541.22, 0.000, 0.000, 0.000, 17:33:02.383
158, -3986.33, -4549.18, -4406.67, -3709.84, 0.000, 0.000, 0.000, 17:33:02.383
159, -4143.48, -4702.91, -4543.85, -3843.57, 0.000, 0.000, 0.000, 17:33:02.397
160, -4008.35, -4544.93, -4385.11, -3670.51, 0.000, 0.000, 0.000, 17:33:02.397
161, -3864.23, -4400.60, -4233.02, -3541.69, 0.000, 0.000, 0.000, 17:33:02.398
162, -3998.65, -4561.76, -4405.17, -3702.25, 0.000, 0.000, 0.000, 17:33:02.398
163, -4151.72, -4715.66, -4560.25, -3845.84, 0.000, 0.000, 0.000, 17:33:02.412
164, -4006.21, -4551.90, -4395.98, -3684.40, 0.000, 0.000, 0.000, 17:33:02.412
165, -3861.19, -4397.04, -4234.35, -3532.80, 0.000, 0.000, 0.000, 17:33:02.426
166, -3983.90, -4570.28, -4396.37, -3711.06, 0.000, 0.000, 0.000, 17:33:02.426
167, -4141.38, -4715.77, -4547.99, -3838.17, 0.000, 0.000, 0.000, 17:33:02.427
168, -4010.09, -4549.47, -4378.29, -3674.68, 0.000, 0.000, 0.000, 17:33:02.427
169, -3860.96, -4393.99, -4234.50, -3537.65, 0.000, 0.000, 0.000, 17:33:02.441
170, -3998.61, -4560.61, -4406.60, -3708.14, 0.000, 0.000, 0.000, 17:33:02.441
171, -4150.95, -4698.07, -4553.54, -3842.37, 0.000, 0.000, 0.000, 17:33:02.456
172, -4018.95, -4555.61, -4389.68, -3685.31, 0.000, 0.000, 0.000, 17:33:02.456
173, -3878.02, -4416.47, -4251.65, -3546.76, 0.000, 0.000, 0.000, 17:33:02.456
174, -3992.30, -4569.53, -4402.27, -3707.31, 0.000, 0.000, 0.000, 17:33:02.457
175, -4134.58, -4691.55, -4533.39, -3827.37, 0.000, 0.000, 0.000, 17:33:02.472
176, -4003.15, -4542.08, -4388.41, -3669.05, 0.000, 0.000, 0.000, 17:33:02.472
177, -3867.80, -4403.69, -4244.20, -3543.18, 0.000, 0.000, 0.000, 17:33:02.487
178, -4007.03, -4570.58, -4415.88, -3707.25, 0.000, 0.000, 0.000, 17:33:02.487
179, -4147.22, -4697.32, -4545.18, -3831.09, 0.000, 0.000, 0.000, 17:33:02.487
180, -4001.43, -4548.43, -4400.03, -3674.87, 0.000, 0.000, 0.000, 17:33:02.487
181, -3871.38, -4400.34, -4248.38, -3538.53, 0.000, 0.000, 0.000, 17:33:02.502
182, -4010.44, -4569.29, -4428.39, -3713.22, 0.000, 0.000, 0.000, 17:33:02.502
183, -4147.62, -4708.09, -4550.70, -3836.53, 0.000, 0.000, 0.000, 17:33:02.517
184, -4014.28, -4568.77, -4402.59, -3666.68, 0.000, 0.000, 0.000, 17:33:02.517
185, -3868.22, -4420.21, -4237.24, -3548.20, 0.000, 0.000, 0.000, 17:33:02.517
186, -4007.12, -4565.31, -4414.09, -3718.85, 0.000, 0.000, 0.000, 17:33:02.517
187, -4150.18, -4697.83, -4550.62, -3847.43, 0.000, 0.000, 0.000, 17:33:02.548
188, -3994.61, -4538.57, -4378.30, -3654.65, 0.000, 0.000, 0.000, 17:33:02.548
189, -3860.29, -4395.09, -4240.50, -3530.17, 0.000, 0.000, 0.000, 17:33:02.549
190, -4013.51, -4581.78, -4416.29, -3723.81, 0.000, 0.000, 0.000, 17:33:02.549
191, -4142.75, -4700.90, -4544.56, -3830.15, 0.000, 0.000, 0.000, 17:33:02.550
192, -4009.35, -4544.04, -4381.55, -3680.37, 0.000, 0.000, 0.000, 17:33:02.550
193, -3872.15, -4398.71, -4239.45, -3532.44, 0.000, 0.000, 0.000, 17:33:02.561
194, -4006.97, -4564.84, -4423.62, -3715.96, 0.000, 0.000, 0.000, 17:33:02.562
195, -4151.37, -4698.21, -4553.64, -3831.53, 0.000, 0.000, 0.000, 17:33:02.576
196, -4009.02, -4546.45, -4391.92, -3666.34, 0.000, 0.000, 0.000, 17:33:02.577
197, -3872.62, -4406.65, -4241.97, -3538.17, 0.000, 0.000, 0.000, 17:33:02.592
198, -4011.12, -4581.70, -4417.04, -3723.43, 0.000, 0.000, 0.000, 17:33:02.592
199, -4146.13, -4687.59, -4559.14, -3831.41, 0.000, 0.000, 0.000, 17:33:02.592
200, -4000.33, -4519.85, -4377.53, -3673.08, 0.000, 0.000, 0.000, 17:33:02.592
0, -3852.59, -4390.88, -4235.79, -3532.01, 0.000, 0.000, 0.000, 17:33:02.593
1, -3996.04, -4567.55, -4407.06, -3713.05, 0.000, 0.000, 0.000, 17:33:02.607
2, -4137.39, -4693.63, -4543.28, -3840.94, 0.000, 0.000, 0.000, 17:33:02.607
3, -3999.70, -4526.00, -4374.10, -3662.39, 0.000, 0.000, 0.000, 17:33:02.622
4, -3861.86, -4389.60, -4230.96, -3530.55, 0.000, 0.000, 0.000, 17:33:02.622
5, -4005.74, -4563.27, -4422.24, -3725.11, 0.000, 0.000, 0.000, 17:33:02.622
6, -4131.38, -4692.63, -4521.24, -3830.55, 0.000, 0.000, 0.000, 17:33:02.622
7, -3982.51, -4523.29, -4361.88, -3656.55, 0.000, 0.000, 0.000, 17:33:02.636
8, -3842.28, -4381.45, -4213.86, -3517.22, 0.000, 0.000, 0.000, 17:33:02.636
9, -3993.27, -4566.01, -4402.87, -3714.55, 0.000, 0.000, 0.000, 17:33:02.652
10, -4133.72, -4689.22, -4523.79, -3823.64, 0.000, 0.000, 0.000, 17:33:02.652
11, -3998.70, -4536.87, -4381.29, -3663.57, 0.000, 0.000, 0.000, 17:33:02.652
12, -3873.30, -4412.00, -4254.87, -3541.06, 0.000, 0.000, 0.000, 17:33:02.652
13, -4021.57, -4589.96, -4432.60, -3724.78, 0.000, 0.000, 0.000, 17:33:02.668
14, -4155.81, -4719.29, -4552.84, -3841.73, 0.000, 0.000, 0.000, 17:33:02.668
15, -4014.96, -4554.20, -4398.23, -3678.54, 0.000, 0.000, 0.000, 17:33:02.682
16, -3877.15, -4413.12, -4258.06, -3542.65, 0.000, 0.000, 0.000, 17:33:02.682
17, -4013.45, -4586.19, -4430.00, -3725.03, 0.000, 0.000, 0.000, 17:33:02.683
18, -4137.83, -4704.19, -4526.80, -3825.68, 0.000, 0.000, 0.000, 17:33:02.683
19, -4000.71, -4539.23, -4382.90, -3666.34, 0.000, 0.000, 0.000, 17:33:02.697
20, -3856.28, -4391.92, -4237.22, -3533.61, 0.000, 0.000, 0.000, 17:33:02.697
21, -4009.23, -4568.70, -4412.62, -3723.73, 0.000, 0.000, 0.000, 17:33:02.711
22, -4138.77, -4695.81, -4539.66, -3827.74, 0.000, 0.000, 0.000, 17:33:02.711
23, -4000.33, -4560.06, -4385.74, -3662.38, 0.000, 0.000, 0.000, 17:33:02.712
24, -3860.00, -4384.90, -4233.39, -3534.33, 0.000, 0.000, 0.000, 17:33:02.712
25, -4013.37, -4577.27, -4422.66, -3728.77, 0.000, 0.000, 0.000, 17:33:02.726
26, -4151.95, -4698.73, -4540.52, -3831.51, 0.000, 0.000, 0.000, 17:33:02.726
27, -4016.56, -4550.87, -4387.01, -3676.37, 0.000, 0.000, 0.000, 17:33:02.756
28, -3867.93, -4397.03, -4237.91, -3534.10, 0.000, 0.000, 0.000, 17:33:02.756
29, -4019.79, -4566.83, -4427.11, -3733.59, 0.000, 0.000, 0.000, 17:33:02.757
30, -4146.99, -4694.40, -4541.75, -3828.36, 0.000, 0.000, 0.000, 17:33:02.757
31, -3998.16, -4532.24, -4383.36, -3666.66, 0.000, 0.000, 0.000, 17:33:02.758
32, -3868.54, -4405.73, -4243.60, -3536.71, 0.000, 0.000, 0.000, 17:33:02.758
33, -4022.42, -4593.98, -4436.07, -3739.91, 0.000, 0.000, 0.000, 17:33:02.771
34, -4144.63, -4696.50, -4541.03, -3837.77, 0.000, 0.000, 0.000, 17:33:02.771
35, -3995.43, -4539.31, -4385.49, -3667.93, 0.000, 0.000, 0.000, 17:33:02.772
36, -3853.13, -4386.01, -4242.34, -3538.61, 0.000, 0.000, 0.000, 17:33:02.772
37, -4016.68, -4574.38, -4409.99, -3728.45, 0.000, 0.000, 0.000, 17:33:02.786
38, -4141.08, -4696.98, -4521.95, -3835.63, 0.000, 0.000, 0.000, 17:33:02.786
39, -4009.46, -4541.95, -4376.09, -3667.04, 0.000, 0.000, 0.000, 17:33:02.802
40, -3869.71, -4414.92, -4239.45, -3536.33, 0.000, 0.000, 0.000, 17:33:02.802
41, -4028.91, -4589.09, -4441.81, -3731.90, 0.000, 0.000, 0.000, 17:33:02.803
42, -4147.54, -4709.23, -4534.21, -3828.80, 0.000, 0.000, 0.000, 17:33:02.803
43, -3997.91, -4550.87, -4376.34, -3663.55, 0.000, 0.000, 0.000, 17:33:02.817
44, -3860.46, -4406.39, -4252.00, -3547.04, 0.000, 0.000, 0.000, 17:33:02.817
45, -4019.02, -4586.65, -4430.06, -3741.15, 0.000, 0.000, 0.000, 17:33:02.831
46, -4141.54, -4709.17, -4543.40, -3830.94, 0.000, 0.000, 0.000, 17:33:02.832
47, -4001.65, -4537.19, -4374.80, -3667.85, 0.000, 0.000, 0.000, 17:33:02.832
48, -3865.82, -4397.09, -4234.79, -3541.74, 0.000, 0.000, 0.000, 17:33:02.832
49, -4016.22, -4592.07, -4426.35, -3737.75, 0.000, 0.000, 0.000, 17:33:02.847
50, -4141.73, -4696.73, -4542.52, -3832.95, 0.000, 0.000, 0.000, 17:33:02.847
51, -3995.57, -4545.96, -4388.39, -3660.71, 0.000, 0.000, 0.000, 17:33:02.863
52, -3858.05, -4408.74, -4249.45, -3535.08, 0.000, 0.000, 0.000, 17:33:02.863
53, -4006.86, -4580.50, -4424.31, -3729.00, 0.000, 0.000, 0.000, 17:33:02.863
54, -4136.28, -4690.47, -4521.99, -3811.67, 0.000, 0.000, 0.000, 17:33:02.863
55, -3988.49, -4530.03, -4371.10, -3650.82, 0.000, 0.000, 0.000, 17:33:02.876
56, -3850.55, -4387.34, -4247.95, -3526.48, 0.000, 0.000, 0.000, 17:33:02.877
57, -4023.94, -4601.88, -4435.91, -3731.70, 0.000, 0.000, 0.000, 17:33:02.891
58, -4143.14, -4698.36, -4536.37, -3819.08, 0.000, 0.000, 0.000, 17:33:02.891
59, -3992.89, -4530.66, -4372.00, -3655.81, 0.000, 0.000, 0.000, 17:33:02.892
60, -3864.73, -4405.45, -4254.38, -3538.60, 0.000, 0.000, 0.000, 17:33:02.892
61, -4017.36, -4586.31, -4429.96, -3729.59, 0.000, 0.000, 0.000, 17:33:02.906
62, -4134.95, -4694.30, -4530.91, -3826.88, 0.000, 0.000, 0.000, 17:33:02.906
63, -3996.15, -4533.35, -4378.32, -3666.56, 0.000, 0.000, 0.000, 17:33:02.921
64, -3858.72, -4397.00, -4231.67, -3540.69, 0.000, 0.000, 0.000, 17:33:02.921
65, -4025.01, -4595.63, -4444.82, -3752.82, 0.000, 0.000, 0.000, 17:33:02.922
66, -4151.77, -4716.25, -4552.10, -3843.29, 0.000, 0.000, 0.000, 17:33:02.922
67, -3999.97, -4550.06, -4384.64, -3665.75, 0.000, 0.000, 0.000, 17:33:02.937
68, -3847.56, -4396.25, -4229.65, -3525.16, 0.000, 0.000, 0.000, 17:33:02.937
69, -4015.80, -4587.75, -4430.14, -3734.37, 0.000, 0.000, 0.000, 17:33:02.952
70, -4135.77, -4700.81, -4536.80, -3827.88, 0.000, 0.000, 0.000, 17:33:02.952
71, -4006.61, -4545.41, -4375.22, -3666.65, 0.000, 0.000, 0.000, 17:33:02.952
72, -3864.95, -4391.13, -4241.25, -3539.98, 0.000, 0.000, 0.000, 17:33:02.952
73, -4022.91, -4604.42, -4436.52, -3742.49, 0.000, 0.000, 0.000, 17:33:02.967
74, -4138.89, -4692.57, -4527.88, -3818.50, 0.000, 0.000, 0.000, 17:33:02.967
75, -3998.50, -4537.67, -4377.82, -3659.12, 0.000, 0.000, 0.000, 17:33:02.982
76, -3860.83, -4394.05, -4243.56, -3535.19, 0.000, 0.000, 0.000, 17:33:02.982
77, -4017.62, -4595.87, -4441.73, -3740.52, 0.000, 0.000, 0.000, 17:33:02.982
78, -4144.19, -4680.84, -4524.44, -3831.58, 0.000, 0.000, 0.000, 17:33:02.982
79, -4000.46, -4524.62, -4374.84, -3664.86, 0.000, 0.000, 0.000, 17:33:02.996
80, -3862.49, -4396.66, -4240.79, -3539.43, 0.000, 0.000, 0.000, 17:33:02.997
81, -4041.83, -4614.19, -4451.86, -3756.12, 0.000, 0.000, 0.000, 17:33:03.011
82, -4138.58, -4701.02, -4539.56, -3833.75, 0.000, 0.000, 0.000, 17:33:03.012
83, -3997.94, -4545.48, -4377.29, -3660.97, 0.000, 0.000, 0.000, 17:33:03.012
84, -3874.25, -4418.19, -4264.48, -3548.83, 0.000, 0.000, 0.000, 17:33:03.012
85, -4042.42, -4604.54, -4447.62, -3752.84, 0.000, 0.000, 0.000, 17:33:03.027
86, -4137.10, -4681.12, -4534.02, -3826.17, 0.000, 0.000, 0.000, 17:33:03.027
87, -3984.44, -4524.10, -4370.64, -3656.48, 0.000, 0.000, 0.000, 17:33:03.042
88, -3862.18, -4395.40, -4234.81, -3531.28, 0.000, 0.000, 0.000, 17:33:03.042
89, -4022.58, -4596.71, -4434.78, -3742.36, 0.000, 0.000, 0.000, 17:33:03.042
90, -4133.72, -4683.93, -4530.62, -3822.20, 0.000, 0.000, 0.000, 17:33:03.042
91, -3989.40, -4528.41, -4378.93, -3654.31, 0.000, 0.000, 0.000, 17:33:03.064
92, -3864.78, -4405.66, -4250.65, -3535.95, 0.000, 0.000, 0.000, 17:33:03.064
93, -4044.20, -4614.86, -4455.09, -3747.53, 0.000, 0.000, 0.000, 17:33:03.071
94, -4144.39, -4695.93, -4527.79, -3820.11, 0.000, 0.000, 0.000, 17:33:03.071
95, -4001.40, -4531.96, -4371.81, -3657.72, 0.000, 0.000, 0.000, 17:33:03.086
96, -3869.29, -4402.39, -4247.92, -3545.91, 0.000, 0.000, 0.000, 17:33:03.086
97, -4031.13, -4611.13, -4449.63, -3755.14, 0.000, 0.000, 0.000, 17:33:03.102
98, -4133.45, -4697.34, -4537.17, -3822.51, 0.000, 0.000, 0.000, 17:33:03.102
99, -4000.12, -4541.56, -4368.81, -3657.31, 0.000, 0.000, 0.000, 17:33:03.102
100, -3855.55, -4391.19, -4240.71, -3530.26, 0.000, 0.000, 0.000, 17:33:03.102
