%OpenBCI Raw EEG Data
%
%Sample Rate = 200.0 Hz
%First Column = SampleIndex
%Last Column = Timestamp 
%Other Columns = EEG data in microvolts followed by Accel Data (in G) interleaved with Aux Data
0, -4522.02, -5032.98, -5040.02, -4256.70, 0.000, 0.000, 0.000, 17:40:30.857
1, -4375.43, -4840.00, -4859.91, -4088.85, 0.000, 0.000, 0.000, 17:40:30.857
2, -4176.93, -4642.58, -4656.33, -3878.57, 0.000, 0.000, 0.000, 17:40:30.857
3, -4273.42, -4766.51, -4789.85, -4025.79, 0.000, 0.000, 0.000, 17:40:30.872
4, -4489.88, -5008.55, -5001.15, -4240.80, 0.000, 0.000, 0.000, 17:40:30.872
5, -4348.74, -4840.68, -4839.61, -4064.83, 0.000, 0.000, 0.000, 17:40:30.872
6, -4131.77, -4610.04, -4624.44, -3856.82, 0.000, 0.000, 0.000, 17:40:30.873
7, -4222.82, -4734.13, -4761.62, -3992.31, 0.000, 0.000, 0.000, 17:40:30.888
8, -4458.33, -4978.70, -4985.52, -4218.90, 0.000, 0.000, 0.000, 17:40:30.888
9, -4306.13, -4797.75, -4799.45, -4048.03, 0.000, 0.000, 0.000, 17:40:30.902
10, -4113.93, -4607.79, -4610.86, -3848.13, 0.000, 0.000, 0.000, 17:40:30.902
11, -4188.85, -4729.87, -4717.32, -3972.32, 0.000, 0.000, 0.000, 17:40:30.902
12, -4384.64, -4935.27, -4936.01, -4178.79, 0.000, 0.000, 0.000, 17:40:30.902
13, -4273.94, -4812.85, -4802.31, -4026.01, 0.000, 0.000, 0.000, 17:40:30.918
14, -4058.37, -4574.46, -4593.59, -3813.97, 0.000, 0.000, 0.000, 17:40:30.918
15, -4138.46, -4724.11, -4735.15, -3934.29, 0.000, 0.000, 0.000, 17:40:30.932
16, -4373.63, -5002.75, -4971.42, -4156.01, 0.000, 0.000, 0.000, 17:40:30.932
17, -4205.44, -4834.62, -4806.51, -3977.38, 0.000, 0.000, 0.000, 17:40:30.933
18, -3996.22, -4622.01, -4608.42, -3752.37, 0.000, 0.000, 0.000, 17:40:30.933
19, -4059.33, -4743.32, -4722.14, -3860.23, 0.000, 0.000, 0.000, 17:40:30.948
20, -4295.60, -5012.92, -4988.06, -4105.53, 0.000, 0.000, 0.000, 17:40:30.948
21, -4163.66, -4838.69, -4819.24, -3928.88, 0.000, 0.000, 0.000, 17:40:30.962
22, -3986.32, -4664.84, -4655.25, -3741.39, 0.000, 0.000, 0.000, 17:40:30.962
23, -4060.31, -4782.47, -4765.35, -3846.43, 0.000, 0.000, 0.000, 17:40:30.963
24, -4302.37, -5038.47, -4996.67, -4085.36, 0.000, 0.000, 0.000, 17:40:30.963
25, -4176.56, -4842.71, -4844.24, -3894.78, 0.000, 0.000, 0.000, 17:40:30.977
26, -3984.84, -4661.87, -4658.67, -3738.52, 0.000, 0.000, 0.000, 17:40:30.977
27, -4086.98, -4785.53, -4785.87, -3864.65, 0.000, 0.000, 0.000, 17:40:30.992
28, -4355.58, -5039.44, -5040.56, -4104.55, 0.000, 0.000, 0.000, 17:40:30.993
29, -4217.30, -4840.75, -4861.44, -3935.93, 0.000, 0.000, 0.000, 17:40:30.993
30, -4005.87, -4609.10, -4639.52, -3728.72, 0.000, 0.000, 0.000, 17:40:30.993
31, -4098.49, -4738.58, -4748.26, -3840.58, 0.000, 0.000, 0.000, 17:40:31.022
32, -4344.74, -4980.42, -4985.54, -4093.34, 0.000, 0.000, 0.000, 17:40:31.022
33, -4225.44, -4830.86, -4837.52, -3948.73, 0.000, 0.000, 0.000, 17:40:31.022
34, -4025.26, -4592.56, -4618.45, -3738.96, 0.000, 0.000, 0.000, 17:40:31.022
35, -4128.93, -4723.54, -4746.00, -3871.45, 0.000, 0.000, 0.000, 17:40:31.023
36, -4378.73, -4974.62, -4980.33, -4121.97, 0.000, 0.000, 0.000, 17:40:31.023
37, -4260.11, -4808.88, -4819.06, -3965.51, 0.000, 0.000, 0.000, 17:40:31.038
38, -4048.42, -4595.21, -4616.64, -3778.13, 0.000, 0.000, 0.000, 17:40:31.038
39, -4120.20, -4710.70, -4733.88, -3876.80, 0.000, 0.000, 0.000, 17:40:31.052
40, -4360.90, -4939.19, -4956.53, -4102.26, 0.000, 0.000, 0.000, 17:40:31.052
41, -4265.42, -4795.67, -4804.63, -3973.46, 0.000, 0.000, 0.000, 17:40:31.052
42, -4061.51, -4570.46, -4601.38, -3772.53, 0.000, 0.000, 0.000, 17:40:31.052
43, -4143.55, -4680.23, -4716.79, -3891.88, 0.000, 0.000, 0.000, 17:40:31.068
44, -4395.00, -4934.97, -4956.34, -4133.53, 0.000, 0.000, 0.000, 17:40:31.068
45, -4267.08, -4755.16, -4808.82, -3984.92, 0.000, 0.000, 0.000, 17:40:31.082
46, -4063.69, -4553.74, -4577.50, -3796.34, 0.000, 0.000, 0.000, 17:40:31.082
47, -4131.30, -4641.53, -4691.95, -3906.92, 0.000, 0.000, 0.000, 17:40:31.090
48, -4384.70, -4898.16, -4925.81, -4149.53, 0.000, 0.000, 0.000, 17:40:31.090
49, -4275.20, -4735.37, -4780.97, -3984.31, 0.000, 0.000, 0.000, 17:40:31.098
50, -4091.89, -4564.70, -4591.75, -3807.69, 0.000, 0.000, 0.000, 17:40:31.098
51, -4155.30, -4674.56, -4698.16, -3926.54, 0.000, 0.000, 0.000, 17:40:31.113
52, -4382.24, -4911.17, -4915.42, -4155.28, 0.000, 0.000, 0.000, 17:40:31.113
53, -4287.59, -4763.11, -4786.42, -4012.72, 0.000, 0.000, 0.000, 17:40:31.113
54, -4085.56, -4545.09, -4584.66, -3811.61, 0.000, 0.000, 0.000, 17:40:31.113
55, -4179.17, -4686.49, -4717.03, -3934.89, 0.000, 0.000, 0.000, 17:40:31.127
56, -4413.41, -4922.70, -4952.24, -4180.48, 0.000, 0.000, 0.000, 17:40:31.127
57, -4286.24, -4770.60, -4791.69, -4036.28, 0.000, 0.000, 0.000, 17:40:31.142
58, -4093.23, -4537.40, -4589.84, -3823.45, 0.000, 0.000, 0.000, 17:40:31.142
59, -4149.02, -4638.72, -4682.69, -3927.49, 0.000, 0.000, 0.000, 17:40:31.143
60, -4385.01, -4869.91, -4911.69, -4158.16, 0.000, 0.000, 0.000, 17:40:31.143
61, -4269.92, -4713.89, -4765.51, -4009.92, 0.000, 0.000, 0.000, 17:40:31.158
62, -4069.57, -4514.04, -4570.22, -3806.80, 0.000, 0.000, 0.000, 17:40:31.158
63, -4187.71, -4656.81, -4715.59, -3963.30, 0.000, 0.000, 0.000, 17:40:31.187
64, -4420.64, -4906.88, -4957.16, -4195.92, 0.000, 0.000, 0.000, 17:40:31.187
65, -4273.00, -4730.46, -4782.13, -4007.75, 0.000, 0.000, 0.000, 17:40:31.188
66, -4046.76, -4488.08, -4535.40, -3802.67, 0.000, 0.000, 0.000, 17:40:31.188
67, -4136.93, -4634.53, -4657.24, -3942.20, 0.000, 0.000, 0.000, 17:40:31.189
68, -4374.51, -4848.96, -4893.84, -4159.77, 0.000, 0.000, 0.000, 17:40:31.189
69, -4259.83, -4678.51, -4736.68, -3995.32, 0.000, 0.000, 0.000, 17:40:31.189
70, -4089.54, -4517.83, -4582.22, -3817.76, 0.000, 0.000, 0.000, 17:40:31.189
71, -4158.46, -4654.79, -4693.65, -3941.65, 0.000, 0.000, 0.000, 17:40:31.202
72, -4391.72, -4901.89, -4926.36, -4187.64, 0.000, 0.000, 0.000, 17:40:31.202
73, -4251.23, -4731.99, -4755.96, -4000.22, 0.000, 0.000, 0.000, 17:40:31.218
74, -4050.25, -4500.31, -4541.76, -3805.29, 0.000, 0.000, 0.000, 17:40:31.218
75, -4130.29, -4606.86, -4657.08, -3927.00, 0.000, 0.000, 0.000, 17:40:31.233
76, -4384.74, -4868.06, -4910.49, -4166.82, 0.000, 0.000, 0.000, 17:40:31.233
77, -4227.22, -4693.61, -4734.89, -3987.20, 0.000, 0.000, 0.000, 17:40:31.233
78, -4062.31, -4530.80, -4566.97, -3818.79, 0.000, 0.000, 0.000, 17:40:31.233
79, -4139.10, -4616.30, -4664.91, -3932.33, 0.000, 0.000, 0.000, 17:40:31.248
80, -4378.21, -4879.73, -4917.14, -4177.53, 0.000, 0.000, 0.000, 17:40:31.248
81, -4258.71, -4721.65, -4768.74, -4024.53, 0.000, 0.000, 0.000, 17:40:31.262
82, -4074.72, -4539.61, -4588.38, -3805.88, 0.000, 0.000, 0.000, 17:40:31.262
83, -4130.52, -4620.14, -4683.14, -3890.71, 0.000, 0.000, 0.000, 17:40:31.263
84, -4353.69, -4867.13, -4889.87, -4127.53, 0.000, 0.000, 0.000, 17:40:31.263
85, -4246.10, -4711.65, -4764.57, -3989.70, 0.000, 0.000, 0.000, 17:40:31.277
86, -4068.20, -4540.88, -4571.17, -3815.29, 0.000, 0.000, 0.000, 17:40:31.277
87, -4129.19, -4629.04, -4665.07, -3910.03, 0.000, 0.000, 0.000, 17:40:31.292
88, -4375.58, -4883.87, -4913.15, -4156.28, 0.000, 0.000, 0.000, 17:40:31.292
89, -4235.06, -4714.42, -4749.07, -3980.51, 0.000, 0.000, 0.000, 17:40:31.293
90, -4060.75, -4517.04, -4578.50, -3808.88, 0.000, 0.000, 0.000, 17:40:31.293
91, -4122.39, -4616.01, -4656.81, -3911.72, 0.000, 0.000, 0.000, 17:40:31.308
92, -4372.38, -4870.49, -4903.94, -4152.91, 0.000, 0.000, 0.000, 17:40:31.308
93, -4254.17, -4711.65, -4761.24, -3992.08, 0.000, 0.000, 0.000, 17:40:31.322
94, -4056.16, -4516.93, -4563.77, -3789.70, 0.000, 0.000, 0.000, 17:40:31.322
95, -4119.73, -4607.73, -4654.46, -3908.80, 0.000, 0.000, 0.000, 17:40:31.323
96, -4384.26, -4882.46, -4919.44, -4167.66, 0.000, 0.000, 0.000, 17:40:31.323
97, -4263.46, -4739.49, -4765.59, -4004.05, 0.000, 0.000, 0.000, 17:40:31.337
98, -4041.59, -4512.49, -4550.82, -3797.11, 0.000, 0.000, 0.000, 17:40:31.337
99, -4125.49, -4637.54, -4670.82, -3916.35, 0.000, 0.000, 0.000, 17:40:31.352
100, -4380.37, -4898.59, -4930.72, -4148.87, 0.000, 0.000, 0.000, 17:40:31.352
101, -4255.09, -4733.90, -4753.75, -4000.23, 0.000, 0.000, 0.000, 17:40:31.353
102, -4061.23, -4525.76, -4559.96, -3811.85, 0.000, 0.000, 0.000, 17:40:31.353
103, -4121.23, -4621.07, -4652.39, -3911.00, 0.000, 0.000, 0.000, 17:40:31.368
104, -4385.24, -4893.11, -4910.98, -4160.32, 0.000, 0.000, 0.000, 17:40:31.368
105, -4263.58, -4755.97, -4775.61, -4022.77, 0.000, 0.000, 0.000, 17:40:31.383
106, -4074.08, -4553.11, -4569.63, -3822.64, 0.000, 0.000, 0.000, 17:40:31.383
107, -4145.80, -4654.54, -4672.88, -3929.53, 0.000, 0.000, 0.000, 17:40:31.383
108, -4393.80, -4931.53, -4920.17, -4176.75, 0.000, 0.000, 0.000, 17:40:31.383
109, -4275.08, -4778.04, -4801.55, -4022.63, 0.000, 0.000, 0.000, 17:40:31.397
110, -4071.25, -4534.78, -4570.61, -3807.40, 0.000, 0.000, 0.000, 17:40:31.397
111, -4157.65, -4658.17, -4679.39, -3947.50, 0.000, 0.000, 0.000, 17:40:31.413
112, -4390.53, -4932.90, -4919.13, -4189.78, 0.000, 0.000, 0.000, 17:40:31.413
113, -4264.08, -4783.03, -4792.44, -4030.33, 0.000, 0.000, 0.000, 17:40:31.414
114, -4078.63, -4570.47, -4573.29, -3829.42, 0.000, 0.000, 0.000, 17:40:31.414
115, -4149.60, -4667.08, -4673.60, -3927.57, 0.000, 0.000, 0.000, 17:40:31.427
116, -4398.43, -4936.70, -4932.25, -4186.06, 0.000, 0.000, 0.000, 17:40:31.427
117, -4253.67, -4744.38, -4752.56, -4010.16, 0.000, 0.000, 0.000, 17:40:31.443
118, -4065.94, -4567.10, -4577.46, -3826.13, 0.000, 0.000, 0.000, 17:40:31.443
119, -4158.70, -4690.05, -4686.14, -3939.53, 0.000, 0.000, 0.000, 17:40:31.443
120, -4408.84, -4958.20, -4947.47, -4197.00, 0.000, 0.000, 0.000, 17:40:31.443
121, -4311.93, -4833.96, -4811.68, -4058.38, 0.000, 0.000, 0.000, 17:40:31.457
122, -4114.21, -4628.34, -4624.56, -3848.96, 0.000, 0.000, 0.000, 17:40:31.458
123, -4155.22, -4697.53, -4704.59, -3938.00, 0.000, 0.000, 0.000, 17:40:31.472
124, -4406.00, -4997.51, -4961.86, -4182.51, 0.000, 0.000, 0.000, 17:40:31.472
125, -4297.93, -4864.22, -4822.82, -4044.63, 0.000, 0.000, 0.000, 17:40:31.472
126, -4096.40, -4633.47, -4626.56, -3839.38, 0.000, 0.000, 0.000, 17:40:31.473
127, -4138.59, -4732.56, -4708.15, -3914.90, 0.000, 0.000, 0.000, 17:40:31.488
128, -4381.96, -4987.79, -4939.06, -4172.83, 0.000, 0.000, 0.000, 17:40:31.488
129, -4254.43, -4803.34, -4786.22, -4031.81, 0.000, 0.000, 0.000, 17:40:31.502
130, -4086.19, -4599.09, -4596.76, -3837.52, 0.000, 0.000, 0.000, 17:40:31.502
131, -4129.92, -4694.32, -4682.93, -3920.51, 0.000, 0.000, 0.000, 17:40:31.502
132, -4379.36, -4942.80, -4927.79, -4165.66, 0.000, 0.000, 0.000, 17:40:31.502
133, -4255.42, -4787.17, -4772.95, -4012.39, 0.000, 0.000, 0.000, 17:40:31.517
134, -4086.49, -4605.43, -4592.93, -3824.62, 0.000, 0.000, 0.000, 17:40:31.517
135, -4147.40, -4698.46, -4696.70, -3933.12, 0.000, 0.000, 0.000, 17:40:31.533
136, -4405.48, -4978.61, -4944.91, -4188.27, 0.000, 0.000, 0.000, 17:40:31.533
137, -4243.85, -4739.04, -4763.72, -4003.93, 0.000, 0.000, 0.000, 17:40:31.539
138, -4047.12, -4536.56, -4544.06, -3811.98, 0.000, 0.000, 0.000, 17:40:31.539
139, -4103.44, -4634.46, -4655.70, -3912.61, 0.000, 0.000, 0.000, 17:40:31.548
140, -4380.66, -4928.74, -4921.70, -4176.78, 0.000, 0.000, 0.000, 17:40:31.548
141, -4270.77, -4798.65, -4803.08, -4013.99, 0.000, 0.000, 0.000, 17:40:31.592
142, -4078.28, -4560.45, -4589.33, -3820.27, 0.000, 0.000, 0.000, 17:40:31.592
143, -4132.53, -4667.97, -4672.59, -3922.00, 0.000, 0.000, 0.000, 17:40:31.593
144, -4394.05, -4946.18, -4939.62, -4190.09, 0.000, 0.000, 0.000, 17:40:31.593
145, -4270.66, -4776.56, -4787.49, -4028.41, 0.000, 0.000, 0.000, 17:40:31.594
146, -4049.30, -4551.88, -4570.96, -3803.56, 0.000, 0.000, 0.000, 17:40:31.594
147, -4119.97, -4649.14, -4674.49, -3922.18, 0.000, 0.000, 0.000, 17:40:31.595
148, -4373.00, -4908.18, -4920.52, -4166.05, 0.000, 0.000, 0.000, 17:40:31.595
149, -4275.95, -4758.62, -4782.05, -4023.78, 0.000, 0.000, 0.000, 17:40:31.595
150, -4064.65, -4558.32, -4583.89, -3815.99, 0.000, 0.000, 0.000, 17:40:31.595
151, -4122.25, -4642.19, -4687.41, -3913.81, 0.000, 0.000, 0.000, 17:40:31.607
152, -4373.36, -4909.81, -4931.71, -4169.92, 0.000, 0.000, 0.000, 17:40:31.607
153, -4260.03, -4753.27, -4770.68, -4021.78, 0.000, 0.000, 0.000, 17:40:31.638
154, -4063.29, -4531.17, -4560.92, -3823.29, 0.000, 0.000, 0.000, 17:40:31.638
155, -4130.08, -4644.40, -4657.84, -3910.29, 0.000, 0.000, 0.000, 17:40:31.638
156, -4382.91, -4881.54, -4932.76, -4175.88, 0.000, 0.000, 0.000, 17:40:31.638
157, -4251.13, -4728.64, -4761.48, -4021.16, 0.000, 0.000, 0.000, 17:40:31.639
158, -4082.87, -4535.97, -4578.56, -3831.47, 0.000, 0.000, 0.000, 17:40:31.639
159, -4112.77, -4606.63, -4649.27, -3914.13, 0.000, 0.000, 0.000, 17:40:31.639
160, -4369.27, -4900.50, -4912.16, -4162.94, 0.000, 0.000, 0.000, 17:40:31.640
161, -4261.15, -4758.86, -4767.56, -4024.92, 0.000, 0.000, 0.000, 17:40:31.653
162, -4062.31, -4528.23, -4568.19, -3809.22, 0.000, 0.000, 0.000, 17:40:31.653
163, -4114.62, -4624.95, -4663.98, -3893.61, 0.000, 0.000, 0.000, 17:40:31.668
164, -4375.89, -4900.60, -4931.50, -4175.66, 0.000, 0.000, 0.000, 17:40:31.669
165, -4255.90, -4759.88, -4778.51, -4016.60, 0.000, 0.000, 0.000, 17:40:31.698
166, -4069.67, -4532.15, -4577.21, -3815.72, 0.000, 0.000, 0.000, 17:40:31.698
167, -4102.62, -4594.71, -4640.73, -3887.39, 0.000, 0.000, 0.000, 17:40:31.698
168, -4386.48, -4904.50, -4925.09, -4174.84, 0.000, 0.000, 0.000, 17:40:31.698
169, -4297.01, -4785.61, -4822.15, -4043.05, 0.000, 0.000, 0.000, 17:40:31.699
170, -4083.97, -4559.91, -4604.46, -3833.95, 0.000, 0.000, 0.000, 17:40:31.699
171, -4107.33, -4622.99, -4651.69, -3911.63, 0.000, 0.000, 0.000, 17:40:31.712
172, -4346.65, -4851.85, -4887.64, -4157.93, 0.000, 0.000, 0.000, 17:40:31.713
173, -4236.45, -4703.39, -4742.51, -4016.65, 0.000, 0.000, 0.000, 17:40:31.713
174, -4044.91, -4489.36, -4538.12, -3821.57, 0.000, 0.000, 0.000, 17:40:31.713
175, -4112.18, -4606.22, -4643.80, -3919.45, 0.000, 0.000, 0.000, 17:40:31.727
176, -4389.87, -4899.97, -4924.97, -4180.52, 0.000, 0.000, 0.000, 17:40:31.727
177, -4265.83, -4762.60, -4771.87, -4047.88, 0.000, 0.000, 0.000, 17:40:31.742
178, -4061.00, -4528.22, -4564.69, -3843.71, 0.000, 0.000, 0.000, 17:40:31.742
179, -4119.64, -4617.14, -4653.78, -3914.78, 0.000, 0.000, 0.000, 17:40:31.757
180, -4385.34, -4899.15, -4919.03, -4182.77, 0.000, 0.000, 0.000, 17:40:31.757
181, -4270.75, -4762.15, -4778.90, -4025.59, 0.000, 0.000, 0.000, 17:40:31.757
182, -4061.24, -4507.20, -4552.73, -3825.61, 0.000, 0.000, 0.000, 17:40:31.757
183, -4122.05, -4624.08, -4669.82, -3912.34, 0.000, 0.000, 0.000, 17:40:31.772
184, -4370.40, -4885.17, -4901.05, -4163.00, 0.000, 0.000, 0.000, 17:40:31.772
185, -4260.60, -4749.90, -4770.84, -4021.87, 0.000, 0.000, 0.000, 17:40:31.773
186, -4060.36, -4533.80, -4571.00, -3826.97, 0.000, 0.000, 0.000, 17:40:31.773
187, -4130.74, -4634.17, -4680.39, -3915.09, 0.000, 0.000, 0.000, 17:40:31.787
188, -4378.79, -4911.45, -4922.97, -4173.86, 0.000, 0.000, 0.000, 17:40:31.787
189, -4253.31, -4757.41, -4778.32, -4024.89, 0.000, 0.000, 0.000, 17:40:31.802
190, -4052.83, -4512.82, -4561.83, -3809.98, 0.000, 0.000, 0.000, 17:40:31.803
191, -4103.81, -4611.03, -4637.27, -3902.93, 0.000, 0.000, 0.000, 17:40:31.803
192, -4371.32, -4898.90, -4917.72, -4158.37, 0.000, 0.000, 0.000, 17:40:31.803
193, -4267.96, -4778.59, -4788.99, -4023.77, 0.000, 0.000, 0.000, 17:40:31.818
194, -4076.33, -4549.89, -4575.43, -3831.93, 0.000, 0.000, 0.000, 17:40:31.818
195, -4103.33, -4614.99, -4634.99, -3892.45, 0.000, 0.000, 0.000, 17:40:31.832
196, -4365.90, -4883.95, -4921.96, -4170.17, 0.000, 0.000, 0.000, 17:40:31.832
197, -4246.67, -4739.60, -4750.23, -4023.99, 0.000, 0.000, 0.000, 17:40:31.833
198, -4057.14, -4517.74, -4559.72, -3817.47, 0.000, 0.000, 0.000, 17:40:31.833
199, -4115.96, -4634.96, -4641.14, -3894.76, 0.000, 0.000, 0.000, 17:40:31.848
200, -4384.32, -4922.87, -4914.23, -4171.40, 0.000, 0.000, 0.000, 17:40:31.848
0, -4268.72, -4759.41, -4788.56, -4016.62, 0.000, 0.000, 0.000, 17:40:31.849
1, -4084.41, -4561.94, -4602.31, -3839.84, 0.000, 0.000, 0.000, 17:40:31.862
2, -4094.49, -4604.11, -4645.68, -3887.76, 0.000, 0.000, 0.000, 17:40:31.862
3, -4374.76, -4922.04, -4924.20, -4152.33, 0.000, 0.000, 0.000, 17:40:31.877
4, -4249.74, -4757.76, -4774.97, -4012.61, 0.000, 0.000, 0.000, 17:40:31.877
5, -4076.66, -4555.59, -4587.96, -3824.38, 0.000, 0.000, 0.000, 17:40:31.877
6, -4119.37, -4614.94, -4656.27, -3913.01, 0.000, 0.000, 0.000, 17:40:31.877
7, -4366.29, -4899.80, -4912.17, -4169.21, 0.000, 0.000, 0.000, 17:40:31.893
8, -4250.59, -4760.99, -4775.01, -4022.57, 0.000, 0.000, 0.000, 17:40:31.893
9, -4064.04, -4544.03, -4577.86, -3805.19, 0.000, 0.000, 0.000, 17:40:31.907
10, -4113.13, -4633.37, -4651.79, -3896.81, 0.000, 0.000, 0.000, 17:40:31.907
11, -4375.40, -4900.97, -4923.28, -4161.36, 0.000, 0.000, 0.000, 17:40:31.908
12, -4275.72, -4765.81, -4786.88, -4032.60, 0.000, 0.000, 0.000, 17:40:31.908
13, -4079.85, -4580.87, -4595.41, -3826.68, 0.000, 0.000, 0.000, 17:40:31.922
14, -4120.47, -4644.16, -4660.24, -3892.52, 0.000, 0.000, 0.000, 17:40:31.922
15, -4375.07, -4908.84, -4907.08, -4150.80, 0.000, 0.000, 0.000, 17:40:31.937
16, -4230.73, -4732.64, -4762.82, -4014.16, 0.000, 0.000, 0.000, 17:40:31.937
17, -4053.33, -4539.06, -4564.00, -3813.59, 0.000, 0.000, 0.000, 17:40:31.945
18, -4097.51, -4630.00, -4643.80, -3879.13, 0.000, 0.000, 0.000, 17:40:31.945
19, -4380.80, -4900.01, -4910.11, -4167.83, 0.000, 0.000, 0.000, 17:40:31.968
20, -4262.44, -4750.75, -4779.95, -4021.69, 0.000, 0.000, 0.000, 17:40:31.969
21, -4067.45, -4549.63, -4586.26, -3819.41, 0.000, 0.000, 0.000, 17:40:31.969
22, -4108.18, -4628.79, -4648.91, -3902.68, 0.000, 0.000, 0.000, 17:40:31.969
23, -4383.39, -4931.44, -4937.31, -4192.45, 0.000, 0.000, 0.000, 17:40:31.969
24, -4293.48, -4792.52, -4817.02, -4014.78, 0.000, 0.000, 0.000, 17:40:31.969
25, -4099.55, -4573.15, -4602.73, -3824.50, 0.000, 0.000, 0.000, 17:40:31.982
26, -4105.38, -4599.87, -4630.02, -3894.94, 0.000, 0.000, 0.000, 17:40:31.982
27, -4364.93, -4886.89, -4894.90, -4179.18, 0.000, 0.000, 0.000, 17:40:31.998
28, -4248.73, -4746.23, -4766.90, -4021.58, 0.000, 0.000, 0.000, 17:40:31.998
29, -4076.54, -4562.92, -4571.65, -3829.87, 0.000, 0.000, 0.000, 17:40:31.998
30, -4117.13, -4647.51, -4653.50, -3896.74, 0.000, 0.000, 0.000, 17:40:31.998
31, -4368.56, -4893.11, -4903.39, -4181.84, 0.000, 0.000, 0.000, 17:40:32.013
32, -4276.84, -4761.26, -4770.68, -4029.26, 0.000, 0.000, 0.000, 17:40:32.013
33, -4086.48, -4565.42, -4585.39, -3847.17, 0.000, 0.000, 0.000, 17:40:32.028
34, -4118.65, -4658.46, -4657.99, -3905.23, 0.000, 0.000, 0.000, 17:40:32.028
35, -4387.07, -4947.49, -4931.89, -4180.78, 0.000, 0.000, 0.000, 17:40:32.029
36, -4281.26, -4790.33, -4800.20, -4037.93, 0.000, 0.000, 0.000, 17:40:32.029
37, -4078.86, -4570.45, -4586.96, -3831.93, 0.000, 0.000, 0.000, 17:40:32.042
38, -4104.39, -4640.49, -4647.97, -3900.90, 0.000, 0.000, 0.000, 17:40:32.042
39, -4367.18, -4900.91, -4901.03, -4174.62, 0.000, 0.000, 0.000, 17:40:32.058
40, -4270.59, -4760.75, -4786.46, -4043.49, 0.000, 0.000, 0.000, 17:40:32.058
41, -4077.98, -4580.57, -4593.88, -3821.65, 0.000, 0.000, 0.000, 17:40:32.058
42, -4112.62, -4634.85, -4649.77, -3890.74, 0.000, 0.000, 0.000, 17:40:32.058
43, -4366.91, -4932.96, -4911.30, -4158.99, 0.000, 0.000, 0.000, 17:40:32.072
44, -4255.47, -4777.55, -4790.67, -4027.92, 0.000, 0.000, 0.000, 17:40:32.072
45, -4056.19, -4543.80, -4574.95, -3822.06, 0.000, 0.000, 0.000, 17:40:32.087
46, -4103.46, -4629.19, -4643.64, -3884.41, 0.000, 0.000, 0.000, 17:40:32.088
47, -4377.43, -4932.28, -4922.38, -4171.09, 0.000, 0.000, 0.000, 17:40:32.088
48, -4258.01, -4779.69, -4782.00, -4005.36, 0.000, 0.000, 0.000, 17:40:32.088
49, -4076.64, -4572.56, -4585.10, -3826.79, 0.000, 0.000, 0.000, 17:40:32.102
50, -4116.06, -4646.51, -4664.54, -3908.32, 0.000, 0.000, 0.000, 17:40:32.102
51, -4381.25, -4924.21, -4937.43, -4170.40, 0.000, 0.000, 0.000, 17:40:32.118
52, -4272.00, -4799.37, -4798.88, -4041.88, 0.000, 0.000, 0.000, 17:40:32.118
53, -4071.53, -4572.87, -4580.82, -3824.31, 0.000, 0.000, 0.000, 17:40:32.119
54, -4112.97, -4643.86, -4651.60, -3897.74, 0.000, 0.000, 0.000, 17:40:32.119
55, -4399.80, -4948.03, -4939.23, -4188.26, 0.000, 0.000, 0.000, 17:40:32.132
56, -4267.22, -4784.27, -4785.18, -4025.95, 0.000, 0.000, 0.000, 17:40:32.132
57, -4073.45, -4568.23, -4593.55, -3830.86, 0.000, 0.000, 0.000, 17:40:32.148
58, -4091.26, -4620.22, -4632.38, -3879.12, 0.000, 0.000, 0.000, 17:40:32.150
59, -4365.52, -4932.59, -4902.57, -4172.94, 0.000, 0.000, 0.000, 17:40:32.150
60, -4263.49, -4791.29, -4785.99, -4021.16, 0.000, 0.000, 0.000, 17:40:32.150
61, -4070.82, -4560.81, -4585.56, -3820.92, 0.000, 0.000, 0.000, 17:40:32.162
62, -4089.77, -4602.85, -4630.13, -3876.25, 0.000, 0.000, 0.000, 17:40:32.162
63, -4362.95, -4900.82, -4924.28, -4161.64, 0.000, 0.000, 0.000, 17:40:32.177
64, -4276.84, -4807.80, -4804.24, -4040.25, 0.000, 0.000, 0.000, 17:40:32.177
65, -4078.20, -4592.85, -4599.73, -3830.37, 0.000, 0.000, 0.000, 17:40:32.178
66, -4103.40, -4638.73, -4641.46, -3883.99, 0.000, 0.000, 0.000, 17:40:32.179
67, -4380.85, -4922.70, -4928.56, -4176.62, 0.000, 0.000, 0.000, 17:40:32.193
68, -4275.40, -4770.84, -4797.89, -4033.39, 0.000, 0.000, 0.000, 17:40:32.193
69, -4074.19, -4572.29, -4578.70, -3833.18, 0.000, 0.000, 0.000, 17:40:32.207
70, -4104.56, -4636.12, -4638.46, -3876.86, 0.000, 0.000, 0.000, 17:40:32.207
71, -4379.02, -4926.02, -4922.20, -4170.32, 0.000, 0.000, 0.000, 17:40:32.207
72, -4272.35, -4792.22, -4791.22, -4021.88, 0.000, 0.000, 0.000, 17:40:32.207
73, -4093.66, -4591.83, -4606.30, -3833.43, 0.000, 0.000, 0.000, 17:40:32.222
74, -4117.17, -4636.08, -4662.34, -3897.30, 0.000, 0.000, 0.000, 17:40:32.223
75, -4383.69, -4925.49, -4919.61, -4171.66, 0.000, 0.000, 0.000, 17:40:32.237
76, -4272.23, -4784.73, -4787.69, -4029.42, 0.000, 0.000, 0.000, 17:40:32.237
77, -4080.17, -4582.08, -4590.24, -3818.22, 0.000, 0.000, 0.000, 17:40:32.238
78, -4100.99, -4631.87, -4622.43, -3892.61, 0.000, 0.000, 0.000, 17:40:32.238
79, -4398.65, -4946.32, -4958.21, -4189.50, 0.000, 0.000, 0.000, 17:40:32.252
80, -4287.66, -4783.59, -4792.38, -4045.62, 0.000, 0.000, 0.000, 17:40:32.252
81, -4093.36, -4578.78, -4609.09, -3839.78, 0.000, 0.000, 0.000, 17:40:32.267
82, -4117.07, -4636.72, -4666.13, -3893.37, 0.000, 0.000, 0.000, 17:40:32.267
83, -4395.19, -4945.54, -4929.64, -4179.05, 0.000, 0.000, 0.000, 17:40:32.268
84, -4284.61, -4797.03, -4809.15, -4043.14, 0.000, 0.000, 0.000, 17:40:32.268
85, -4079.37, -4586.89, -4588.86, -3836.53, 0.000, 0.000, 0.000, 17:40:32.282
86, -4103.54, -4622.65, -4636.23, -3891.13, 0.000, 0.000, 0.000, 17:40:32.282
87, -4392.59, -4955.67, -4943.37, -4176.78, 0.000, 0.000, 0.000, 17:40:32.297
88, -4288.96, -4791.23, -4812.40, -4035.74, 0.000, 0.000, 0.000, 17:40:32.297
89, -4140.69, -4613.43, -4653.46, -3887.87, 0.000, 0.000, 0.000, 17:40:32.298
90, -4132.65, -4619.89, -4664.06, -3903.88, 0.000, 0.000, 0.000, 17:40:32.298
91, -4362.74, -4858.13, -4886.69, -4159.80, 0.000, 0.000, 0.000, 17:40:32.313
92, -4265.92, -4711.33, -4736.58, -4029.09, 0.000, 0.000, 0.000, 17:40:32.313
93, -4098.38, -4525.18, -4560.32, -3847.83, 0.000, 0.000, 0.000, 17:40:32.327
94, -4142.16, -4543.07, -4622.65, -3931.58, 0.000, 0.000, 0.000, 17:40:32.327
95, -4407.51, -4818.13, -4885.61, -4202.89, 0.000, 0.000, 0.000, 17:40:32.328
96, -4301.40, -4657.03, -4731.66, -4063.75, 0.000, 0.000, 0.000, 17:40:32.329
97, -4113.82, -4454.65, -4517.10, -3861.65, 0.000, 0.000, 0.000, 17:40:32.349
98, -4119.64, -4482.34, -4553.98, -3910.23, 0.000, 0.000, 0.000, 17:40:32.349
99, -4399.76, -4770.31, -4837.55, -4206.07, 0.000, 0.000, 0.000, 17:40:32.357
100, -4336.71, -4667.57, -4750.82, -4096.99, 0.000, 0.000, 0.000, 17:40:32.357
101, -4116.89, -4431.03, -4526.17, -3864.95, 0.000, 0.000, 0.000, 17:40:32.358
102, -4126.04, -4481.10, -4563.65, -3906.15, 0.000, 0.000, 0.000, 17:40:32.358
103, -4394.58, -4776.97, -4842.01, -4171.18, 0.000, 0.000, 0.000, 17:40:32.372
104, -4319.76, -4679.16, -4741.95, -4055.43, 0.000, 0.000, 0.000, 17:40:32.372
105, -4112.29, -4468.73, -4542.39, -3835.43, 0.000, 0.000, 0.000, 17:40:32.387
106, -4150.86, -4532.20, -4613.84, -3902.17, 0.000, 0.000, 0.000, 17:40:32.387
107, -4426.26, -4834.61, -4901.45, -4191.64, 0.000, 0.000, 0.000, 17:40:32.388
108, -4322.28, -4713.84, -4770.46, -4052.76, 0.000, 0.000, 0.000, 17:40:32.388
109, -4124.86, -4504.52, -4581.58, -3838.36, 0.000, 0.000, 0.000, 17:40:32.404
110, -4146.31, -4559.35, -4630.77, -3899.91, 0.000, 0.000, 0.000, 17:40:32.404
111, -4392.35, -4848.54, -4906.68, -4170.12, 0.000, 0.000, 0.000, 17:40:32.418
112, -4267.65, -4680.41, -4761.33, -4022.96, 0.000, 0.000, 0.000, 17:40:32.419
113, -4099.83, -4511.83, -4589.84, -3831.56, 0.000, 0.000, 0.000, 17:40:32.419
114, -4127.09, -4579.57, -4641.93, -3889.72, 0.000, 0.000, 0.000, 17:40:32.419
115, -4402.85, -4890.88, -4924.20, -4159.70, 0.000, 0.000, 0.000, 17:40:32.432
116, -4309.65, -4759.35, -4813.38, -4046.01, 0.000, 0.000, 0.000, 17:40:32.433
117, -4106.46, -4538.04, -4598.90, -3839.15, 0.000, 0.000, 0.000, 17:40:32.447
118, -4111.95, -4566.32, -4627.21, -3894.95, 0.000, 0.000, 0.000, 17:40:32.447
119, -4380.90, -4867.19, -4904.03, -4161.08, 0.000, 0.000, 0.000, 17:40:32.477
120, -4285.16, -4763.38, -4794.92, -4039.54, 0.000, 0.000, 0.000, 17:40:32.477
121, -4103.88, -4582.59, -4603.27, -3850.57, 0.000, 0.000, 0.000, 17:40:32.477
122, -4116.85, -4601.39, -4656.99, -3893.42, 0.000, 0.000, 0.000, 17:40:32.477
123, -4408.62, -4916.92, -4930.37, -4176.66, 0.000, 0.000, 0.000, 17:40:32.478
124, -4303.44, -4781.41, -4804.61, -4053.48, 0.000, 0.000, 0.000, 17:40:32.478
125, -4104.17, -4551.82, -4579.40, -3838.87, 0.000, 0.000, 0.000, 17:40:32.479
126, -4105.67, -4596.67, -4639.59, -3864.20, 0.000, 0.000, 0.000, 17:40:32.479
127, -4386.29, -4905.54, -4938.18, -4177.02, 0.000, 0.000, 0.000, 17:40:32.492
128, -4299.85, -4781.25, -4802.58, -4064.27, 0.000, 0.000, 0.000, 17:40:32.493
129, -4093.75, -4556.34, -4580.61, -3849.49, 0.000, 0.000, 0.000, 17:40:32.507
130, -4105.84, -4603.00, -4632.40, -3890.80, 0.000, 0.000, 0.000, 17:40:32.507
131, -4371.36, -4881.01, -4917.82, -4156.91, 0.000, 0.000, 0.000, 17:40:32.508
132, -4290.14, -4779.29, -4796.60, -4037.21, 0.000, 0.000, 0.000, 17:40:32.508
133, -4075.91, -4560.92, -4574.81, -3827.06, 0.000, 0.000, 0.000, 17:40:32.522
134, -4102.23, -4595.06, -4641.17, -3870.27, 0.000, 0.000, 0.000, 17:40:32.522
135, -4380.70, -4903.08, -4924.07, -4180.32, 0.000, 0.000, 0.000, 17:40:32.537
136, -4299.33, -4800.80, -4813.78, -4043.56, 0.000, 0.000, 0.000, 17:40:32.537
137, -4094.31, -4565.55, -4596.78, -3840.50, 0.000, 0.000, 0.000, 17:40:32.537
138, -4097.65, -4604.45, -4643.71, -3873.74, 0.000, 0.000, 0.000, 17:40:32.538
139, -4378.30, -4903.70, -4917.76, -4165.90, 0.000, 0.000, 0.000, 17:40:32.552
140, -4285.85, -4787.91, -4817.54, -4042.42, 0.000, 0.000, 0.000, 17:40:32.552
141, -4079.55, -4559.58, -4588.39, -3830.84, 0.000, 0.000, 0.000, 17:40:32.568
142, -4098.86, -4608.02, -4631.59, -3874.61, 0.000, 0.000, 0.000, 17:40:32.569
143, -4381.28, -4921.64, -4918.38, -4164.41, 0.000, 0.000, 0.000, 17:40:32.569
144, -4287.21, -4781.50, -4805.98, -4039.42, 0.000, 0.000, 0.000, 17:40:32.569
145, -4086.08, -4563.43, -4587.88, -3834.47, 0.000, 0.000, 0.000, 17:40:32.582
146, -4111.45, -4633.40, -4646.84, -3890.64, 0.000, 0.000, 0.000, 17:40:32.582
147, -4375.46, -4903.21, -4916.66, -4161.48, 0.000, 0.000, 0.000, 17:40:32.598
148, -4282.87, -4759.13, -4795.50, -4027.86, 0.000, 0.000, 0.000, 17:40:32.598
149, -4099.56, -4570.09, -4609.87, -3840.17, 0.000, 0.000, 0.000, 17:40:32.598
150, -4116.23, -4627.61, -4639.35, -3884.90, 0.000, 0.000, 0.000, 17:40:32.598
151, -4378.07, -4918.31, -4924.84, -4158.36, 0.000, 0.000, 0.000, 17:40:32.612
152, -4305.01, -4794.71, -4815.84, -4049.75, 0.000, 0.000, 0.000, 17:40:32.612
153, -4102.41, -4575.85, -4595.58, -3849.98, 0.000, 0.000, 0.000, 17:40:32.627
154, -4091.07, -4600.10, -4631.15, -3877.70, 0.000, 0.000, 0.000, 17:40:32.627
155, -4400.47, -4945.33, -4949.57, -4199.20, 0.000, 0.000, 0.000, 17:40:32.627
156, -4309.34, -4829.50, -4840.54, -4065.83, 0.000, 0.000, 0.000, 17:40:32.627
157, -4113.77, -4615.89, -4619.71, -3873.83, 0.000, 0.000, 0.000, 17:40:32.642
158, -4065.55, -4577.31, -4610.20, -3862.46, 0.000, 0.000, 0.000, 17:40:32.642
159, -4320.10, -4869.22, -4855.15, -4159.74, 0.000, 0.000, 0.000, 17:40:32.657
160, -4234.06, -4770.30, -4749.04, -4062.06, 0.000, 0.000, 0.000, 17:40:32.657
161, -4024.42, -4539.76, -4535.53, -3854.86, 0.000, 0.000, 0.000, 17:40:32.658
162, -4040.74, -4596.68, -4567.98, -3903.66, 0.000, 0.000, 0.000, 17:40:32.658
163, -4320.99, -4924.35, -4864.62, -4211.81, 0.000, 0.000, 0.000, 17:40:32.672
164, -4208.48, -4764.91, -4718.03, -4064.18, 0.000, 0.000, 0.000, 17:40:32.672
165, -4025.19, -4555.07, -4517.90, -3867.82, 0.000, 0.000, 0.000, 17:40:32.687
166, -4046.69, -4606.88, -4558.64, -3918.47, 0.000, 0.000, 0.000, 17:40:32.687
167, -4338.93, -4925.75, -4879.04, -4210.55, 0.000, 0.000, 0.000, 17:40:32.687
168, -4246.94, -4773.90, -4750.05, -4078.87, 0.000, 0.000, 0.000, 17:40:32.687
169, -4061.37, -4556.88, -4549.06, -3869.35, 0.000, 0.000, 0.000, 17:40:32.702
170, -4067.25, -4592.52, -4588.40, -3908.46, 0.000, 0.000, 0.000, 17:40:32.702
171, -4357.99, -4920.41, -4881.80, -4201.01, 0.000, 0.000, 0.000, 17:40:32.718
172, -4282.63, -4796.86, -4787.97, -4083.60, 0.000, 0.000, 0.000, 17:40:32.718
173, -4099.68, -4608.66, -4603.44, -3871.56, 0.000, 0.000, 0.000, 17:40:32.718
174, -4064.74, -4582.38, -4583.83, -3875.58, 0.000, 0.000, 0.000, 17:40:32.718
175, -4364.97, -4909.86, -4894.65, -4186.31, 0.000, 0.000, 0.000, 17:40:32.732
176, -4268.27, -4761.04, -4779.67, -4051.97, 0.000, 0.000, 0.000, 17:40:32.732
177, -4066.60, -4535.83, -4555.28, -3835.69, 0.000, 0.000, 0.000, 17:40:32.748
178, -4091.08, -4592.14, -4611.59, -3889.39, 0.000, 0.000, 0.000, 17:40:32.748
179, -4370.66, -4904.99, -4893.88, -4180.02, 0.000, 0.000, 0.000, 17:40:32.748
180, -4272.49, -4771.57, -4789.54, -4046.90, 0.000, 0.000, 0.000, 17:40:32.748
181, -4089.46, -4572.87, -4581.90, -3849.88, 0.000, 0.000, 0.000, 17:40:32.762
182, -4093.64, -4630.09, -4612.17, -3877.35, 0.000, 0.000, 0.000, 17:40:32.762
183, -4374.34, -4904.05, -4921.52, -4179.63, 0.000, 0.000, 0.000, 17:40:32.778
184, -4282.61, -4777.75, -4789.46, -4053.84, 0.000, 0.000, 0.000, 17:40:32.778
185, -4100.88, -4582.74, -4594.35, -3862.29, 0.000, 0.000, 0.000, 17:40:32.778
186, -4103.07, -4619.65, -4634.86, -3887.66, 0.000, 0.000, 0.000, 17:40:32.778
187, -4368.63, -4908.87, -4918.25, -4154.56, 0.000, 0.000, 0.000, 17:40:32.807
188, -4298.48, -4792.71, -4791.88, -4050.55, 0.000, 0.000, 0.000, 17:40:32.807
189, -4086.34, -4556.30, -4594.27, -3830.98, 0.000, 0.000, 0.000, 17:40:32.808
190, -4093.32, -4597.95, -4622.17, -3873.63, 0.000, 0.000, 0.000, 17:40:32.808
191, -4381.46, -4925.80, -4926.79, -4187.82, 0.000, 0.000, 0.000, 17:40:32.808
192, -4281.22, -4786.17, -4799.03, -4043.06, 0.000, 0.000, 0.000, 17:40:32.809
193, -4084.91, -4556.63, -4590.65, -3829.49, 0.000, 0.000, 0.000, 17:40:32.823
194, -4079.41, -4582.79, -4602.92, -3870.10, 0.000, 0.000, 0.000, 17:40:32.823
195, -4370.79, -4905.86, -4913.95, -4168.83, 0.000, 0.000, 0.000, 17:40:32.837
196, -4286.50, -4795.48, -4809.09, -4044.38, 0.000, 0.000, 0.000, 17:40:32.837
197, -4093.79, -4585.83, -4603.33, -3829.81, 0.000, 0.000, 0.000, 17:40:32.845
198, -4089.87, -4605.60, -4636.17, -3869.22, 0.000, 0.000, 0.000, 17:40:32.845
199, -4374.37, -4908.57, -4927.45, -4175.02, 0.000, 0.000, 0.000, 17:40:32.852
200, -4270.97, -4774.46, -4798.25, -4037.67, 0.000, 0.000, 0.000, 17:40:32.852
0, -4089.61, -4572.03, -4597.58, -3837.29, 0.000, 0.000, 0.000, 17:40:32.853
1, -4106.20, -4626.03, -4646.28, -3893.50, 0.000, 0.000, 0.000, 17:40:32.868
2, -4390.96, -4948.19, -4934.84, -4184.62, 0.000, 0.000, 0.000, 17:40:32.868
3, -4303.36, -4802.72, -4819.67, -4052.79, 0.000, 0.000, 0.000, 17:40:32.882
4, -4092.23, -4581.56, -4599.79, -3834.79, 0.000, 0.000, 0.000, 17:40:32.882
5, -4081.05, -4573.85, -4621.17, -3863.93, 0.000, 0.000, 0.000, 17:40:32.883
6, -4363.01, -4873.35, -4890.54, -4171.79, 0.000, 0.000, 0.000, 17:40:32.883
7, -4275.35, -4753.90, -4767.00, -4041.81, 0.000, 0.000, 0.000, 17:40:32.897
8, -4087.44, -4549.34, -4568.14, -3851.97, 0.000, 0.000, 0.000, 17:40:32.897
9, -4080.79, -4549.21, -4587.79, -3874.37, 0.000, 0.000, 0.000, 17:40:32.912
10, -4390.15, -4903.07, -4913.94, -4214.27, 0.000, 0.000, 0.000, 17:40:32.912
11, -4295.24, -4757.92, -4782.57, -4064.21, 0.000, 0.000, 0.000, 17:40:32.913
12, -4092.49, -4549.68, -4583.65, -3845.09, 0.000, 0.000, 0.000, 17:40:32.913
13, -4072.08, -4557.19, -4576.97, -3870.96, 0.000, 0.000, 0.000, 17:40:32.927
14, -4360.59, -4874.30, -4878.75, -4168.54, 0.000, 0.000, 0.000, 17:40:32.927
15, -4302.66, -4780.64, -4800.27, -4069.57, 0.000, 0.000, 0.000, 17:40:32.942
16, -4085.70, -4555.80, -4579.84, -3848.58, 0.000, 0.000, 0.000, 17:40:32.942
17, -4081.09, -4569.51, -4602.50, -3875.04, 0.000, 0.000, 0.000, 17:40:32.943
18, -4377.43, -4890.89, -4903.74, -4183.57, 0.000, 0.000, 0.000, 17:40:32.943
19, -4295.05, -4783.99, -4803.37, -4055.59, 0.000, 0.000, 0.000, 17:40:32.972
20, -4084.89, -4553.64, -4581.23, -3833.42, 0.000, 0.000, 0.000, 17:40:32.972
21, -4076.31, -4576.47, -4608.62, -3850.79, 0.000, 0.000, 0.000, 17:40:32.973
22, -4380.50, -4924.32, -4919.10, -4179.52, 0.000, 0.000, 0.000, 17:40:32.973
23, -4292.80, -4793.79, -4812.99, -4061.43, 0.000, 0.000, 0.000, 17:40:32.973
24, -4088.26, -4562.39, -4589.13, -3842.76, 0.000, 0.000, 0.000, 17:40:32.973
25, -4099.62, -4591.32, -4622.14, -3871.01, 0.000, 0.000, 0.000, 17:40:32.987
26, -4385.38, -4903.03, -4924.49, -4170.64, 0.000, 0.000, 0.000, 17:40:32.987
27, -4291.31, -4794.73, -4811.53, -4062.17, 0.000, 0.000, 0.000, 17:40:33.002
28, -4088.97, -4575.24, -4581.10, -3827.85, 0.000, 0.000, 0.000, 17:40:33.002
29, -4079.69, -4590.64, -4619.96, -3862.66, 0.000, 0.000, 0.000, 17:40:33.003
30, -4387.92, -4916.23, -4925.90, -4177.05, 0.000, 0.000, 0.000, 17:40:33.003
31, -4287.24, -4791.41, -4796.20, -4047.34, 0.000, 0.000, 0.000, 17:40:33.032
32, -4085.96, -4562.08, -4584.64, -3829.91, 0.000, 0.000, 0.000, 17:40:33.032
33, -4091.40, -4600.58, -4618.84, -3879.37, 0.000, 0.000, 0.000, 17:40:33.032
34, -4357.29, -4886.39, -4885.48, -4147.72, 0.000, 0.000, 0.000, 17:40:33.032
35, -4294.38, -4792.34, -4805.35, -4044.05, 0.000, 0.000, 0.000, 17:40:33.034
36, -4099.91, -4581.64, -4604.86, -3844.79, 0.000, 0.000, 0.000, 17:40:33.034
37, -4073.83, -4580.58, -4603.56, -3864.72, 0.000, 0.000, 0.000, 17:40:33.047
38, -4381.38, -4916.21, -4919.98, -4183.84, 0.000, 0.000, 0.000, 17:40:33.047
39, -4291.80, -4792.75, -4815.66, -4047.14, 0.000, 0.000, 0.000, 17:40:33.063
40, -4075.08, -4563.11, -4585.91, -3818.68, 0.000, 0.000, 0.000, 17:40:33.063
41, -4065.45, -4571.11, -4594.82, -3841.62, 0.000, 0.000, 0.000, 17:40:33.063
42, -4358.76, -4893.20, -4910.37, -4167.34, 0.000, 0.000, 0.000, 17:40:33.063
43, -4283.73, -4786.85, -4790.77, -4050.73, 0.000, 0.000, 0.000, 17:40:33.077
44, -4091.26, -4568.24, -4591.67, -3845.63, 0.000, 0.000, 0.000, 17:40:33.077
45, -4068.53, -4585.10, -4611.78, -3853.76, 0.000, 0.000, 0.000, 17:40:33.092
46, -4374.77, -4910.47, -4907.29, -4177.89, 0.000, 0.000, 0.000, 17:40:33.092
47, -4296.61, -4805.26, -4807.64, -4059.50, 0.000, 0.000, 0.000, 17:40:33.092
48, -4099.98, -4582.57, -4606.83, -3839.22, 0.000, 0.000, 0.000, 17:40:33.093
49, -4076.08, -4589.89, -4612.80, -3852.60, 0.000, 0.000, 0.000, 17:40:33.107
50, -4368.04, -4910.05, -4923.80, -4179.21, 0.000, 0.000, 0.000, 17:40:33.108
51, -4282.36, -4803.78, -4804.32, -4046.91, 0.000, 0.000, 0.000, 17:40:33.122
52, -4087.91, -4575.19, -4590.35, -3838.03, 0.000, 0.000, 0.000, 17:40:33.122
53, -4072.14, -4587.43, -4600.66, -3856.59, 0.000, 0.000, 0.000, 17:40:33.123
54, -4378.49, -4917.00, -4924.76, -4185.28, 0.000, 0.000, 0.000, 17:40:33.123
55, -4287.57, -4793.90, -4812.31, -4050.80, 0.000, 0.000, 0.000, 17:40:33.137
56, -4090.50, -4578.61, -4585.85, -3834.27, 0.000, 0.000, 0.000, 17:40:33.137
57, -4073.78, -4568.66, -4597.40, -3857.32, 0.000, 0.000, 0.000, 17:40:33.152
58, -4365.11, -4906.28, -4912.03, -4168.27, 0.000, 0.000, 0.000, 17:40:33.152
59, -4292.08, -4808.90, -4807.68, -4055.55, 0.000, 0.000, 0.000, 17:40:33.152
60, -4095.51, -4568.62, -4600.03, -3848.46, 0.000, 0.000, 0.000, 17:40:33.152
61, -4069.08, -4588.85, -4605.78, -3842.31, 0.000, 0.000, 0.000, 17:40:33.167
62, -4359.08, -4887.47, -4900.91, -4159.34, 0.000, 0.000, 0.000, 17:40:33.168
63, -4279.53, -4784.81, -4791.95, -4054.89, 0.000, 0.000, 0.000, 17:40:33.197
64, -4076.35, -4552.29, -4585.92, -3829.97, 0.000, 0.000, 0.000, 17:40:33.197
65, -4076.38, -4584.73, -4606.26, -3847.60, 0.000, 0.000, 0.000, 17:40:33.197
66, -4383.58, -4936.89, -4924.87, -4176.19, 0.000, 0.000, 0.000, 17:40:33.197
67, -4275.78, -4799.34, -4803.51, -4043.14, 0.000, 0.000, 0.000, 17:40:33.199
68, -4088.43, -4587.74, -4599.38, -3848.16, 0.000, 0.000, 0.000, 17:40:33.199
69, -4082.36, -4599.54, -4624.80, -3857.85, 0.000, 0.000, 0.000, 17:40:33.200
70, -4381.58, -4901.98, -4920.01, -4170.10, 0.000, 0.000, 0.000, 17:40:33.200
71, -4297.44, -4810.26, -4812.03, -4049.57, 0.000, 0.000, 0.000, 17:40:33.213
72, -4100.24, -4567.81, -4593.47, -3829.58, 0.000, 0.000, 0.000, 17:40:33.213
73, -4086.73, -4594.50, -4615.92, -3865.92, 0.000, 0.000, 0.000, 17:40:33.228
74, -4376.91, -4907.80, -4927.87, -4173.16, 0.000, 0.000, 0.000, 17:40:33.228
75, -4306.67, -4810.55, -4824.23, -4062.41, 0.000, 0.000, 0.000, 17:40:33.242
76, -4095.98, -4584.78, -4605.57, -3839.97, 0.000, 0.000, 0.000, 17:40:33.242
77, -4072.07, -4566.83, -4599.95, -3842.40, 0.000, 0.000, 0.000, 17:40:33.257
78, -4363.49, -4897.07, -4910.35, -4167.97, 0.000, 0.000, 0.000, 17:40:33.257
79, -4294.02, -4793.18, -4810.71, -4043.96, 0.000, 0.000, 0.000, 17:40:33.257
80, -4100.58, -4590.56, -4616.65, -3840.93, 0.000, 0.000, 0.000, 17:40:33.257
81, -4067.79, -4567.67, -4601.06, -3836.16, 0.000, 0.000, 0.000, 17:40:33.273
82, -4370.15, -4912.09, -4914.75, -4180.58, 0.000, 0.000, 0.000, 17:40:33.273
83, -4290.10, -4800.07, -4806.54, -4062.61, 0.000, 0.000, 0.000, 17:40:33.273
84, -4112.10, -4606.25, -4618.61, -3875.38, 0.000, 0.000, 0.000, 17:40:33.274
85, -4089.16, -4602.32, -4631.09, -3846.90, 0.000, 0.000, 0.000, 17:40:33.287
86, -4362.59, -4910.63, -4931.91, -4143.69, 0.000, 0.000, 0.000, 17:40:33.287
87, -4278.11, -4804.33, -4817.60, -4018.36, 0.000, 0.000, 0.000, 17:40:33.302
88, -4076.98, -4595.94, -4612.68, -3804.24, 0.000, 0.000, 0.000, 17:40:33.302
89, -4060.29, -4587.04, -4641.09, -3812.92, 0.000, 0.000, 0.000, 17:40:33.309
90, -4369.07, -4958.19, -4968.03, -4130.61, 0.000, 0.000, 0.000, 17:40:33.309
91, -4290.76, -4825.56, -4867.51, -4029.54, 0.000, 0.000, 0.000, 17:40:33.332
92, -4080.30, -4598.63, -4635.66, -3792.49, 0.000, 0.000, 0.000, 17:40:33.333
93, -4074.89, -4611.90, -4654.58, -3829.38, 0.000, 0.000, 0.000, 17:40:33.333
94, -4365.10, -4950.22, -4969.51, -4143.48, 0.000, 0.000, 0.000, 17:40:33.333
95, -4290.87, -4830.80, -4851.80, -4034.99, 0.000, 0.000, 0.000, 17:40:33.334
96, -4086.35, -4588.17, -4625.42, -3804.76, 0.000, 0.000, 0.000, 17:40:33.336
97, -4096.15, -4627.26, -4665.29, -3859.52, 0.000, 0.000, 0.000, 17:40:33.348
98, -4374.46, -4950.78, -4948.24, -4160.16, 0.000, 0.000, 0.000, 17:40:33.349
99, -4288.58, -4809.37, -4832.41, -4036.79, 0.000, 0.000, 0.000, 17:40:33.363
100, -4090.12, -4587.87, -4619.37, -3825.02, 0.000, 0.000, 0.000, 17:40:33.363
101, -4060.99, -4572.35, -4604.23, -3819.35, 0.000, 0.000, 0.000, 17:40:33.363
102, -4358.50, -4903.49, -4917.31, -4156.96, 0.000, 0.000, 0.000, 17:40:33.364
103, -4292.63, -4803.56, -4816.48, -4044.44, 0.000, 0.000, 0.000, 17:40:33.378
104, -4084.35, -4572.79, -4596.15, -3820.06, 0.000, 0.000, 0.000, 17:40:33.378
105, -4060.09, -4581.37, -4605.04, -3843.35, 0.000, 0.000, 0.000, 17:40:33.392
106, -4353.43, -4896.83, -4905.53, -4147.57, 0.000, 0.000, 0.000, 17:40:33.392
107, -4296.67, -4802.28, -4817.66, -4042.10, 0.000, 0.000, 0.000, 17:40:33.393
108, -4096.89, -4580.69, -4606.74, -3834.56, 0.000, 0.000, 0.000, 17:40:33.393
109, -4068.81, -4587.67, -4613.44, -3843.02, 0.000, 0.000, 0.000, 17:40:33.407
110, -4370.78, -4918.64, -4923.22, -4164.83, 0.000, 0.000, 0.000, 17:40:33.407
111, -4293.08, -4792.44, -4810.66, -4039.97, 0.000, 0.000, 0.000, 17:40:33.422
112, -4090.80, -4579.77, -4597.39, -3834.23, 0.000, 0.000, 0.000, 17:40:33.422
113, -4038.11, -4553.24, -4581.42, -3833.25, 0.000, 0.000, 0.000, 17:40:33.423
114, -4353.71, -4903.61, -4905.96, -4166.25, 0.000, 0.000, 0.000, 17:40:33.423
115, -4280.22, -4803.32, -4814.24, -4046.05, 0.000, 0.000, 0.000, 17:40:33.437
116, -4098.05, -4585.40, -4628.31, -3849.14, 0.000, 0.000, 0.000, 17:40:33.437
117, -4070.12, -4591.62, -4610.80, -3846.87, 0.000, 0.000, 0.000, 17:40:33.452
118, -4368.12, -4916.90, -4920.94, -4160.81, 0.000, 0.000, 0.000, 17:40:33.452
119, -4278.61, -4807.73, -4799.79, -4048.54, 0.000, 0.000, 0.000, 17:40:33.468
120, -4083.65, -4568.89, -4601.41, -3830.22, 0.000, 0.000, 0.000, 17:40:33.468
121, -4077.24, -4598.94, -4616.88, -3849.54, 0.000, 0.000, 0.000, 17:40:33.468
122, -4365.25, -4920.02, -4920.15, -4167.50, 0.000, 0.000, 0.000, 17:40:33.468
123, -4296.22, -4813.05, -4826.37, -4060.23, 0.000, 0.000, 0.000, 17:40:33.498
124, -4099.54, -4583.76, -4609.71, -3842.72, 0.000, 0.000, 0.000, 17:40:33.498
125, -4068.24, -4588.05, -4604.98, -3845.31, 0.000, 0.000, 0.000, 17:40:33.498
126, -4363.02, -4911.44, -4926.29, -4164.65, 0.000, 0.000, 0.000, 17:40:33.498
127, -4296.82, -4812.55, -4830.98, -4066.48, 0.000, 0.000, 0.000, 17:40:33.499
128, -4084.04, -4571.58, -4592.80, -3845.85, 0.000, 0.000, 0.000, 17:40:33.499
129, -4058.64, -4577.42, -4590.91, -3843.05, 0.000, 0.000, 0.000, 17:40:33.500
130, -4365.25, -4911.57, -4907.72, -4177.57, 0.000, 0.000, 0.000, 17:40:33.500
131, -4304.25, -4823.94, -4825.19, -4054.90, 0.000, 0.000, 0.000, 17:40:33.513
132, -4109.36, -4602.20, -4620.19, -3851.65, 0.000, 0.000, 0.000, 17:40:33.513
133, -4065.77, -4583.82, -4610.35, -3852.61, 0.000, 0.000, 0.000, 17:40:33.528
134, -4368.51, -4923.38, -4918.66, -4172.65, 0.000, 0.000, 0.000, 17:40:33.528
135, -4272.87, -4781.49, -4798.51, -4043.85, 0.000, 0.000, 0.000, 17:40:33.542
136, -4092.01, -4574.63, -4617.55, -3847.80, 0.000, 0.000, 0.000, 17:40:33.542
137, -4089.85, -4606.51, -4623.62, -3862.25, 0.000, 0.000, 0.000, 17:40:33.543
138, -4366.14, -4907.21, -4919.17, -4172.18, 0.000, 0.000, 0.000, 17:40:33.543
139, -4296.59, -4812.28, -4814.75, -4058.66, 0.000, 0.000, 0.000, 17:40:33.572
140, -4095.31, -4587.29, -4606.57, -3847.68, 0.000, 0.000, 0.000, 17:40:33.572
141, -4081.45, -4594.48, -4628.13, -3856.06, 0.000, 0.000, 0.000, 17:40:33.572
142, -4366.10, -4920.21, -4935.89, -4166.48, 0.000, 0.000, 0.000, 17:40:33.572
143, -4290.01, -4802.21, -4815.17, -4052.68, 0.000, 0.000, 0.000, 17:40:33.573
144, -4089.09, -4581.21, -4598.26, -3842.33, 0.000, 0.000, 0.000, 17:40:33.573
145, -4067.22, -4592.24, -4607.57, -3852.79, 0.000, 0.000, 0.000, 17:40:33.588
146, -4367.01, -4927.22, -4927.58, -4172.03, 0.000, 0.000, 0.000, 17:40:33.588
147, -4292.66, -4834.11, -4831.07, -4057.43, 0.000, 0.000, 0.000, 17:40:33.602
148, -4088.21, -4608.42, -4609.03, -3850.98, 0.000, 0.000, 0.000, 17:40:33.602
149, -4035.89, -4564.98, -4577.17, -3836.37, 0.000, 0.000, 0.000, 17:40:33.603
150, -4331.81, -4899.94, -4901.10, -4152.40, 0.000, 0.000, 0.000, 17:40:33.603
151, -4257.43, -4806.61, -4803.21, -4048.25, 0.000, 0.000, 0.000, 17:40:33.617
152, -4063.29, -4613.56, -4606.86, -3851.22, 0.000, 0.000, 0.000, 17:40:33.617
153, -4043.60, -4639.65, -4624.15, -3860.29, 0.000, 0.000, 0.000, 17:40:33.632
154, -4300.14, -4927.20, -4895.39, -4144.24, 0.000, 0.000, 0.000, 17:40:33.632
155, -4236.13, -4853.20, -4802.35, -4056.39, 0.000, 0.000, 0.000, 17:40:33.632
156, -4025.86, -4639.66, -4612.89, -3831.75, 0.000, 0.000, 0.000, 17:40:33.633
157, -3976.25, -4612.93, -4584.50, -3821.73, 0.000, 0.000, 0.000, 17:40:33.647
158, -4258.86, -4937.06, -4898.12, -4138.92, 0.000, 0.000, 0.000, 17:40:33.647
159, -4192.75, -4843.37, -4787.16, -4034.15, 0.000, 0.000, 0.000, 17:40:33.665
160, -4016.92, -4658.85, -4616.85, -3847.69, 0.000, 0.000, 0.000, 17:40:33.665
161, -3971.39, -4641.31, -4603.15, -3828.11, 0.000, 0.000, 0.000, 17:40:33.665
162, -4269.91, -4957.67, -4919.51, -4144.54, 0.000, 0.000, 0.000, 17:40:33.665
163, -4207.09, -4840.06, -4805.41, -4039.64, 0.000, 0.000, 0.000, 17:40:33.677
164, -4033.93, -4650.06, -4610.00, -3849.50, 0.000, 0.000, 0.000, 17:40:33.677
165, -4007.05, -4617.42, -4602.17, -3835.35, 0.000, 0.000, 0.000, 17:40:33.692
166, -4317.91, -4914.32, -4906.46, -4151.68, 0.000, 0.000, 0.000, 17:40:33.692
167, -4257.38, -4817.12, -4817.87, -4049.56, 0.000, 0.000, 0.000, 17:40:33.692
168, -4065.89, -4592.03, -4613.59, -3834.75, 0.000, 0.000, 0.000, 17:40:33.692
169, -4032.34, -4570.16, -4578.02, -3820.54, 0.000, 0.000, 0.000, 17:40:33.722
170, -4351.86, -4909.93, -4902.74, -4166.33, 0.000, 0.000, 0.000, 17:40:33.722
171, -4304.52, -4803.18, -4841.98, -4048.37, 0.000, 0.000, 0.000, 17:40:33.722
172, -4118.86, -4572.86, -4627.00, -3843.45, 0.000, 0.000, 0.000, 17:40:33.722
173, -4095.14, -4558.89, -4614.89, -3852.66, 0.000, 0.000, 0.000, 17:40:33.723
174, -4397.94, -4896.71, -4937.04, -4171.41, 0.000, 0.000, 0.000, 17:40:33.723
175, -4325.02, -4785.41, -4822.82, -4075.94, 0.000, 0.000, 0.000, 17:40:33.752
176, -4123.35, -4561.31, -4613.32, -3854.99, 0.000, 0.000, 0.000, 17:40:33.752
177, -4091.84, -4543.59, -4593.96, -3841.43, 0.000, 0.000, 0.000, 17:40:33.753
178, -4403.30, -4888.74, -4928.32, -4166.26, 0.000, 0.000, 0.000, 17:40:33.753
179, -4340.04, -4777.34, -4831.92, -4066.79, 0.000, 0.000, 0.000, 17:40:33.754
180, -4133.43, -4561.96, -4611.88, -3852.70, 0.000, 0.000, 0.000, 17:40:33.754
181, -4095.76, -4536.18, -4599.45, -3840.81, 0.000, 0.000, 0.000, 17:40:33.767
182, -4386.93, -4861.56, -4900.38, -4151.49, 0.000, 0.000, 0.000, 17:40:33.767
183, -4338.09, -4769.64, -4819.33, -4082.32, 0.000, 0.000, 0.000, 17:40:33.798
184, -4127.00, -4554.00, -4614.11, -3849.72, 0.000, 0.000, 0.000, 17:40:33.798
185, -4087.80, -4534.26, -4583.14, -3839.19, 0.000, 0.000, 0.000, 17:40:33.798
186, -4377.47, -4842.09, -4895.67, -4158.66, 0.000, 0.000, 0.000, 17:40:33.798
187, -4317.25, -4764.76, -4803.56, -4059.11, 0.000, 0.000, 0.000, 17:40:33.799
188, -4121.03, -4544.37, -4600.27, -3855.92, 0.000, 0.000, 0.000, 17:40:33.799
189, -4093.46, -4531.94, -4594.29, -3847.08, 0.000, 0.000, 0.000, 17:40:33.800
190, -4388.65, -4877.92, -4912.60, -4157.13, 0.000, 0.000, 0.000, 17:40:33.801
191, -4328.83, -4764.72, -4824.03, -4055.29, 0.000, 0.000, 0.000, 17:40:33.812
192, -4129.19, -4554.72, -4611.23, -3862.79, 0.000, 0.000, 0.000, 17:40:33.812
193, -4083.40, -4523.85, -4584.58, -3842.42, 0.000, 0.000, 0.000, 17:40:33.828
194, -4377.93, -4855.70, -4906.55, -4169.08, 0.000, 0.000, 0.000, 17:40:33.828
195, -4333.45, -4777.17, -4832.52, -4071.18, 0.000, 0.000, 0.000, 17:40:33.842
196, -4126.56, -4547.70, -4590.38, -3848.82, 0.000, 0.000, 0.000, 17:40:33.842
197, -4098.08, -4540.15, -4592.10, -3842.47, 0.000, 0.000, 0.000, 17:40:33.843
198, -4378.41, -4865.05, -4903.13, -4152.60, 0.000, 0.000, 0.000, 17:40:33.843
199, -4298.81, -4741.52, -4799.88, -4045.49, 0.000, 0.000, 0.000, 17:40:33.857
200, -4133.54, -4571.96, -4621.52, -3867.64, 0.000, 0.000, 0.000, 17:40:33.857
0, -4098.74, -4560.56, -4614.03, -3846.07, 0.000, 0.000, 0.000, 17:40:33.858
1, -4387.91, -4873.54, -4916.20, -4167.05, 0.000, 0.000, 0.000, 17:40:33.872
2, -4322.03, -4774.32, -4807.15, -4060.50, 0.000, 0.000, 0.000, 17:40:33.872
3, -4119.70, -4557.20, -4607.10, -3847.43, 0.000, 0.000, 0.000, 17:40:33.887
4, -4071.78, -4550.73, -4586.66, -3834.26, 0.000, 0.000, 0.000, 17:40:33.887
5, -4375.74, -4884.33, -4912.29, -4152.23, 0.000, 0.000, 0.000, 17:40:33.887
6, -4308.77, -4790.65, -4819.84, -4053.36, 0.000, 0.000, 0.000, 17:40:33.887
7, -4117.18, -4570.56, -4625.10, -3856.59, 0.000, 0.000, 0.000, 17:40:33.919
8, -4063.30, -4534.74, -4583.60, -3835.01, 0.000, 0.000, 0.000, 17:40:33.919
9, -4349.03, -4866.93, -4891.47, -4137.92, 0.000, 0.000, 0.000, 17:40:33.919
10, -4302.48, -4775.11, -4814.72, -4050.13, 0.000, 0.000, 0.000, 17:40:33.919
11, -4130.61, -4586.05, -4629.97, -3852.26, 0.000, 0.000, 0.000, 17:40:33.919
12, -4067.51, -4551.53, -4589.70, -3836.17, 0.000, 0.000, 0.000, 17:40:33.919
13, -4359.20, -4895.28, -4912.83, -4152.75, 0.000, 0.000, 0.000, 17:40:33.932
14, -4297.37, -4778.86, -4817.66, -4051.51, 0.000, 0.000, 0.000, 17:40:33.932
15, -4100.73, -4570.15, -4603.62, -3856.07, 0.000, 0.000, 0.000, 17:40:33.948
16, -4051.79, -4532.67, -4578.47, -3813.11, 0.000, 0.000, 0.000, 17:40:33.948
17, -4359.06, -4874.88, -4905.00, -4160.21, 0.000, 0.000, 0.000, 17:40:33.948
18, -4301.66, -4775.88, -4806.57, -4051.60, 0.000, 0.000, 0.000, 17:40:33.948
19, -4110.47, -4573.65, -4612.57, -3850.28, 0.000, 0.000, 0.000, 17:40:33.963
20, -4066.04, -4565.78, -4598.90, -3827.83, 0.000, 0.000, 0.000, 17:40:33.963
21, -4348.29, -4877.41, -4894.31, -4142.01, 0.000, 0.000, 0.000, 17:40:33.978
22, -4286.88, -4769.04, -4796.50, -4048.53, 0.000, 0.000, 0.000, 17:40:33.978
23, -4106.20, -4557.89, -4613.32, -3851.15, 0.000, 0.000, 0.000, 17:40:33.978
24, -4052.29, -4544.38, -4577.63, -3830.01, 0.000, 0.000, 0.000, 17:40:33.978
25, -4373.33, -4900.07, -4889.30, -4177.76, 0.000, 0.000, 0.000, 17:40:33.993
26, -4288.35, -4790.41, -4810.03, -4047.28, 0.000, 0.000, 0.000, 17:40:33.993
27, -4118.79, -4593.84, -4634.72, -3855.81, 0.000, 0.000, 0.000, 17:40:34.007
28, -4068.06, -4562.44, -4607.71, -3831.99, 0.000, 0.000, 0.000, 17:40:34.007
29, -4354.67, -4878.38, -4894.82, -4150.46, 0.000, 0.000, 0.000, 17:40:34.008
30, -4294.00, -4781.33, -4810.73, -4056.23, 0.000, 0.000, 0.000, 17:40:34.008
31, -4101.54, -4561.55, -4605.08, -3849.05, 0.000, 0.000, 0.000, 17:40:34.022
32, -4054.68, -4548.07, -4580.08, -3822.68, 0.000, 0.000, 0.000, 17:40:34.022
33, -4367.07, -4913.21, -4915.05, -4158.48, 0.000, 0.000, 0.000, 17:40:34.037
34, -4314.87, -4816.61, -4859.57, -4067.46, 0.000, 0.000, 0.000, 17:40:34.037
35, -4125.96, -4612.39, -4645.17, -3874.59, 0.000, 0.000, 0.000, 17:40:34.038
36, -4067.30, -4557.73, -4602.03, -3837.15, 0.000, 0.000, 0.000, 17:40:34.038
37, -4364.55, -4887.05, -4909.93, -4166.67, 0.000, 0.000, 0.000, 17:40:34.053
38, -4298.64, -4789.60, -4821.26, -4060.65, 0.000, 0.000, 0.000, 17:40:34.053
39, -4118.66, -4582.27, -4605.36, -3856.76, 0.000, 0.000, 0.000, 17:40:34.067
40, -4057.40, -4558.15, -4584.05, -3828.69, 0.000, 0.000, 0.000, 17:40:34.068
41, -4352.85, -4881.99, -4881.93, -4143.08, 0.000, 0.000, 0.000, 17:40:34.068
42, -4283.37, -4763.10, -4793.93, -4053.03, 0.000, 0.000, 0.000, 17:40:34.068
43, -4084.93, -4564.99, -4595.78, -3846.91, 0.000, 0.000, 0.000, 17:40:34.082
44, -4059.37, -4549.08, -4577.14, -3845.14, 0.000, 0.000, 0.000, 17:40:34.082
45, -4367.39, -4882.91, -4900.22, -4165.32, 0.000, 0.000, 0.000, 17:40:34.097
46, -4314.54, -4798.98, -4827.16, -4067.20, 0.000, 0.000, 0.000, 17:40:34.097
47, -4114.28, -4562.88, -4614.14, -3856.13, 0.000, 0.000, 0.000, 17:40:34.142
48, -4072.82, -4555.28, -4582.79, -3828.76, 0.000, 0.000, 0.000, 17:40:34.142
49, -4379.89, -4894.56, -4916.70, -4162.34, 0.000, 0.000, 0.000, 17:40:34.142
50, -4296.69, -4798.54, -4814.50, -4056.04, 0.000, 0.000, 0.000, 17:40:34.143
51, -4117.27, -4594.30, -4613.47, -3859.12, 0.000, 0.000, 0.000, 17:40:34.143
52, -4070.60, -4551.43, -4601.43, -3834.61, 0.000, 0.000, 0.000, 17:40:34.143
53, -4354.46, -4874.48, -4900.42, -4151.04, 0.000, 0.000, 0.000, 17:40:34.144
54, -4300.40, -4796.77, -4816.35, -4063.29, 0.000, 0.000, 0.000, 17:40:34.144
55, -4106.07, -4551.04, -4597.92, -3853.27, 0.000, 0.000, 0.000, 17:40:34.145
56, -4063.84, -4549.30, -4584.88, -3839.42, 0.000, 0.000, 0.000, 17:40:34.145
57, -4349.35, -4876.39, -4882.90, -4150.09, 0.000, 0.000, 0.000, 17:40:34.146
58, -4325.95, -4804.11, -4829.93, -4074.08, 0.000, 0.000, 0.000, 17:40:34.146
59, -4113.85, -4575.39, -4628.72, -3857.38, 0.000, 0.000, 0.000, 17:40:34.157
60, -4067.18, -4554.16, -4592.61, -3831.82, 0.000, 0.000, 0.000, 17:40:34.157
61, -4348.87, -4867.42, -4882.55, -4150.99, 0.000, 0.000, 0.000, 17:40:34.172
62, -4305.41, -4798.21, -4816.57, -4077.43, 0.000, 0.000, 0.000, 17:40:34.172
63, -4119.20, -4590.95, -4619.16, -3858.51, 0.000, 0.000, 0.000, 17:40:34.187
64, -4054.83, -4549.66, -4594.75, -3815.19, 0.000, 0.000, 0.000, 17:40:34.187
65, -4336.08, -4848.38, -4868.56, -4139.68, 0.000, 0.000, 0.000, 17:40:34.188
66, -4294.98, -4784.07, -4796.82, -4056.08, 0.000, 0.000, 0.000, 17:40:34.188
67, -4103.58, -4575.00, -4602.92, -3851.14, 0.000, 0.000, 0.000, 17:40:34.202
68, -4045.86, -4532.18, -4569.54, -3827.76, 0.000, 0.000, 0.000, 17:40:34.202
69, -4354.30, -4879.74, -4895.16, -4153.18, 0.000, 0.000, 0.000, 17:40:34.218
70, -4312.29, -4812.75, -4824.62, -4080.78, 0.000, 0.000, 0.000, 17:40:34.218
71, -4105.25, -4566.35, -4605.30, -3867.50, 0.000, 0.000, 0.000, 17:40:34.218
72, -4054.99, -4537.81, -4577.16, -3830.18, 0.000, 0.000, 0.000, 17:40:34.218
73, -4358.61, -4889.88, -4900.52, -4144.53, 0.000, 0.000, 0.000, 17:40:34.232
74, -4303.17, -4805.63, -4822.43, -4062.74, 0.000, 0.000, 0.000, 17:40:34.233
75, -4106.49, -4600.01, -4615.40, -3858.10, 0.000, 0.000, 0.000, 17:40:34.247
76, -4051.90, -4545.52, -4583.13, -3829.15, 0.000, 0.000, 0.000, 17:40:34.247
77, -4350.53, -4877.07, -4893.47, -4151.26, 0.000, 0.000, 0.000, 17:40:34.248
78, -4310.59, -4811.87, -4837.73, -4071.85, 0.000, 0.000, 0.000, 17:40:34.248
79, -4114.19, -4590.60, -4619.57, -3861.15, 0.000, 0.000, 0.000, 17:40:34.263
80, -4040.22, -4540.17, -4570.10, -3808.41, 0.000, 0.000, 0.000, 17:40:34.263
81, -4345.39, -4868.40, -4891.77, -4146.51, 0.000, 0.000, 0.000, 17:40:34.277
82, -4294.58, -4795.72, -4809.72, -4057.52, 0.000, 0.000, 0.000, 17:40:34.277
83, -4110.12, -4584.28, -4604.72, -3864.39, 0.000, 0.000, 0.000, 17:40:34.278
84, -4056.76, -4548.72, -4592.95, -3836.35, 0.000, 0.000, 0.000, 17:40:34.278
85, -4366.63, -4911.33, -4920.57, -4161.71, 0.000, 0.000, 0.000, 17:40:34.292
86, -4308.60, -4819.84, -4828.28, -4060.24, 0.000, 0.000, 0.000, 17:40:34.292
87, -4119.59, -4606.58, -4629.41, -3868.93, 0.000, 0.000, 0.000, 17:40:34.307
88, -4047.81, -4537.75, -4569.13, -3824.75, 0.000, 0.000, 0.000, 17:40:34.307
89, -4339.99, -4875.60, -4889.25, -4144.52, 0.000, 0.000, 0.000, 17:40:34.308
90, -4314.71, -4815.89, -4829.74, -4052.28, 0.000, 0.000, 0.000, 17:40:34.308
91, -4130.29, -4605.09, -4621.46, -3867.27, 0.000, 0.000, 0.000, 17:40:34.322
92, -4076.38, -4592.36, -4602.32, -3841.51, 0.000, 0.000, 0.000, 17:40:34.322
93, -4339.00, -4871.06, -4887.36, -4139.33, 0.000, 0.000, 0.000, 17:40:34.337
94, -4295.00, -4796.29, -4812.97, -4073.37, 0.000, 0.000, 0.000, 17:40:34.337
95, -4117.93, -4592.59, -4625.38, -3869.65, 0.000, 0.000, 0.000, 17:40:34.337
96, -4052.06, -4560.59, -4577.39, -3822.59, 0.000, 0.000, 0.000, 17:40:34.338
97, -4347.13, -4890.34, -4887.38, -4133.81, 0.000, 0.000, 0.000, 17:40:34.352
98, -4307.45, -4798.73, -4812.83, -4075.85, 0.000, 0.000, 0.000, 17:40:34.352
99, -4116.47, -4609.77, -4627.88, -3867.61, 0.000, 0.000, 0.000, 17:40:34.368
100, -4055.30, -4555.02, -4593.71, -3833.00, 0.000, 0.000, 0.000, 17:40:34.368
101, -4347.05, -4891.06, -4895.93, -4145.01, 0.000, 0.000, 0.000, 17:40:34.368
102, -4304.58, -4823.05, -4807.60, -4074.55, 0.000, 0.000, 0.000, 17:40:34.368
103, -4115.81, -4608.90, -4620.07, -3867.09, 0.000, 0.000, 0.000, 17:40:34.382
104, -4052.71, -4570.26, -4596.03, -3832.32, 0.000, 0.000, 0.000, 17:40:34.383
105, -4362.74, -4908.33, -4907.30, -4160.24, 0.000, 0.000, 0.000, 17:40:34.397
106, -4308.49, -4830.00, -4842.96, -4087.41, 0.000, 0.000, 0.000, 17:40:34.397
107, -4112.96, -4610.26, -4627.87, -3872.00, 0.000, 0.000, 0.000, 17:40:34.398
108, -4045.46, -4565.14, -4584.43, -3821.55, 0.000, 0.000, 0.000, 17:40:34.398
109, -4349.31, -4902.97, -4893.07, -4144.21, 0.000, 0.000, 0.000, 17:40:34.412
110, -4304.55, -4820.60, -4828.95, -4069.03, 0.000, 0.000, 0.000, 17:40:34.412
111, -4106.92, -4600.68, -4624.43, -3852.28, 0.000, 0.000, 0.000, 17:40:34.427
112, -4062.59, -4576.03, -4596.12, -3831.55, 0.000, 0.000, 0.000, 17:40:34.427
113, -4355.23, -4895.05, -4894.22, -4152.80, 0.000, 0.000, 0.000, 17:40:34.442
114, -4315.16, -4816.60, -4821.12, -4077.38, 0.000, 0.000, 0.000, 17:40:34.442
115, -4130.42, -4622.81, -4640.69, -3873.30, 0.000, 0.000, 0.000, 17:40:34.443
116, -4068.81, -4571.27, -4605.65, -3830.26, 0.000, 0.000, 0.000, 17:40:34.443
117, -4360.95, -4919.57, -4915.19, -4156.69, 0.000, 0.000, 0.000, 17:40:34.458
118, -4305.82, -4833.68, -4819.52, -4064.87, 0.000, 0.000, 0.000, 17:40:34.458
119, -4119.10, -4609.19, -4620.38, -3872.31, 0.000, 0.000, 0.000, 17:40:34.465
120, -4049.38, -4556.08, -4575.68, -3835.48, 0.000, 0.000, 0.000, 17:40:34.465
121, -4358.67, -4902.77, -4918.62, -4154.35, 0.000, 0.000, 0.000, 17:40:34.472
122, -4321.72, -4832.02, -4854.38, -4080.77, 0.000, 0.000, 0.000, 17:40:34.473
123, -4117.11, -4602.88, -4624.82, -3867.57, 0.000, 0.000, 0.000, 17:40:34.487
124, -4056.86, -4557.89, -4582.38, -3821.87, 0.000, 0.000, 0.000, 17:40:34.487
125, -4367.89, -4907.11, -4910.42, -4163.22, 0.000, 0.000, 0.000, 17:40:34.488
126, -4311.51, -4808.43, -4832.70, -4081.93, 0.000, 0.000, 0.000, 17:40:34.488
127, -4131.10, -4626.27, -4643.23, -3879.41, 0.000, 0.000, 0.000, 17:40:34.503
128, -4055.24, -4557.58, -4579.70, -3830.97, 0.000, 0.000, 0.000, 17:40:34.503
129, -4345.77, -4888.01, -4894.09, -4157.45, 0.000, 0.000, 0.000, 17:40:34.518
130, -4311.61, -4814.98, -4815.96, -4073.79, 0.000, 0.000, 0.000, 17:40:34.518
131, -4124.87, -4608.62, -4628.37, -3875.04, 0.000, 0.000, 0.000, 17:40:34.518
132, -4055.94, -4561.15, -4590.55, -3828.59, 0.000, 0.000, 0.000, 17:40:34.518
133, -4355.53, -4895.47, -4905.29, -4158.07, 0.000, 0.000, 0.000, 17:40:34.533
134, -4333.21, -4845.91, -4854.27, -4091.54, 0.000, 0.000, 0.000, 17:40:34.533
135, -4118.93, -4616.61, -4633.05, -3873.85, 0.000, 0.000, 0.000, 17:40:34.547
136, -4063.03, -4562.73, -4593.63, -3833.00, 0.000, 0.000, 0.000, 17:40:34.547
137, -4347.42, -4886.38, -4902.74, -4147.53, 0.000, 0.000, 0.000, 17:40:34.548
138, -4302.11, -4802.79, -4818.86, -4066.10, 0.000, 0.000, 0.000, 17:40:34.548
139, -4119.40, -4616.43, -4642.92, -3873.60, 0.000, 0.000, 0.000, 17:40:34.562
140, -4050.23, -4553.38, -4577.57, -3821.52, 0.000, 0.000, 0.000, 17:40:34.563
141, -4348.96, -4899.48, -4893.47, -4140.10, 0.000, 0.000, 0.000, 17:40:34.577
142, -4312.68, -4827.63, -4836.65, -4065.23, 0.000, 0.000, 0.000, 17:40:34.578
143, -4119.18, -4608.82, -4636.37, -3871.58, 0.000, 0.000, 0.000, 17:40:34.578
144, -4041.27, -4543.06, -4571.51, -3812.29, 0.000, 0.000, 0.000, 17:40:34.578
145, -4344.37, -4876.07, -4890.34, -4144.20, 0.000, 0.000, 0.000, 17:40:34.592
146, -4290.19, -4801.94, -4804.14, -4061.93, 0.000, 0.000, 0.000, 17:40:34.592
147, -4118.53, -4614.21, -4622.61, -3866.41, 0.000, 0.000, 0.000, 17:40:34.608
148, -4066.17, -4582.45, -4603.52, -3831.18, 0.000, 0.000, 0.000, 17:40:34.608
149, -4352.47, -4897.79, -4910.45, -4139.42, 0.000, 0.000, 0.000, 17:40:34.608
150, -4315.68, -4811.20, -4832.74, -4076.86, 0.000, 0.000, 0.000, 17:40:34.608
151, -4107.13, -4597.21, -4616.85, -3870.69, 0.000, 0.000, 0.000, 17:40:34.622
152, -4041.89, -4545.30, -4569.42, -3827.22, 0.000, 0.000, 0.000, 17:40:34.622
153, -4354.62, -4909.48, -4892.11, -4144.53, 0.000, 0.000, 0.000, 17:40:34.638
154, -4323.79, -4838.81, -4833.56, -4085.92, 0.000, 0.000, 0.000, 17:40:34.638
155, -4138.32, -4619.97, -4639.59, -3878.66, 0.000, 0.000, 0.000, 17:40:34.638
156, -4049.53, -4562.16, -4576.08, -3825.45, 0.000, 0.000, 0.000, 17:40:34.638
157, -4363.97, -4908.77, -4909.53, -4164.20, 0.000, 0.000, 0.000, 17:40:34.698
158, -4320.78, -4828.05, -4835.76, -4073.70, 0.000, 0.000, 0.000, 17:40:34.698
159, -4125.58, -4625.95, -4632.78, -3868.24, 0.000, 0.000, 0.000, 17:40:34.698
160, -4054.12, -4564.76, -4586.62, -3837.95, 0.000, 0.000, 0.000, 17:40:34.699
161, -4354.59, -4910.01, -4921.64, -4158.62, 0.000, 0.000, 0.000, 17:40:34.699
162, -4312.70, -4823.92, -4827.17, -4076.39, 0.000, 0.000, 0.000, 17:40:34.699
163, -4125.92, -4631.28, -4641.34, -3857.33, 0.000, 0.000, 0.000, 17:40:34.701
164, -4057.04, -4573.22, -4587.33, -3826.01, 0.000, 0.000, 0.000, 17:40:34.701
165, -4339.30, -4896.85, -4897.99, -4149.33, 0.000, 0.000, 0.000, 17:40:34.701
166, -4301.33, -4832.00, -4823.59, -4072.72, 0.000, 0.000, 0.000, 17:40:34.701
167, -4129.28, -4627.59, -4637.69, -3881.45, 0.000, 0.000, 0.000, 17:40:34.701
168, -4065.74, -4586.38, -4602.19, -3841.96, 0.000, 0.000, 0.000, 17:40:34.701
169, -4372.79, -4930.83, -4923.27, -4171.02, 0.000, 0.000, 0.000, 17:40:34.713
170, -4323.33, -4849.29, -4848.89, -4079.99, 0.000, 0.000, 0.000, 17:40:34.713
171, -4127.59, -4617.76, -4631.62, -3871.20, 0.000, 0.000, 0.000, 17:40:34.727
172, -4064.73, -4593.57, -4581.15, -3836.13, 0.000, 0.000, 0.000, 17:40:34.727
173, -4367.32, -4929.59, -4916.52, -4169.77, 0.000, 0.000, 0.000, 17:40:34.728
174, -4313.29, -4848.14, -4838.50, -4087.88, 0.000, 0.000, 0.000, 17:40:34.728
175, -4129.22, -4648.50, -4648.57, -3886.77, 0.000, 0.000, 0.000, 17:40:34.742
176, -4057.23, -4580.45, -4594.73, -3829.61, 0.000, 0.000, 0.000, 17:40:34.742
177, -4367.66, -4946.95, -4918.16, -4175.40, 0.000, 0.000, 0.000, 17:40:34.758
178, -4330.61, -4863.43, -4841.16, -4091.51, 0.000, 0.000, 0.000, 17:40:34.758
179, -4133.14, -4639.45, -4638.68, -3879.42, 0.000, 0.000, 0.000, 17:40:34.758
180, -4058.88, -4582.93, -4582.60, -3822.49, 0.000, 0.000, 0.000, 17:40:34.758
181, -4368.73, -4924.23, -4907.39, -4159.60, 0.000, 0.000, 0.000, 17:40:34.772
182, -4323.76, -4864.64, -4855.71, -4086.53, 0.000, 0.000, 0.000, 17:40:34.772
183, -4125.45, -4635.53, -4636.74, -3866.77, 0.000, 0.000, 0.000, 17:40:34.787
184, -4087.08, -4611.70, -4623.17, -3862.02, 0.000, 0.000, 0.000, 17:40:34.787
185, -4389.11, -4965.30, -4939.08, -4180.27, 0.000, 0.000, 0.000, 17:40:34.788
186, -4327.52, -4857.96, -4842.40, -4097.72, 0.000, 0.000, 0.000, 17:40:34.788
187, -4121.79, -4624.69, -4632.23, -3876.49, 0.000, 0.000, 0.000, 17:40:34.808
188, -4054.39, -4567.94, -4578.90, -3827.74, 0.000, 0.000, 0.000, 17:40:34.808
189, -4348.74, -4902.10, -4892.86, -4144.30, 0.000, 0.000, 0.000, 17:40:34.818
190, -4321.29, -4834.61, -4841.43, -4084.94, 0.000, 0.000, 0.000, 17:40:34.818
191, -4119.02, -4621.40, -4627.61, -3871.05, 0.000, 0.000, 0.000, 17:40:34.818
192, -4050.94, -4563.96, -4580.43, -3829.99, 0.000, 0.000, 0.000, 17:40:34.818
193, -4347.19, -4907.60, -4900.48, -4156.10, 0.000, 0.000, 0.000, 17:40:34.833
194, -4321.59, -4845.96, -4841.86, -4084.43, 0.000, 0.000, 0.000, 17:40:34.833
195, -4138.78, -4640.00, -4650.02, -3871.75, 0.000, 0.000, 0.000, 17:40:34.847
196, -4047.01, -4556.49, -4575.99, -3811.92, 0.000, 0.000, 0.000, 17:40:34.847
197, -4346.08, -4897.59, -4893.71, -4146.28, 0.000, 0.000, 0.000, 17:40:34.848
198, -4313.51, -4819.44, -4829.61, -4081.47, 0.000, 0.000, 0.000, 17:40:34.848
199, -4124.92, -4617.77, -4628.16, -3878.63, 0.000, 0.000, 0.000, 17:40:34.863
200, -4037.54, -4556.10, -4571.87, -3814.12, 0.000, 0.000, 0.000, 17:40:34.863
0, -4350.61, -4899.48, -4895.30, -4138.40, 0.000, 0.000, 0.000, 17:40:34.864
1, -4318.49, -4829.60, -4835.12, -4083.37, 0.000, 0.000, 0.000, 17:40:34.878
2, -4132.82, -4616.76, -4640.42, -3881.20, 0.000, 0.000, 0.000, 17:40:34.878
3, -4060.90, -4563.45, -4587.17, -3836.97, 0.000, 0.000, 0.000, 17:40:34.892
4, -4339.97, -4874.17, -4886.75, -4144.04, 0.000, 0.000, 0.000, 17:40:34.892
5, -4326.97, -4833.76, -4840.00, -4089.42, 0.000, 0.000, 0.000, 17:40:34.893
6, -4132.13, -4612.85, -4642.30, -3878.09, 0.000, 0.000, 0.000, 17:40:34.893
7, -4044.72, -4556.14, -4571.06, -3812.63, 0.000, 0.000, 0.000, 17:40:34.907
8, -4345.59, -4886.37, -4883.79, -4148.56, 0.000, 0.000, 0.000, 17:40:34.907
9, -4309.83, -4827.55, -4831.08, -4076.19, 0.000, 0.000, 0.000, 17:40:34.923
10, -4119.98, -4622.57, -4631.24, -3877.43, 0.000, 0.000, 0.000, 17:40:34.923
11, -4052.34, -4560.87, -4571.32, -3819.92, 0.000, 0.000, 0.000, 17:40:34.923
12, -4340.43, -4879.79, -4884.13, -4146.50, 0.000, 0.000, 0.000, 17:40:34.923
13, -4304.11, -4811.08, -4817.53, -4076.85, 0.000, 0.000, 0.000, 17:40:34.938
14, -4130.96, -4625.91, -4640.15, -3890.99, 0.000, 0.000, 0.000, 17:40:34.938
15, -4066.95, -4574.62, -4585.85, -3828.03, 0.000, 0.000, 0.000, 17:40:34.952
16, -4358.63, -4893.06, -4900.27, -4155.75, 0.000, 0.000, 0.000, 17:40:34.952
17, -4321.05, -4834.00, -4845.46, -4076.41, 0.000, 0.000, 0.000, 17:40:34.953
18, -4120.38, -4609.68, -4636.64, -3880.49, 0.000, 0.000, 0.000, 17:40:34.953
19, -4046.59, -4554.63, -4578.36, -3829.25, 0.000, 0.000, 0.000, 17:40:34.967
20, -4346.08, -4888.88, -4900.85, -4151.47, 0.000, 0.000, 0.000, 17:40:34.967
21, -4312.78, -4820.32, -4830.43, -4076.78, 0.000, 0.000, 0.000, 17:40:34.982
22, -4120.75, -4604.53, -4630.65, -3873.93, 0.000, 0.000, 0.000, 17:40:34.983
23, -4046.41, -4545.98, -4564.62, -3814.86, 0.000, 0.000, 0.000, 17:40:34.984
24, -4363.33, -4900.87, -4907.76, -4166.74, 0.000, 0.000, 0.000, 17:40:34.984
25, -4320.35, -4837.08, -4838.71, -4087.78, 0.000, 0.000, 0.000, 17:40:34.998
26, -4134.13, -4625.16, -4641.36, -3882.79, 0.000, 0.000, 0.000, 17:40:34.998
27, -4054.23, -4562.65, -4565.44, -3828.19, 0.000, 0.000, 0.000, 17:40:35.013
28, -4353.85, -4889.86, -4892.88, -4151.49, 0.000, 0.000, 0.000, 17:40:35.013
29, -4314.46, -4818.71, -4831.58, -4073.74, 0.000, 0.000, 0.000, 17:40:35.013
30, -4139.66, -4632.32, -4643.69, -3886.83, 0.000, 0.000, 0.000, 17:40:35.013
31, -4063.55, -4574.30, -4590.35, -3838.30, 0.000, 0.000, 0.000, 17:40:35.027
32, -4349.84, -4885.13, -4889.25, -4138.41, 0.000, 0.000, 0.000, 17:40:35.027
33, -4321.90, -4834.30, -4843.49, -4079.65, 0.000, 0.000, 0.000, 17:40:35.042
34, -4136.80, -4636.29, -4650.10, -3883.70, 0.000, 0.000, 0.000, 17:40:35.043
35, -4051.97, -4547.08, -4572.50, -3821.64, 0.000, 0.000, 0.000, 17:40:35.043
36, -4337.36, -4865.94, -4888.01, -4137.92, 0.000, 0.000, 0.000, 17:40:35.043
37, -4303.96, -4810.10, -4815.14, -4078.17, 0.000, 0.000, 0.000, 17:40:35.057
38, -4130.34, -4611.08, -4642.71, -3885.66, 0.000, 0.000, 0.000, 17:40:35.057
39, -4050.19, -4552.37, -4580.62, -3817.05, 0.000, 0.000, 0.000, 17:40:35.072
40, -4341.12, -4876.58, -4889.42, -4133.68, 0.000, 0.000, 0.000, 17:40:35.072
41, -4309.73, -4814.69, -4820.80, -4075.23, 0.000, 0.000, 0.000, 17:40:35.073
42, -4122.54, -4602.39, -4642.62, -3877.75, 0.000, 0.000, 0.000, 17:40:35.073
43, -4047.58, -4542.68, -4579.13, -3825.90, 0.000, 0.000, 0.000, 17:40:35.087
44, -4361.58, -4890.10, -4909.37, -4157.23, 0.000, 0.000, 0.000, 17:40:35.087
45, -4310.08, -4806.97, -4823.46, -4071.92, 0.000, 0.000, 0.000, 17:40:35.102
46, -4126.42, -4598.40, -4628.78, -3880.90, 0.000, 0.000, 0.000, 17:40:35.102
47, -4056.30, -4550.25, -4573.33, -3824.92, 0.000, 0.000, 0.000, 17:40:35.103
48, -4340.52, -4881.81, -4887.02, -4143.87, 0.000, 0.000, 0.000, 17:40:35.103
49, -4311.02, -4830.49, -4835.57, -4078.72, 0.000, 0.000, 0.000, 17:40:35.133
50, -4137.67, -4628.61, -4651.73, -3887.43, 0.000, 0.000, 0.000, 17:40:35.133
51, -4060.04, -4549.77, -4585.00, -3826.17, 0.000, 0.000, 0.000, 17:40:35.134
52, -4349.00, -4887.25, -4894.20, -4141.95, 0.000, 0.000, 0.000, 17:40:35.134
53, -4330.02, -4845.14, -4839.80, -4094.71, 0.000, 0.000, 0.000, 17:40:35.134
54, -4124.92, -4619.26, -4635.65, -3877.09, 0.000, 0.000, 0.000, 17:40:35.134
55, -4046.44, -4554.02, -4573.87, -3820.29, 0.000, 0.000, 0.000, 17:40:35.147
56, -4343.39, -4897.19, -4899.41, -4151.73, 0.000, 0.000, 0.000, 17:40:35.147
57, -4304.48, -4801.03, -4833.40, -4075.80, 0.000, 0.000, 0.000, 17:40:35.163
58, -4126.59, -4597.20, -4635.85, -3870.70, 0.000, 0.000, 0.000, 17:40:35.163
59, -4045.84, -4540.76, -4575.72, -3807.55, 0.000, 0.000, 0.000, 17:40:35.164
60, -4354.50, -4892.57, -4909.21, -4144.01, 0.000, 0.000, 0.000, 17:40:35.164
61, -4325.54, -4831.92, -4839.33, -4070.15, 0.000, 0.000, 0.000, 17:40:35.177
62, -4144.59, -4626.58, -4645.61, -3879.30, 0.000, 0.000, 0.000, 17:40:35.177
63, -4050.17, -4549.12, -4586.99, -3814.16, 0.000, 0.000, 0.000, 17:40:35.192
64, -4353.20, -4891.76, -4899.68, -4140.82, 0.000, 0.000, 0.000, 17:40:35.192
65, -4322.93, -4833.56, -4834.93, -4091.02, 0.000, 0.000, 0.000, 17:40:35.193
66, -4129.49, -4610.69, -4629.10, -3872.89, 0.000, 0.000, 0.000, 17:40:35.193
67, -4049.51, -4544.98, -4570.53, -3816.33, 0.000, 0.000, 0.000, 17:40:35.214
68, -4354.27, -4890.59, -4904.34, -4148.92, 0.000, 0.000, 0.000, 17:40:35.214
69, -4321.38, -4831.38, -4827.66, -4077.89, 0.000, 0.000, 0.000, 17:40:35.222
70, -4122.27, -4611.41, -4636.39, -3863.40, 0.000, 0.000, 0.000, 17:40:35.222
71, -4049.22, -4555.77, -4581.54, -3823.25, 0.000, 0.000, 0.000, 17:40:35.223
72, -4350.77, -4896.57, -4904.18, -4150.11, 0.000, 0.000, 0.000, 17:40:35.223
73, -4317.19, -4830.83, -4836.47, -4095.55, 0.000, 0.000, 0.000, 17:40:35.252
74, -4122.14, -4615.32, -4632.80, -3892.59, 0.000, 0.000, 0.000, 17:40:35.252
75, -4047.84, -4552.01, -4565.18, -3819.31, 0.000, 0.000, 0.000, 17:40:35.252
76, -4339.60, -4883.57, -4890.01, -4134.72, 0.000, 0.000, 0.000, 17:40:35.253
77, -4320.13, -4837.62, -4831.26, -4086.48, 0.000, 0.000, 0.000, 17:40:35.253
78, -4121.63, -4614.99, -4631.59, -3881.52, 0.000, 0.000, 0.000, 17:40:35.253
79, -4046.55, -4542.05, -4561.83, -3808.06, 0.000, 0.000, 0.000, 17:40:35.267
80, -4340.51, -4884.19, -4883.90, -4141.59, 0.000, 0.000, 0.000, 17:40:35.267
81, -4328.53, -4828.80, -4839.57, -4086.58, 0.000, 0.000, 0.000, 17:40:35.282
82, -4136.08, -4626.38, -4643.15, -3876.80, 0.000, 0.000, 0.000, 17:40:35.283
83, -4034.41, -4535.15, -4563.07, -3815.08, 0.000, 0.000, 0.000, 17:40:35.283
84, -4354.24, -4888.42, -4900.87, -4157.18, 0.000, 0.000, 0.000, 17:40:35.284
85, -4319.65, -4830.90, -4831.84, -4082.07, 0.000, 0.000, 0.000, 17:40:35.298
86, -4137.59, -4624.19, -4647.51, -3887.65, 0.000, 0.000, 0.000, 17:40:35.298
87, -4048.34, -4558.74, -4584.77, -3822.29, 0.000, 0.000, 0.000, 17:40:35.313
88, -4340.24, -4894.17, -4888.98, -4134.31, 0.000, 0.000, 0.000, 17:40:35.313
89, -4309.09, -4825.31, -4844.18, -4070.52, 0.000, 0.000, 0.000, 17:40:35.314
90, -4124.06, -4613.66, -4635.75, -3868.68, 0.000, 0.000, 0.000, 17:40:35.314
91, -4031.77, -4539.69, -4570.03, -3812.35, 0.000, 0.000, 0.000, 17:40:35.328
92, -4342.68, -4893.16, -4894.55, -4144.10, 0.000, 0.000, 0.000, 17:40:35.328
93, -4317.23, -4823.47, -4838.46, -4083.83, 0.000, 0.000, 0.000, 17:40:35.342
94, -4115.79, -4602.08, -4636.11, -3884.25, 0.000, 0.000, 0.000, 17:40:35.342
95, -4030.95, -4542.28, -4567.88, -3809.76, 0.000, 0.000, 0.000, 17:40:35.343
96, -4327.43, -4879.10, -4889.51, -4134.72, 0.000, 0.000, 0.000, 17:40:35.343
97, -4316.84, -4827.66, -4848.80, -4082.22, 0.000, 0.000, 0.000, 17:40:35.357
98, -4125.40, -4612.62, -4630.60, -3870.30, 0.000, 0.000, 0.000, 17:40:35.357
99, -4054.75, -4570.38, -4588.39, -3823.02, 0.000, 0.000, 0.000, 17:40:35.372
100, -4342.40, -4893.68, -4893.34, -4147.39, 0.000, 0.000, 0.000, 17:40:35.372
101, -4322.87, -4820.80, -4833.00, -4089.70, 0.000, 0.000, 0.000, 17:40:35.372
102, -4124.30, -4611.85, -4635.68, -3878.20, 0.000, 0.000, 0.000, 17:40:35.372
103, -4038.38, -4536.54, -4562.23, -3816.00, 0.000, 0.000, 0.000, 17:40:35.388
104, -4337.74, -4877.85, -4888.31, -4144.76, 0.000, 0.000, 0.000, 17:40:35.388
105, -4321.64, -4838.18, -4848.75, -4082.41, 0.000, 0.000, 0.000, 17:40:35.417
106, -4135.85, -4627.00, -4641.83, -3882.80, 0.000, 0.000, 0.000, 17:40:35.417
107, -4041.33, -4551.15, -4570.73, -3809.86, 0.000, 0.000, 0.000, 17:40:35.418
108, -4332.85, -4883.09, -4871.87, -4135.32, 0.000, 0.000, 0.000, 17:40:35.418
109, -4312.86, -4825.79, -4841.16, -4079.32, 0.000, 0.000, 0.000, 17:40:35.418
110, -4131.86, -4620.64, -4644.42, -3877.45, 0.000, 0.000, 0.000, 17:40:35.418
111, -4044.17, -4541.56, -4574.35, -3818.22, 0.000, 0.000, 0.000, 17:40:35.419
112, -4336.25, -4884.17, -4888.26, -4133.27, 0.000, 0.000, 0.000, 17:40:35.419
113, -4342.26, -4875.18, -4865.19, -4101.91, 0.000, 0.000, 0.000, 17:40:35.434
114, -4143.55, -4634.45, -4656.24, -3893.40, 0.000, 0.000, 0.000, 17:40:35.434
115, -4042.77, -4546.58, -4563.79, -3808.49, 0.000, 0.000, 0.000, 17:40:35.463
116, -4319.68, -4870.04, -4867.20, -4120.90, 0.000, 0.000, 0.000, 17:40:35.464
117, -4321.86, -4821.43, -4843.79, -4097.60, 0.000, 0.000, 0.000, 17:40:35.464
118, -4132.39, -4616.68, -4647.77, -3875.01, 0.000, 0.000, 0.000, 17:40:35.464
119, -4048.97, -4543.95, -4577.22, -3810.13, 0.000, 0.000, 0.000, 17:40:35.464
120, -4344.03, -4890.23, -4899.25, -4137.77, 0.000, 0.000, 0.000, 17:40:35.464
121, -4312.34, -4832.80, -4841.42, -4081.24, 0.000, 0.000, 0.000, 17:40:35.477
122, -4124.27, -4625.21, -4641.38, -3889.69, 0.000, 0.000, 0.000, 17:40:35.477
123, -4046.72, -4550.91, -4577.75, -3807.72, 0.000, 0.000, 0.000, 17:40:35.492
124, -4339.15, -4881.34, -4889.67, -4127.01, 0.000, 0.000, 0.000, 17:40:35.492
125, -4321.69, -4837.99, -4839.54, -4083.13, 0.000, 0.000, 0.000, 17:40:35.493
126, -4121.10, -4619.32, -4627.08, -3870.09, 0.000, 0.000, 0.000, 17:40:35.493
127, -4045.06, -4543.62, -4569.34, -3827.57, 0.000, 0.000, 0.000, 17:40:35.522
128, -4338.59, -4883.55, -4894.89, -4150.25, 0.000, 0.000, 0.000, 17:40:35.522
129, -4318.62, -4822.01, -4844.88, -4071.18, 0.000, 0.000, 0.000, 17:40:35.523
130, -4138.53, -4643.99, -4656.70, -3884.65, 0.000, 0.000, 0.000, 17:40:35.523
131, -4048.39, -4563.52, -4585.18, -3821.87, 0.000, 0.000, 0.000, 17:40:35.523
132, -4340.17, -4892.55, -4898.71, -4149.07, 0.000, 0.000, 0.000, 17:40:35.523
133, -4320.64, -4840.64, -4847.50, -4095.04, 0.000, 0.000, 0.000, 17:40:35.552
134, -4120.94, -4609.14, -4630.62, -3887.80, 0.000, 0.000, 0.000, 17:40:35.552
135, -4020.35, -4518.14, -4545.85, -3809.52, 0.000, 0.000, 0.000, 17:40:35.553
136, -4336.78, -4882.31, -4887.15, -4150.53, 0.000, 0.000, 0.000, 17:40:35.553
137, -4313.15, -4827.62, -4825.69, -4075.04, 0.000, 0.000, 0.000, 17:40:35.553
138, -4118.71, -4606.45, -4634.84, -3864.42, 0.000, 0.000, 0.000, 17:40:35.553
139, -4027.80, -4532.47, -4564.54, -3795.11, 0.000, 0.000, 0.000, 17:40:35.567
140, -4322.86, -4884.08, -4875.08, -4135.64, 0.000, 0.000, 0.000, 17:40:35.567
141, -4305.58, -4808.92, -4836.50, -4087.49, 0.000, 0.000, 0.000, 17:40:35.582
142, -4128.27, -4603.87, -4633.80, -3891.60, 0.000, 0.000, 0.000, 17:40:35.583
143, -4042.68, -4546.13, -4563.54, -3816.86, 0.000, 0.000, 0.000, 17:40:35.583
144, -4341.44, -4886.06, -4890.58, -4142.80, 0.000, 0.000, 0.000, 17:40:35.583
145, -4315.96, -4830.74, -4834.55, -4082.22, 0.000, 0.000, 0.000, 17:40:35.598
146, -4120.15, -4611.57, -4628.82, -3878.34, 0.000, 0.000, 0.000, 17:40:35.598
147, -4031.55, -4534.33, -4559.73, -3811.52, 0.000, 0.000, 0.000, 17:40:35.612
148, -4347.88, -4891.19, -4895.12, -4157.78, 0.000, 0.000, 0.000, 17:40:35.612
149, -4344.51, -4857.99, -4861.37, -4102.41, 0.000, 0.000, 0.000, 17:40:35.613
150, -4140.51, -4640.81, -4661.99, -3890.00, 0.000, 0.000, 0.000, 17:40:35.613
151, -4053.67, -4552.78, -4582.23, -3814.34, 0.000, 0.000, 0.000, 17:40:35.629
152, -4336.87, -4895.86, -4896.86, -4134.67, 0.000, 0.000, 0.000, 17:40:35.630
153, -4321.93, -4833.02, -4838.10, -4085.39, 0.000, 0.000, 0.000, 17:40:35.642
154, -4142.41, -4626.42, -4646.21, -3878.64, 0.000, 0.000, 0.000, 17:40:35.643
155, -4045.27, -4535.86, -4561.92, -3811.34, 0.000, 0.000, 0.000, 17:40:35.643
156, -4331.38, -4866.64, -4872.44, -4143.34, 0.000, 0.000, 0.000, 17:40:35.643
157, -4322.95, -4830.83, -4842.52, -4102.60, 0.000, 0.000, 0.000, 17:40:35.664
158, -4142.37, -4643.19, -4643.30, -3887.51, 0.000, 0.000, 0.000, 17:40:35.664
159, -4053.92, -4556.75, -4577.04, -3806.43, 0.000, 0.000, 0.000, 17:40:35.687
160, -4340.07, -4877.15, -4888.99, -4131.72, 0.000, 0.000, 0.000, 17:40:35.687
161, -4313.51, -4813.04, -4830.59, -4076.67, 0.000, 0.000, 0.000, 17:40:35.688
162, -4134.94, -4616.85, -4647.12, -3881.70, 0.000, 0.000, 0.000, 17:40:35.688
163, -4040.61, -4546.23, -4568.95, -3800.63, 0.000, 0.000, 0.000, 17:40:35.689
164, -4351.12, -4898.65, -4913.56, -4142.59, 0.000, 0.000, 0.000, 17:40:35.689
165, -4307.61, -4822.12, -4844.94, -4077.41, 0.000, 0.000, 0.000, 17:40:35.689
166, -4134.54, -4623.46, -4642.26, -3887.46, 0.000, 0.000, 0.000, 17:40:35.689
167, -4040.67, -4543.33, -4566.06, -3809.43, 0.000, 0.000, 0.000, 17:40:35.702
168, -4326.54, -4886.12, -4878.50, -4137.78, 0.000, 0.000, 0.000, 17:40:35.702
169, -4325.04, -4841.33, -4849.05, -4094.16, 0.000, 0.000, 0.000, 17:40:35.717
170, -4142.75, -4638.09, -4648.39, -3890.98, 0.000, 0.000, 0.000, 17:40:35.717
171, -4046.06, -4545.06, -4561.29, -3804.52, 0.000, 0.000, 0.000, 17:40:35.733
172, -4331.83, -4877.92, -4883.70, -4124.16, 0.000, 0.000, 0.000, 17:40:35.733
173, -4321.07, -4827.25, -4834.71, -4088.51, 0.000, 0.000, 0.000, 17:40:35.733
174, -4128.45, -4610.28, -4646.82, -3884.68, 0.000, 0.000, 0.000, 17:40:35.733
175, -4044.73, -4526.91, -4564.16, -3808.98, 0.000, 0.000, 0.000, 17:40:35.748
176, -4348.79, -4887.78, -4895.37, -4140.30, 0.000, 0.000, 0.000, 17:40:35.748
177, -4324.24, -4842.86, -4841.60, -4082.83, 0.000, 0.000, 0.000, 17:40:35.763
178, -4128.93, -4622.56, -4643.27, -3886.18, 0.000, 0.000, 0.000, 17:40:35.763
179, -4039.57, -4542.02, -4562.14, -3800.90, 0.000, 0.000, 0.000, 17:40:35.763
180, -4334.68, -4874.98, -4881.91, -4141.45, 0.000, 0.000, 0.000, 17:40:35.763
181, -4325.52, -4831.91, -4832.91, -4096.53, 0.000, 0.000, 0.000, 17:40:35.778
182, -4141.39, -4635.15, -4644.63, -3888.82, 0.000, 0.000, 0.000, 17:40:35.778
183, -4027.96, -4522.29, -4547.38, -3806.13, 0.000, 0.000, 0.000, 17:40:35.808
184, -4329.28, -4861.81, -4869.58, -4128.35, 0.000, 0.000, 0.000, 17:40:35.808
185, -4319.16, -4832.09, -4842.03, -4085.46, 0.000, 0.000, 0.000, 17:40:35.808
186, -4142.90, -4628.62, -4651.81, -3884.44, 0.000, 0.000, 0.000, 17:40:35.809
187, -4029.50, -4530.27, -4559.34, -3796.97, 0.000, 0.000, 0.000, 17:40:35.809
188, -4334.55, -4880.49, -4893.11, -4144.76, 0.000, 0.000, 0.000, 17:40:35.809
189, -4321.31, -4841.65, -4839.54, -4081.90, 0.000, 0.000, 0.000, 17:40:35.809
190, -4132.36, -4623.46, -4642.66, -3886.86, 0.000, 0.000, 0.000, 17:40:35.809
191, -4031.86, -4532.73, -4556.97, -3803.94, 0.000, 0.000, 0.000, 17:40:35.822
192, -4324.98, -4868.31, -4881.26, -4133.54, 0.000, 0.000, 0.000, 17:40:35.822
193, -4315.64, -4823.12, -4847.75, -4088.46, 0.000, 0.000, 0.000, 17:40:35.837
194, -4142.53, -4633.93, -4661.53, -3896.70, 0.000, 0.000, 0.000, 17:40:35.837
195, -4037.97, -4538.35, -4567.85, -3794.99, 0.000, 0.000, 0.000, 17:40:35.853
196, -4336.55, -4882.31, -4880.74, -4142.49, 0.000, 0.000, 0.000, 17:40:35.854
197, -4321.19, -4835.34, -4846.32, -4093.22, 0.000, 0.000, 0.000, 17:40:35.854
198, -4124.72, -4619.31, -4646.78, -3884.24, 0.000, 0.000, 0.000, 17:40:35.854
199, -4029.82, -4528.78, -4553.91, -3801.94, 0.000, 0.000, 0.000, 17:40:35.868
200, -4327.96, -4872.54, -4874.73, -4142.76, 0.000, 0.000, 0.000, 17:40:35.869
0, -4337.08, -4853.25, -4867.40, -4105.91, 0.000, 0.000, 0.000, 17:40:35.870
1, -4134.81, -4621.47, -4646.41, -3878.38, 0.000, 0.000, 0.000, 17:40:35.883
2, -4039.31, -4540.53, -4571.60, -3807.14, 0.000, 0.000, 0.000, 17:40:35.883
3, -4332.45, -4868.17, -4875.20, -4124.88, 0.000, 0.000, 0.000, 17:40:35.897
4, -4323.56, -4834.14, -4836.67, -4088.63, 0.000, 0.000, 0.000, 17:40:35.897
5, -4150.53, -4639.75, -4653.75, -3896.73, 0.000, 0.000, 0.000, 17:40:35.912
6, -4041.63, -4545.78, -4569.97, -3803.83, 0.000, 0.000, 0.000, 17:40:35.912
7, -4329.71, -4870.57, -4884.77, -4129.76, 0.000, 0.000, 0.000, 17:40:35.913
8, -4325.62, -4836.09, -4853.20, -4103.31, 0.000, 0.000, 0.000, 17:40:35.913
9, -4153.55, -4636.38, -4652.60, -3898.74, 0.000, 0.000, 0.000, 17:40:35.928
10, -4034.25, -4534.70, -4555.12, -3806.26, 0.000, 0.000, 0.000, 17:40:35.928
11, -4331.88, -4873.45, -4890.18, -4122.62, 0.000, 0.000, 0.000, 17:40:35.942
12, -4335.89, -4850.54, -4857.62, -4099.71, 0.000, 0.000, 0.000, 17:40:35.943
13, -4149.69, -4635.18, -4659.51, -3898.05, 0.000, 0.000, 0.000, 17:40:35.943
14, -4046.18, -4545.75, -4578.05, -3813.62, 0.000, 0.000, 0.000, 17:40:35.943
15, -4332.38, -4873.16, -4871.59, -4138.41, 0.000, 0.000, 0.000, 17:40:35.957
16, -4323.27, -4842.48, -4836.75, -4083.15, 0.000, 0.000, 0.000, 17:40:35.957
17, -4151.86, -4649.65, -4661.08, -3901.05, 0.000, 0.000, 0.000, 17:40:35.957
18, -4038.14, -4529.46, -4555.30, -3801.46, 0.000, 0.000, 0.000, 17:40:35.957
19, -4327.40, -4864.67, -4875.02, -4124.00, 0.000, 0.000, 0.000, 17:40:35.972
20, -4325.97, -4837.79, -4851.30, -4095.30, 0.000, 0.000, 0.000, 17:40:35.973
21, -4147.77, -4635.98, -4662.19, -3890.63, 0.000, 0.000, 0.000, 17:40:35.987
22, -4040.26, -4533.30, -4560.12, -3807.82, 0.000, 0.000, 0.000, 17:40:35.987
23, -4330.27, -4864.24, -4879.84, -4127.64, 0.000, 0.000, 0.000, 17:40:35.987
24, -4333.32, -4849.80, -4851.15, -4098.87, 0.000, 0.000, 0.000, 17:40:35.987
25, -4137.19, -4632.11, -4642.67, -3888.76, 0.000, 0.000, 0.000, 17:40:36.002
26, -4051.32, -4568.94, -4580.75, -3816.13, 0.000, 0.000, 0.000, 17:40:36.002
27, -4336.63, -4869.53, -4884.60, -4135.92, 0.000, 0.000, 0.000, 17:40:36.018
28, -4321.47, -4821.86, -4826.72, -4089.46, 0.000, 0.000, 0.000, 17:40:36.018
29, -4144.79, -4629.46, -4649.08, -3894.74, 0.000, 0.000, 0.000, 17:40:36.033
30, -4042.43, -4535.55, -4566.76, -3807.08, 0.000, 0.000, 0.000, 17:40:36.033
31, -4333.64, -4889.72, -4889.39, -4130.58, 0.000, 0.000, 0.000, 17:40:36.034
32, -4330.21, -4842.13, -4867.02, -4101.37, 0.000, 0.000, 0.000, 17:40:36.034
33, -4141.48, -4640.19, -4653.66, -3891.98, 0.000, 0.000, 0.000, 17:40:36.048
34, -4020.25, -4525.29, -4560.14, -3800.00, 0.000, 0.000, 0.000, 17:40:36.048
35, -4328.83, -4876.12, -4879.23, -4129.43, 0.000, 0.000, 0.000, 17:40:36.048
36, -4325.75, -4839.72, -4845.40, -4088.18, 0.000, 0.000, 0.000, 17:40:36.048
37, -4149.98, -4631.05, -4662.45, -3894.52, 0.000, 0.000, 0.000, 17:40:36.062
38, -4041.03, -4532.03, -4555.29, -3800.75, 0.000, 0.000, 0.000, 17:40:36.063
39, -4323.11, -4863.35, -4864.86, -4119.94, 0.000, 0.000, 0.000, 17:40:36.078
40, -4327.92, -4839.30, -4841.13, -4075.29, 0.000, 0.000, 0.000, 17:40:36.078
41, -4146.77, -4639.00, -4653.00, -3893.24, 0.000, 0.000, 0.000, 17:40:36.092
42, -4049.20, -4546.82, -4565.89, -3810.02, 0.000, 0.000, 0.000, 17:40:36.092
43, -4316.59, -4863.32, -4869.86, -4119.46, 0.000, 0.000, 0.000, 17:40:36.093
44, -4321.09, -4819.58, -4838.04, -4093.62, 0.000, 0.000, 0.000, 17:40:36.093
45, -4140.52, -4630.41, -4648.87, -3895.50, 0.000, 0.000, 0.000, 17:40:36.107
46, -4055.93, -4558.97, -4578.15, -3824.52, 0.000, 0.000, 0.000, 17:40:36.107
47, -4345.10, -4895.61, -4890.46, -4138.64, 0.000, 0.000, 0.000, 17:40:36.108
48, -4336.34, -4851.67, -4846.52, -4096.94, 0.000, 0.000, 0.000, 17:40:36.108
49, -4149.02, -4643.60, -4658.59, -3890.96, 0.000, 0.000, 0.000, 17:40:36.137
50, -4028.51, -4525.90, -4552.10, -3800.71, 0.000, 0.000, 0.000, 17:40:36.137
51, -4327.38, -4870.25, -4879.34, -4125.69, 0.000, 0.000, 0.000, 17:40:36.137
52, -4313.21, -4828.93, -4831.64, -4076.91, 0.000, 0.000, 0.000, 17:40:36.137
53, -4134.70, -4636.63, -4654.80, -3885.62, 0.000, 0.000, 0.000, 17:40:36.138
54, -4041.98, -4543.15, -4558.53, -3799.26, 0.000, 0.000, 0.000, 17:40:36.138
55, -4326.10, -4869.56, -4877.47, -4134.72, 0.000, 0.000, 0.000, 17:40:36.152
56, -4323.28, -4838.32, -4854.18, -4087.25, 0.000, 0.000, 0.000, 17:40:36.152
57, -4149.90, -4652.79, -4666.08, -3899.90, 0.000, 0.000, 0.000, 17:40:36.167
58, -4043.90, -4536.69, -4569.84, -3817.95, 0.000, 0.000, 0.000, 17:40:36.167
59, -4322.20, -4858.62, -4875.78, -4127.58, 0.000, 0.000, 0.000, 17:40:36.168
60, -4322.14, -4825.27, -4840.50, -4080.82, 0.000, 0.000, 0.000, 17:40:36.168
61, -4161.31, -4653.40, -4666.99, -3906.19, 0.000, 0.000, 0.000, 17:40:36.198
62, -4050.84, -4545.93, -4571.32, -3815.99, 0.000, 0.000, 0.000, 17:40:36.198
63, -4323.47, -4867.37, -4877.73, -4125.75, 0.000, 0.000, 0.000, 17:40:36.198
64, -4323.68, -4834.99, -4839.29, -4086.25, 0.000, 0.000, 0.000, 17:40:36.199
65, -4155.61, -4648.82, -4675.34, -3909.66, 0.000, 0.000, 0.000, 17:40:36.199
66, -4056.34, -4553.38, -4580.71, -3831.69, 0.000, 0.000, 0.000, 17:40:36.199
67, -4329.18, -4863.47, -4882.98, -4144.58, 0.000, 0.000, 0.000, 17:40:36.212
68, -4312.94, -4831.59, -4834.04, -4076.80, 0.000, 0.000, 0.000, 17:40:36.212
69, -4148.94, -4638.95, -4658.62, -3892.74, 0.000, 0.000, 0.000, 17:40:36.227
70, -4035.66, -4543.16, -4555.61, -3794.51, 0.000, 0.000, 0.000, 17:40:36.227
71, -4332.68, -4870.49, -4882.80, -4135.54, 0.000, 0.000, 0.000, 17:40:36.242
72, -4324.03, -4840.49, -4845.40, -4086.85, 0.000, 0.000, 0.000, 17:40:36.242
73, -4130.03, -4617.59, -4650.07, -3880.22, 0.000, 0.000, 0.000, 17:40:36.258
74, -4043.82, -4534.06, -4568.81, -3809.25, 0.000, 0.000, 0.000, 17:40:36.258
75, -4331.87, -4872.32, -4877.89, -4136.21, 0.000, 0.000, 0.000, 17:40:36.258
76, -4320.70, -4830.02, -4840.27, -4086.91, 0.000, 0.000, 0.000, 17:40:36.258
77, -4148.67, -4632.69, -4655.64, -3898.20, 0.000, 0.000, 0.000, 17:40:36.259
78, -4045.78, -4552.73, -4564.79, -3811.47, 0.000, 0.000, 0.000, 17:40:36.259
79, -4317.86, -4869.07, -4872.66, -4127.51, 0.000, 0.000, 0.000, 17:40:36.273
80, -4308.32, -4832.29, -4839.19, -4082.09, 0.000, 0.000, 0.000, 17:40:36.273
81, -4165.82, -4660.84, -4681.43, -3919.82, 0.000, 0.000, 0.000, 17:40:36.287
82, -4054.82, -4560.80, -4582.50, -3811.26, 0.000, 0.000, 0.000, 17:40:36.288
83, -4323.36, -4873.75, -4879.27, -4123.73, 0.000, 0.000, 0.000, 17:40:36.288
84, -4305.38, -4820.69, -4822.56, -4083.55, 0.000, 0.000, 0.000, 17:40:36.288
85, -4143.46, -4636.71, -4656.42, -3901.40, 0.000, 0.000, 0.000, 17:40:36.302
86, -4038.42, -4544.42, -4557.59, -3810.11, 0.000, 0.000, 0.000, 17:40:36.302
87, -4302.09, -4838.04, -4848.01, -4112.81, 0.000, 0.000, 0.000, 17:40:36.317
88, -4310.71, -4823.94, -4830.39, -4084.11, 0.000, 0.000, 0.000, 17:40:36.317
89, -4135.62, -4624.76, -4645.20, -3886.97, 0.000, 0.000, 0.000, 17:40:36.318
90, -4044.73, -4534.15, -4565.38, -3816.01, 0.000, 0.000, 0.000, 17:40:36.318
91, -4315.21, -4853.54, -4870.85, -4114.28, 0.000, 0.000, 0.000, 17:40:36.332
92, -4311.27, -4819.96, -4836.61, -4081.46, 0.000, 0.000, 0.000, 17:40:36.332
93, -4142.24, -4631.75, -4655.07, -3891.27, 0.000, 0.000, 0.000, 17:40:36.347
94, -4038.31, -4533.88, -4567.37, -3804.86, 0.000, 0.000, 0.000, 17:40:36.348
95, -4325.17, -4863.92, -4881.95, -4127.12, 0.000, 0.000, 0.000, 17:40:36.348
96, -4322.98, -4841.92, -4843.26, -4090.24, 0.000, 0.000, 0.000, 17:40:36.348
97, -4146.48, -4636.49, -4656.76, -3905.27, 0.000, 0.000, 0.000, 17:40:36.363
98, -4040.76, -4542.74, -4558.21, -3808.33, 0.000, 0.000, 0.000, 17:40:36.363
99, -4317.51, -4858.81, -4865.04, -4119.36, 0.000, 0.000, 0.000, 17:40:36.377
100, -4328.44, -4845.22, -4857.08, -4093.46, 0.000, 0.000, 0.000, 17:40:36.377
101, -4143.77, -4627.62, -4657.46, -3889.97, 0.000, 0.000, 0.000, 17:40:36.378
102, -4044.19, -4526.76, -4558.65, -3805.02, 0.000, 0.000, 0.000, 17:40:36.378
103, -4324.20, -4863.39, -4876.05, -4120.32, 0.000, 0.000, 0.000, 17:40:36.392
104, -4329.26, -4848.72, -4845.46, -4083.56, 0.000, 0.000, 0.000, 17:40:36.392
105, -4164.94, -4655.84, -4665.26, -3905.62, 0.000, 0.000, 0.000, 17:40:36.407
106, -4042.58, -4530.02, -4563.17, -3805.74, 0.000, 0.000, 0.000, 17:40:36.407
107, -4318.83, -4843.75, -4868.31, -4121.14, 0.000, 0.000, 0.000, 17:40:36.408
108, -4314.13, -4827.88, -4831.64, -4088.00, 0.000, 0.000, 0.000, 17:40:36.408
109, -4148.15, -4639.78, -4654.34, -3906.19, 0.000, 0.000, 0.000, 17:40:36.423
110, -4037.18, -4538.39, -4561.27, -3823.86, 0.000, 0.000, 0.000, 17:40:36.423
111, -4315.91, -4857.14, -4870.63, -4125.91, 0.000, 0.000, 0.000, 17:40:36.437
112, -4333.41, -4839.15, -4852.81, -4094.78, 0.000, 0.000, 0.000, 17:40:36.439
113, -4152.57, -4643.16, -4657.17, -3902.48, 0.000, 0.000, 0.000, 17:40:36.439
114, -4047.06, -4531.29, -4560.87, -3805.81, 0.000, 0.000, 0.000, 17:40:36.439
115, -4321.28, -4865.93, -4878.15, -4121.69, 0.000, 0.000, 0.000, 17:40:36.453
116, -4324.96, -4834.74, -4852.33, -4082.42, 0.000, 0.000, 0.000, 17:40:36.453
117, -4164.22, -4651.53, -4666.10, -3901.84, 0.000, 0.000, 0.000, 17:40:36.469
118, -4058.03, -4562.60, -4575.04, -3822.96, 0.000, 0.000, 0.000, 17:40:36.469
119, -4326.86, -4862.18, -4877.94, -4130.18, 0.000, 0.000, 0.000, 17:40:36.469
120, -4332.36, -4848.35, -4857.00, -4090.11, 0.000, 0.000, 0.000, 17:40:36.469
121, -4162.64, -4646.90, -4670.20, -3916.98, 0.000, 0.000, 0.000, 17:40:36.483
122, -4048.92, -4543.35, -4565.52, -3822.74, 0.000, 0.000, 0.000, 17:40:36.484
123, -4314.91, -4849.18, -4861.91, -4124.59, 0.000, 0.000, 0.000, 17:40:36.498
124, -4334.15, -4839.79, -4851.12, -4098.43, 0.000, 0.000, 0.000, 17:40:36.498
125, -4156.75, -4654.42, -4658.53, -3911.26, 0.000, 0.000, 0.000, 17:40:36.498
126, -4043.74, -4541.01, -4564.44, -3803.94, 0.000, 0.000, 0.000, 17:40:36.498
127, -4307.78, -4862.07, -4856.39, -4105.97, 0.000, 0.000, 0.000, 17:40:36.513
128, -4330.63, -4847.14, -4854.27, -4094.31, 0.000, 0.000, 0.000, 17:40:36.513
129, -4166.16, -4656.35, -4671.67, -3918.24, 0.000, 0.000, 0.000, 17:40:36.528
130, -4052.59, -4552.72, -4574.44, -3821.05, 0.000, 0.000, 0.000, 17:40:36.528
131, -4324.29, -4860.36, -4869.54, -4107.74, 0.000, 0.000, 0.000, 17:40:36.528
132, -4324.81, -4832.66, -4836.68, -4092.56, 0.000, 0.000, 0.000, 17:40:36.529
133, -4148.32, -4629.69, -4647.28, -3896.14, 0.000, 0.000, 0.000, 17:40:36.542
134, -4042.06, -4523.50, -4557.69, -3809.05, 0.000, 0.000, 0.000, 17:40:36.542
135, -4319.21, -4868.02, -4882.18, -4119.53, 0.000, 0.000, 0.000, 17:40:36.557
136, -4332.43, -4841.02, -4857.96, -4087.21, 0.000, 0.000, 0.000, 17:40:36.557
137, -4146.51, -4642.78, -4650.69, -3893.83, 0.000, 0.000, 0.000, 17:40:36.558
138, -4042.62, -4543.75, -4566.09, -3803.50, 0.000, 0.000, 0.000, 17:40:36.558
139, -4322.51, -4855.10, -4876.68, -4129.36, 0.000, 0.000, 0.000, 17:40:36.572
140, -4318.27, -4825.13, -4842.21, -4090.28, 0.000, 0.000, 0.000, 17:40:36.572
141, -4151.47, -4629.88, -4653.29, -3894.93, 0.000, 0.000, 0.000, 17:40:36.587
142, -4042.76, -4538.68, -4566.67, -3820.16, 0.000, 0.000, 0.000, 17:40:36.587
143, -4322.19, -4863.71, -4872.63, -4131.63, 0.000, 0.000, 0.000, 17:40:36.587
144, -4326.15, -4836.53, -4851.62, -4088.86, 0.000, 0.000, 0.000, 17:40:36.588
145, -4150.57, -4636.73, -4665.60, -3896.10, 0.000, 0.000, 0.000, 17:40:36.603
146, -4033.16, -4530.59, -4551.41, -3811.26, 0.000, 0.000, 0.000, 17:40:36.603
147, -4306.33, -4847.97, -4859.06, -4118.27, 0.000, 0.000, 0.000, 17:40:36.617
148, -4315.19, -4832.54, -4848.20, -4082.63, 0.000, 0.000, 0.000, 17:40:36.617
149, -4156.25, -4639.99, -4664.07, -3911.37, 0.000, 0.000, 0.000, 17:40:36.618
150, -4044.31, -4551.86, -4565.21, -3810.23, 0.000, 0.000, 0.000, 17:40:36.618
151, -4311.24, -4848.90, -4850.62, -4113.39, 0.000, 0.000, 0.000, 17:40:36.633
152, -4327.96, -4841.28, -4833.67, -4088.55, 0.000, 0.000, 0.000, 17:40:36.633
153, -4162.36, -4645.96, -4666.74, -3904.23, 0.000, 0.000, 0.000, 17:40:36.647
154, -4062.05, -4543.90, -4582.51, -3818.71, 0.000, 0.000, 0.000, 17:40:36.647
155, -4312.16, -4849.53, -4872.05, -4121.60, 0.000, 0.000, 0.000, 17:40:36.647
156, -4325.70, -4833.03, -4845.98, -4100.16, 0.000, 0.000, 0.000, 17:40:36.647
157, -4161.56, -4653.00, -4670.42, -3912.27, 0.000, 0.000, 0.000, 17:40:36.662
158, -4038.39, -4545.66, -4559.87, -3807.45, 0.000, 0.000, 0.000, 17:40:36.663
159, -4301.97, -4838.80, -4859.49, -4102.62, 0.000, 0.000, 0.000, 17:40:36.678
160, -4313.52, -4836.66, -4843.59, -4081.93, 0.000, 0.000, 0.000, 17:40:36.678
161, -4154.31, -4644.74, -4670.24, -3909.72, 0.000, 0.000, 0.000, 17:40:36.679
162, -4050.48, -4544.52, -4571.97, -3819.63, 0.000, 0.000, 0.000, 17:40:36.679
163, -4312.45, -4848.09, -4867.99, -4118.23, 0.000, 0.000, 0.000, 17:40:36.692
164, -4334.23, -4845.60, -4862.43, -4096.77, 0.000, 0.000, 0.000, 17:40:36.692
165, -4160.72, -4654.83, -4675.85, -3903.86, 0.000, 0.000, 0.000, 17:40:36.707
166, -4040.39, -4550.52, -4566.48, -3811.21, 0.000, 0.000, 0.000, 17:40:36.707
167, -4320.24, -4854.18, -4869.14, -4110.83, 0.000, 0.000, 0.000, 17:40:36.708
168, -4330.81, -4836.66, -4836.80, -4094.80, 0.000, 0.000, 0.000, 17:40:36.708
169, -4149.94, -4640.11, -4657.94, -3911.93, 0.000, 0.000, 0.000, 17:40:36.723
170, -4045.44, -4531.59, -4563.78, -3819.10, 0.000, 0.000, 0.000, 17:40:36.723
171, -4324.76, -4868.15, -4877.50, -4123.23, 0.000, 0.000, 0.000, 17:40:36.737
172, -4329.95, -4833.87, -4847.49, -4089.46, 0.000, 0.000, 0.000, 17:40:36.738
173, -4156.15, -4653.08, -4667.84, -3899.51, 0.000, 0.000, 0.000, 17:40:36.738
174, -4051.61, -4550.54, -4579.93, -3813.98, 0.000, 0.000, 0.000, 17:40:36.738
175, -4313.43, -4839.31, -4862.34, -4106.13, 0.000, 0.000, 0.000, 17:40:36.752
176, -4319.18, -4834.90, -4839.56, -4080.03, 0.000, 0.000, 0.000, 17:40:36.752
177, -4156.26, -4648.68, -4672.09, -3903.89, 0.000, 0.000, 0.000, 17:40:36.768
178, -4058.94, -4550.97, -4578.54, -3821.40, 0.000, 0.000, 0.000, 17:40:36.768
179, -4305.89, -4849.63, -4854.81, -4103.64, 0.000, 0.000, 0.000, 17:40:36.768
180, -4327.63, -4838.31, -4839.69, -4084.87, 0.000, 0.000, 0.000, 17:40:36.768
181, -4159.61, -4649.88, -4676.94, -3911.48, 0.000, 0.000, 0.000, 17:40:36.783
182, -4049.78, -4533.49, -4567.00, -3809.88, 0.000, 0.000, 0.000, 17:40:36.783
183, -4305.38, -4848.92, -4848.24, -4105.91, 0.000, 0.000, 0.000, 17:40:36.798
184, -4321.40, -4836.64, -4838.48, -4085.07, 0.000, 0.000, 0.000, 17:40:36.798
185, -4168.70, -4658.31, -4672.79, -3914.23, 0.000, 0.000, 0.000, 17:40:36.798
186, -4049.54, -4545.59, -4567.16, -3818.28, 0.000, 0.000, 0.000, 17:40:36.798
187, -4304.50, -4844.15, -4855.02, -4097.86, 0.000, 0.000, 0.000, 17:40:36.827
188, -4323.40, -4822.46, -4839.16, -4093.16, 0.000, 0.000, 0.000, 17:40:36.827
189, -4161.52, -4645.07, -4665.06, -3911.49, 0.000, 0.000, 0.000, 17:40:36.828
190, -4047.29, -4549.27, -4570.00, -3808.51, 0.000, 0.000, 0.000, 17:40:36.828
191, -4317.55, -4850.53, -4859.81, -4118.29, 0.000, 0.000, 0.000, 17:40:36.829
192, -4328.94, -4837.81, -4842.32, -4082.91, 0.000, 0.000, 0.000, 17:40:36.829
193, -4158.34, -4634.28, -4659.30, -3905.20, 0.000, 0.000, 0.000, 17:40:36.843
194, -4053.01, -4541.24, -4580.07, -3810.57, 0.000, 0.000, 0.000, 17:40:36.843
195, -4320.59, -4859.70, -4866.51, -4128.19, 0.000, 0.000, 0.000, 17:40:36.857
196, -4339.42, -4848.06, -4857.38, -4096.88, 0.000, 0.000, 0.000, 17:40:36.857
197, -4169.95, -4647.83, -4683.38, -3914.81, 0.000, 0.000, 0.000, 17:40:36.857
198, -4055.61, -4549.25, -4565.53, -3814.12, 0.000, 0.000, 0.000, 17:40:36.858
199, -4305.75, -4846.32, -4857.21, -4101.69, 0.000, 0.000, 0.000, 17:40:36.872
200, -4320.58, -4837.52, -4843.41, -4085.30, 0.000, 0.000, 0.000, 17:40:36.872
0, -4169.67, -4663.81, -4675.52, -3908.16, 0.000, 0.000, 0.000, 17:40:36.872
1, -4052.73, -4544.31, -4573.59, -3822.79, 0.000, 0.000, 0.000, 17:40:36.887
2, -4314.29, -4842.26, -4861.48, -4108.10, 0.000, 0.000, 0.000, 17:40:36.887
3, -4319.17, -4825.65, -4836.55, -4074.29, 0.000, 0.000, 0.000, 17:40:36.917
4, -4172.27, -4657.68, -4679.49, -3914.82, 0.000, 0.000, 0.000, 17:40:36.917
5, -4055.06, -4546.82, -4571.57, -3814.70, 0.000, 0.000, 0.000, 17:40:36.918
6, -4305.48, -4846.37, -4862.01, -4099.41, 0.000, 0.000, 0.000, 17:40:36.918
7, -4310.79, -4813.94, -4836.74, -4075.01, 0.000, 0.000, 0.000, 17:40:36.918
8, -4154.40, -4633.53, -4669.15, -3905.51, 0.000, 0.000, 0.000, 17:40:36.918
9, -4065.34, -4561.23, -4581.55, -3819.52, 0.000, 0.000, 0.000, 17:40:36.919
10, -4315.27, -4858.22, -4853.29, -4119.75, 0.000, 0.000, 0.000, 17:40:36.919
11, -4328.85, -4847.72, -4845.76, -4100.73, 0.000, 0.000, 0.000, 17:40:36.933
12, -4167.02, -4642.82, -4674.52, -3916.21, 0.000, 0.000, 0.000, 17:40:36.933
13, -4059.90, -4547.43, -4573.14, -3816.77, 0.000, 0.000, 0.000, 17:40:36.978
14, -4314.71, -4857.61, -4862.52, -4101.13, 0.000, 0.000, 0.000, 17:40:36.978
15, -4321.60, -4829.58, -4846.84, -4080.16, 0.000, 0.000, 0.000, 17:40:36.978
16, -4162.05, -4652.18, -4668.10, -3914.42, 0.000, 0.000, 0.000, 17:40:36.978
17, -4054.80, -4543.80, -4564.58, -3829.51, 0.000, 0.000, 0.000, 17:40:36.979
18, -4301.04, -4837.83, -4842.44, -4104.08, 0.000, 0.000, 0.000, 17:40:36.979
19, -4313.95, -4824.09, -4835.89, -4087.36, 0.000, 0.000, 0.000, 17:40:36.979
20, -4148.65, -4632.69, -4657.42, -3901.04, 0.000, 0.000, 0.000, 17:40:36.979
21, -4057.35, -4544.44, -4578.00, -3822.17, 0.000, 0.000, 0.000, 17:40:36.980
22, -4313.28, -4855.70, -4877.59, -4119.98, 0.000, 0.000, 0.000, 17:40:36.980
23, -4313.11, -4835.58, -4840.51, -4084.92, 0.000, 0.000, 0.000, 17:40:36.992
24, -4163.86, -4657.08, -4682.29, -3919.43, 0.000, 0.000, 0.000, 17:40:36.992
25, -4052.40, -4534.71, -4559.21, -3801.01, 0.000, 0.000, 0.000, 17:40:37.007
26, -4306.35, -4839.47, -4851.68, -4110.56, 0.000, 0.000, 0.000, 17:40:37.007
27, -4311.99, -4823.09, -4827.45, -4082.76, 0.000, 0.000, 0.000, 17:40:37.022
28, -4153.62, -4653.72, -4666.85, -3911.63, 0.000, 0.000, 0.000, 17:40:37.022
29, -4056.48, -4547.10, -4583.50, -3829.94, 0.000, 0.000, 0.000, 17:40:37.023
30, -4314.66, -4851.87, -4867.85, -4112.28, 0.000, 0.000, 0.000, 17:40:37.023
31, -4327.92, -4838.92, -4851.33, -4091.56, 0.000, 0.000, 0.000, 17:40:37.037
32, -4177.44, -4676.52, -4683.29, -3925.14, 0.000, 0.000, 0.000, 17:40:37.037
33, -4057.00, -4565.91, -4577.72, -3824.94, 0.000, 0.000, 0.000, 17:40:37.052
34, -4316.79, -4864.45, -4868.41, -4118.64, 0.000, 0.000, 0.000, 17:40:37.052
35, -4331.05, -4840.20, -4854.15, -4096.54, 0.000, 0.000, 0.000, 17:40:37.052
36, -4167.47, -4656.41, -4673.01, -3925.26, 0.000, 0.000, 0.000, 17:40:37.053
37, -4052.86, -4549.67, -4572.38, -3822.32, 0.000, 0.000, 0.000, 17:40:37.073
38, -4294.76, -4838.63, -4845.43, -4098.91, 0.000, 0.000, 0.000, 17:40:37.073
39, -4308.78, -4816.75, -4831.69, -4076.37, 0.000, 0.000, 0.000, 17:40:37.082
40, -4149.60, -4637.46, -4652.44, -3911.11, 0.000, 0.000, 0.000, 17:40:37.083
41, -4043.31, -4540.63, -4566.89, -3816.03, 0.000, 0.000, 0.000, 17:40:37.083
42, -4302.07, -4835.29, -4841.02, -4101.77, 0.000, 0.000, 0.000, 17:40:37.084
43, -4319.57, -4840.19, -4843.71, -4090.39, 0.000, 0.000, 0.000, 17:40:37.097
44, -4151.32, -4648.06, -4663.29, -3900.79, 0.000, 0.000, 0.000, 17:40:37.097
45, -4058.58, -4547.04, -4571.60, -3819.06, 0.000, 0.000, 0.000, 17:40:37.113
46, -4306.33, -4841.20, -4852.48, -4115.12, 0.000, 0.000, 0.000, 17:40:37.113
47, -4323.44, -4832.78, -4844.80, -4092.67, 0.000, 0.000, 0.000, 17:40:37.128
48, -4171.30, -4662.50, -4672.37, -3914.76, 0.000, 0.000, 0.000, 17:40:37.128
49, -4049.28, -4556.64, -4573.75, -3805.42, 0.000, 0.000, 0.000, 17:40:37.128
50, -4303.86, -4838.90, -4851.08, -4096.82, 0.000, 0.000, 0.000, 17:40:37.128
51, -4326.20, -4832.07, -4848.63, -4084.50, 0.000, 0.000, 0.000, 17:40:37.143
52, -4170.66, -4655.64, -4680.78, -3921.37, 0.000, 0.000, 0.000, 17:40:37.143
53, -4053.75, -4548.02, -4566.03, -3817.33, 0.000, 0.000, 0.000, 17:40:37.144
54, -4308.36, -4850.93, -4855.34, -4111.02, 0.000, 0.000, 0.000, 17:40:37.144
55, -4328.36, -4839.29, -4857.01, -4100.64, 0.000, 0.000, 0.000, 17:40:37.157
56, -4172.92, -4667.09, -4689.22, -3922.72, 0.000, 0.000, 0.000, 17:40:37.158
57, -4047.12, -4552.62, -4581.54, -3814.37, 0.000, 0.000, 0.000, 17:40:37.187
58, -4306.85, -4842.22, -4855.15, -4107.72, 0.000, 0.000, 0.000, 17:40:37.188
59, -4319.84, -4827.37, -4838.55, -4097.28, 0.000, 0.000, 0.000, 17:40:37.188
60, -4166.93, -4658.83, -4671.58, -3920.36, 0.000, 0.000, 0.000, 17:40:37.188
61, -4058.29, -4549.40, -4573.59, -3809.38, 0.000, 0.000, 0.000, 17:40:37.202
62, -4315.65, -4848.25, -4865.63, -4102.55, 0.000, 0.000, 0.000, 17:40:37.202
63, -4322.87, -4830.54, -4842.25, -4091.55, 0.000, 0.000, 0.000, 17:40:37.203
64, -4167.99, -4653.17, -4673.37, -3929.16, 0.000, 0.000, 0.000, 17:40:37.203
65, -4043.99, -4532.21, -4556.10, -3814.36, 0.000, 0.000, 0.000, 17:40:37.204
66, -4303.79, -4835.58, -4843.80, -4108.95, 0.000, 0.000, 0.000, 17:40:37.204
67, -4309.10, -4825.35, -4839.31, -4087.16, 0.000, 0.000, 0.000, 17:40:37.217
68, -4169.06, -4667.00, -4676.64, -3927.83, 0.000, 0.000, 0.000, 17:40:37.218
69, -4054.62, -4550.44, -4576.15, -3819.72, 0.000, 0.000, 0.000, 17:40:37.234
70, -4290.34, -4835.00, -4847.26, -4095.82, 0.000, 0.000, 0.000, 17:40:37.234
71, -4316.74, -4828.30, -4841.58, -4091.18, 0.000, 0.000, 0.000, 17:40:37.234
72, -4161.62, -4654.15, -4673.08, -3909.22, 0.000, 0.000, 0.000, 17:40:37.234
73, -4054.55, -4552.03, -4569.77, -3812.72, 0.000, 0.000, 0.000, 17:40:37.248
74, -4303.30, -4834.16, -4866.47, -4108.73, 0.000, 0.000, 0.000, 17:40:37.248
75, -4321.26, -4840.30, -4856.62, -4088.03, 0.000, 0.000, 0.000, 17:40:37.263
76, -4171.89, -4666.66, -4684.68, -3924.88, 0.000, 0.000, 0.000, 17:40:37.263
77, -4054.39, -4553.35, -4571.88, -3818.14, 0.000, 0.000, 0.000, 17:40:37.263
78, -4299.74, -4843.79, -4853.75, -4112.26, 0.000, 0.000, 0.000, 17:40:37.264
79, -4323.77, -4840.63, -4852.69, -4097.05, 0.000, 0.000, 0.000, 17:40:37.307
80, -4165.25, -4653.38, -4677.34, -3926.51, 0.000, 0.000, 0.000, 17:40:37.307
81, -4044.26, -4541.89, -4567.56, -3811.55, 0.000, 0.000, 0.000, 17:40:37.308
82, -4290.63, -4831.78, -4831.95, -4087.46, 0.000, 0.000, 0.000, 17:40:37.308
83, -4331.04, -4852.64, -4846.18, -4088.10, 0.000, 0.000, 0.000, 17:40:37.309
84, -4166.70, -4663.26, -4678.35, -3924.16, 0.000, 0.000, 0.000, 17:40:37.309
85, -4040.74, -4541.51, -4559.33, -3808.08, 0.000, 0.000, 0.000, 17:40:37.309
86, -4294.88, -4827.22, -4841.62, -4106.81, 0.000, 0.000, 0.000, 17:40:37.309
87, -4316.76, -4830.28, -4835.53, -4095.41, 0.000, 0.000, 0.000, 17:40:37.310
88, -4165.70, -4658.32, -4668.33, -3919.96, 0.000, 0.000, 0.000, 17:40:37.310
89, -4058.91, -4549.22, -4575.11, -3819.46, 0.000, 0.000, 0.000, 17:40:37.322
90, -4307.45, -4830.24, -4852.88, -4112.60, 0.000, 0.000, 0.000, 17:40:37.322
91, -4330.43, -4841.80, -4835.19, -4105.20, 0.000, 0.000, 0.000, 17:40:37.337
92, -4171.83, -4663.98, -4683.00, -3927.71, 0.000, 0.000, 0.000, 17:40:37.337
93, -4056.39, -4550.45, -4572.23, -3824.22, 0.000, 0.000, 0.000, 17:40:37.352
94, -4307.24, -4848.91, -4856.74, -4114.03, 0.000, 0.000, 0.000, 17:40:37.353
95, -4322.27, -4831.44, -4844.74, -4094.07, 0.000, 0.000, 0.000, 17:40:37.360
96, -4177.55, -4665.65, -4681.91, -3925.10, 0.000, 0.000, 0.000, 17:40:37.360
97, -4056.02, -4551.57, -4566.85, -3815.56, 0.000, 0.000, 0.000, 17:40:37.367
98, -4300.94, -4847.14, -4849.24, -4110.48, 0.000, 0.000, 0.000, 17:40:37.367
99, -4325.74, -4835.39, -4859.17, -4099.64, 0.000, 0.000, 0.000, 17:40:37.384
100, -4165.37, -4655.19, -4669.24, -3916.90, 0.000, 0.000, 0.000, 17:40:37.384
101, -4046.07, -4540.75, -4560.25, -3803.32, 0.000, 0.000, 0.000, 17:40:37.384
102, -4298.01, -4836.79, -4842.55, -4095.53, 0.000, 0.000, 0.000, 17:40:37.384
103, -4336.34, -4830.52, -4853.19, -4098.23, 0.000, 0.000, 0.000, 17:40:37.398
104, -4167.25, -4643.61, -4669.43, -3917.14, 0.000, 0.000, 0.000, 17:40:37.398
105, -4055.22, -4538.38, -4573.66, -3822.29, 0.000, 0.000, 0.000, 17:40:37.413
106, -4305.05, -4838.56, -4855.15, -4102.11, 0.000, 0.000, 0.000, 17:40:37.413
107, -4340.17, -4843.56, -4863.76, -4103.56, 0.000, 0.000, 0.000, 17:40:37.413
108, -4171.80, -4663.69, -4671.76, -3920.43, 0.000, 0.000, 0.000, 17:40:37.414
109, -4062.92, -4561.84, -4572.40, -3825.68, 0.000, 0.000, 0.000, 17:40:37.428
110, -4310.68, -4840.34, -4842.40, -4104.56, 0.000, 0.000, 0.000, 17:40:37.428
111, -4325.94, -4818.89, -4842.18, -4098.12, 0.000, 0.000, 0.000, 17:40:37.458
112, -4168.59, -4652.45, -4679.27, -3918.24, 0.000, 0.000, 0.000, 17:40:37.458
113, -4046.56, -4534.22, -4563.98, -3814.17, 0.000, 0.000, 0.000, 17:40:37.459
114, -4312.94, -4843.45, -4858.58, -4109.24, 0.000, 0.000, 0.000, 17:40:37.459
115, -4328.83, -4836.12, -4851.85, -4097.79, 0.000, 0.000, 0.000, 17:40:37.460
116, -4177.15, -4661.42, -4687.49, -3930.46, 0.000, 0.000, 0.000, 17:40:37.460
117, -4044.83, -4540.47, -4565.20, -3811.70, 0.000, 0.000, 0.000, 17:40:37.460
118, -4304.30, -4848.66, -4858.31, -4097.66, 0.000, 0.000, 0.000, 17:40:37.460
119, -4326.23, -4824.84, -4848.79, -4084.82, 0.000, 0.000, 0.000, 17:40:37.473
120, -4160.52, -4644.12, -4676.94, -3918.80, 0.000, 0.000, 0.000, 17:40:37.473
121, -4042.25, -4529.26, -4565.76, -3810.83, 0.000, 0.000, 0.000, 17:40:37.487
122, -4298.66, -4841.34, -4850.49, -4102.90, 0.000, 0.000, 0.000, 17:40:37.487
123, -4327.81, -4840.93, -4849.61, -4087.71, 0.000, 0.000, 0.000, 17:40:37.503
124, -4167.94, -4670.28, -4678.60, -3918.76, 0.000, 0.000, 0.000, 17:40:37.503
125, -4053.31, -4554.94, -4574.67, -3818.55, 0.000, 0.000, 0.000, 17:40:37.503
126, -4302.13, -4826.49, -4848.37, -4107.42, 0.000, 0.000, 0.000, 17:40:37.503
127, -4322.09, -4840.46, -4844.23, -4088.61, 0.000, 0.000, 0.000, 17:40:37.517
128, -4171.52, -4666.46, -4685.88, -3917.08, 0.000, 0.000, 0.000, 17:40:37.517
129, -4048.64, -4539.81, -4563.50, -3811.10, 0.000, 0.000, 0.000, 17:40:37.533
130, -4300.19, -4847.14, -4846.21, -4102.59, 0.000, 0.000, 0.000, 17:40:37.533
131, -4334.27, -4852.90, -4854.95, -4102.18, 0.000, 0.000, 0.000, 17:40:37.533
132, -4165.42, -4641.60, -4672.61, -3908.00, 0.000, 0.000, 0.000, 17:40:37.533
133, -4043.66, -4524.67, -4558.24, -3805.70, 0.000, 0.000, 0.000, 17:40:37.548
134, -4301.71, -4832.19, -4845.35, -4103.61, 0.000, 0.000, 0.000, 17:40:37.548
135, -4331.80, -4848.16, -4850.27, -4100.22, 0.000, 0.000, 0.000, 17:40:37.562
136, -4157.91, -4654.63, -4671.33, -3915.54, 0.000, 0.000, 0.000, 17:40:37.563
137, -4048.68, -4554.30, -4565.92, -3817.37, 0.000, 0.000, 0.000, 17:40:37.563
138, -4300.61, -4846.74, -4843.91, -4103.27, 0.000, 0.000, 0.000, 17:40:37.563
139, -4329.10, -4841.95, -4851.78, -4097.00, 0.000, 0.000, 0.000, 17:40:37.578
140, -4171.41, -4660.54, -4681.61, -3917.96, 0.000, 0.000, 0.000, 17:40:37.578
141, -4048.69, -4541.80, -4560.74, -3810.81, 0.000, 0.000, 0.000, 17:40:37.607
142, -4286.80, -4825.31, -4830.02, -4084.49, 0.000, 0.000, 0.000, 17:40:37.607
143, -4318.62, -4827.53, -4840.10, -4093.45, 0.000, 0.000, 0.000, 17:40:37.608
144, -4176.89, -4661.04, -4689.99, -3922.49, 0.000, 0.000, 0.000, 17:40:37.608
145, -4051.54, -4548.66, -4565.19, -3804.45, 0.000, 0.000, 0.000, 17:40:37.608
146, -4300.40, -4844.99, -4845.19, -4098.72, 0.000, 0.000, 0.000, 17:40:37.608
147, -4317.36, -4839.46, -4849.04, -4098.37, 0.000, 0.000, 0.000, 17:40:37.609
148, -4171.54, -4663.02, -4689.74, -3912.14, 0.000, 0.000, 0.000, 17:40:37.609
149, -4051.51, -4533.74, -4576.98, -3808.09, 0.000, 0.000, 0.000, 17:40:37.629
150, -4305.83, -4823.52, -4859.57, -4103.83, 0.000, 0.000, 0.000, 17:40:37.629
151, -4342.68, -4861.11, -4872.26, -4107.80, 0.000, 0.000, 0.000, 17:40:37.637
152, -4181.50, -4677.33, -4692.14, -3936.37, 0.000, 0.000, 0.000, 17:40:37.637
153, -4052.53, -4537.77, -4563.08, -3812.26, 0.000, 0.000, 0.000, 17:40:37.652
154, -4302.53, -4840.76, -4854.18, -4102.55, 0.000, 0.000, 0.000, 17:40:37.652
155, -4340.17, -4853.92, -4864.78, -4107.26, 0.000, 0.000, 0.000, 17:40:37.653
156, -4169.13, -4670.16, -4681.76, -3916.50, 0.000, 0.000, 0.000, 17:40:37.653
157, -4047.11, -4527.28, -4553.37, -3801.98, 0.000, 0.000, 0.000, 17:40:37.667
158, -4288.26, -4815.15, -4836.08, -4092.29, 0.000, 0.000, 0.000, 17:40:37.667
159, -4330.23, -4843.72, -4855.01, -4094.89, 0.000, 0.000, 0.000, 17:40:37.683
160, -4179.28, -4667.69, -4688.83, -3921.29, 0.000, 0.000, 0.000, 17:40:37.683
161, -4050.55, -4538.54, -4565.80, -3792.75, 0.000, 0.000, 0.000, 17:40:37.684
162, -4302.99, -4839.21, -4857.34, -4100.38, 0.000, 0.000, 0.000, 17:40:37.684
163, -4318.61, -4836.74, -4842.75, -4086.85, 0.000, 0.000, 0.000, 17:40:37.697
164, -4163.18, -4661.56, -4668.61, -3911.61, 0.000, 0.000, 0.000, 17:40:37.697
165, -4047.54, -4536.95, -4565.08, -3804.26, 0.000, 0.000, 0.000, 17:40:37.712
166, -4281.46, -4814.69, -4834.63, -4085.96, 0.000, 0.000, 0.000, 17:40:37.712
167, -4332.06, -4836.20, -4856.13, -4105.12, 0.000, 0.000, 0.000, 17:40:37.713
168, -4169.05, -4661.22, -4678.72, -3912.47, 0.000, 0.000, 0.000, 17:40:37.713
169, -4045.92, -4554.97, -4565.92, -3811.22, 0.000, 0.000, 0.000, 17:40:37.728
170, -4297.75, -4843.98, -4849.62, -4105.57, 0.000, 0.000, 0.000, 17:40:37.728
171, -4333.01, -4855.11, -4856.11, -4105.44, 0.000, 0.000, 0.000, 17:40:37.742
172, -4154.99, -4646.06, -4673.67, -3912.60, 0.000, 0.000, 0.000, 17:40:37.742
173, -4023.23, -4517.23, -4544.35, -3792.24, 0.000, 0.000, 0.000, 17:40:37.744
174, -4294.93, -4844.83, -4848.00, -4101.37, 0.000, 0.000, 0.000, 17:40:37.744
175, -4325.75, -4841.14, -4858.48, -4102.93, 0.000, 0.000, 0.000, 17:40:37.757
176, -4157.06, -4644.68, -4687.62, -3916.37, 0.000, 0.000, 0.000, 17:40:37.757
177, -4032.43, -4524.49, -4563.64, -3797.97, 0.000, 0.000, 0.000, 17:40:37.772
178, -4296.24, -4841.04, -4860.53, -4097.90, 0.000, 0.000, 0.000, 17:40:37.772
179, -4339.21, -4850.83, -4872.32, -4111.24, 0.000, 0.000, 0.000, 17:40:37.772
180, -4164.45, -4659.53, -4679.37, -3921.16, 0.000, 0.000, 0.000, 17:40:37.772
181, -4043.49, -4542.16, -4568.66, -3802.94, 0.000, 0.000, 0.000, 17:40:37.788
182, -4284.19, -4823.26, -4842.07, -4086.50, 0.000, 0.000, 0.000, 17:40:37.788
183, -4336.84, -4850.18, -4865.72, -4099.89, 0.000, 0.000, 0.000, 17:40:37.802
184, -4155.06, -4654.77, -4672.77, -3918.21, 0.000, 0.000, 0.000, 17:40:37.803
185, -4026.84, -4525.71, -4551.09, -3791.82, 0.000, 0.000, 0.000, 17:40:37.803
186, -4292.20, -4834.16, -4853.31, -4103.17, 0.000, 0.000, 0.000, 17:40:37.803
187, -4336.07, -4853.23, -4869.14, -4107.46, 0.000, 0.000, 0.000, 17:40:37.817
188, -4178.22, -4659.27, -4688.54, -3937.49, 0.000, 0.000, 0.000, 17:40:37.818
189, -4042.68, -4532.18, -4558.00, -3814.08, 0.000, 0.000, 0.000, 17:40:37.833
190, -4284.81, -4820.94, -4831.94, -4084.22, 0.000, 0.000, 0.000, 17:40:37.833
191, -4336.02, -4854.97, -4852.88, -4105.55, 0.000, 0.000, 0.000, 17:40:37.833
192, -4163.69, -4659.29, -4685.03, -3919.31, 0.000, 0.000, 0.000, 17:40:37.833
193, -4048.83, -4550.11, -4573.27, -3811.10, 0.000, 0.000, 0.000, 17:40:37.847
194, -4299.84, -4848.34, -4862.56, -4098.33, 0.000, 0.000, 0.000, 17:40:37.847
195, -4340.35, -4855.32, -4868.53, -4109.38, 0.000, 0.000, 0.000, 17:40:37.863
196, -4170.20, -4667.76, -4693.03, -3938.35, 0.000, 0.000, 0.000, 17:40:37.864
197, -4033.98, -4523.76, -4557.50, -3804.77, 0.000, 0.000, 0.000, 17:40:37.864
198, -4280.64, -4818.20, -4843.30, -4084.39, 0.000, 0.000, 0.000, 17:40:37.864
199, -4322.94, -4836.33, -4839.03, -4106.50, 0.000, 0.000, 0.000, 17:40:37.878
200, -4161.32, -4652.45, -4668.25, -3910.58, 0.000, 0.000, 0.000, 17:40:37.878
0, -4042.52, -4543.80, -4568.56, -3810.95, 0.000, 0.000, 0.000, 17:40:37.878
1, -4295.30, -4834.32, -4837.01, -4106.25, 0.000, 0.000, 0.000, 17:40:37.908
2, -4314.86, -4833.61, -4845.31, -4097.46, 0.000, 0.000, 0.000, 17:40:37.908
3, -4171.60, -4649.07, -4689.31, -3924.99, 0.000, 0.000, 0.000, 17:40:37.908
4, -4034.96, -4538.62, -4569.34, -3804.59, 0.000, 0.000, 0.000, 17:40:37.908
5, -4294.52, -4836.63, -4850.65, -4092.90, 0.000, 0.000, 0.000, 17:40:37.909
6, -4325.21, -4844.74, -4853.94, -4097.24, 0.000, 0.000, 0.000, 17:40:37.909
7, -4164.77, -4664.14, -4675.27, -3930.88, 0.000, 0.000, 0.000, 17:40:37.922
8, -4045.99, -4537.56, -4565.68, -3809.05, 0.000, 0.000, 0.000, 17:40:37.922
9, -4288.03, -4818.06, -4839.13, -4093.62, 0.000, 0.000, 0.000, 17:40:37.937
10, -4330.65, -4855.77, -4857.11, -4105.15, 0.000, 0.000, 0.000, 17:40:37.937
11, -4152.63, -4652.37, -4667.80, -3917.63, 0.000, 0.000, 0.000, 17:40:37.938
12, -4036.20, -4525.55, -4565.75, -3808.32, 0.000, 0.000, 0.000, 17:40:37.938
13, -4298.86, -4833.58, -4850.18, -4101.37, 0.000, 0.000, 0.000, 17:40:37.954
14, -4331.36, -4846.63, -4861.68, -4095.84, 0.000, 0.000, 0.000, 17:40:37.954
15, -4167.17, -4649.58, -4683.92, -3920.99, 0.000, 0.000, 0.000, 17:40:37.967
16, -4030.58, -4525.35, -4548.75, -3800.39, 0.000, 0.000, 0.000, 17:40:37.967
17, -4282.56, -4818.58, -4853.94, -4088.85, 0.000, 0.000, 0.000, 17:40:37.968
18, -4342.20, -4857.97, -4870.95, -4108.84, 0.000, 0.000, 0.000, 17:40:37.968
19, -4176.08, -4666.41, -4688.93, -3938.17, 0.000, 0.000, 0.000, 17:40:37.982
20, -4049.74, -4534.92, -4563.35, -3811.75, 0.000, 0.000, 0.000, 17:40:37.982
21, -4283.43, -4813.16, -4834.72, -4087.42, 0.000, 0.000, 0.000, 17:40:37.997
22, -4334.83, -4842.89, -4851.12, -4090.46, 0.000, 0.000, 0.000, 17:40:37.997
23, -4173.87, -4673.50, -4695.96, -3927.76, 0.000, 0.000, 0.000, 17:40:37.997
24, -4047.75, -4542.74, -4569.09, -3812.10, 0.000, 0.000, 0.000, 17:40:37.997
25, -4286.59, -4822.98, -4843.65, -4093.54, 0.000, 0.000, 0.000, 17:40:38.028
26, -4334.15, -4854.21, -4861.36, -4102.96, 0.000, 0.000, 0.000, 17:40:38.028
27, -4165.88, -4662.99, -4685.87, -3923.90, 0.000, 0.000, 0.000, 17:40:38.028
28, -4042.33, -4537.59, -4566.28, -3807.04, 0.000, 0.000, 0.000, 17:40:38.029
29, -4290.67, -4840.64, -4844.66, -4095.67, 0.000, 0.000, 0.000, 17:40:38.029
30, -4329.39, -4840.43, -4852.54, -4105.77, 0.000, 0.000, 0.000, 17:40:38.029
31, -4177.86, -4665.65, -4696.48, -3933.94, 0.000, 0.000, 0.000, 17:40:38.042
32, -4038.74, -4536.97, -4551.71, -3805.51, 0.000, 0.000, 0.000, 17:40:38.042
33, -4283.83, -4830.53, -4833.65, -4092.22, 0.000, 0.000, 0.000, 17:40:38.057
34, -4339.68, -4863.24, -4863.43, -4113.66, 0.000, 0.000, 0.000, 17:40:38.057
35, -4174.61, -4662.77, -4678.72, -3926.09, 0.000, 0.000, 0.000, 17:40:38.073
36, -4037.40, -4539.87, -4567.01, -3804.46, 0.000, 0.000, 0.000, 17:40:38.073
37, -4293.80, -4835.42, -4846.95, -4095.14, 0.000, 0.000, 0.000, 17:40:38.073
38, -4330.25, -4855.56, -4857.10, -4098.26, 0.000, 0.000, 0.000, 17:40:38.073
39, -4168.46, -4667.51, -4680.52, -3924.67, 0.000, 0.000, 0.000, 17:40:38.087
40, -4038.14, -4535.86, -4571.07, -3804.74, 0.000, 0.000, 0.000, 17:40:38.087
41, -4296.88, -4837.42, -4840.51, -4095.86, 0.000, 0.000, 0.000, 17:40:38.088
42, -4352.60, -4853.34, -4867.10, -4121.36, 0.000, 0.000, 0.000, 17:40:38.088
43, -4174.14, -4669.34, -4682.29, -3926.00, 0.000, 0.000, 0.000, 17:40:38.102
44, -4027.00, -4523.69, -4537.35, -3795.62, 0.000, 0.000, 0.000, 17:40:38.102
45, -4274.25, -4804.66, -4825.71, -4075.37, 0.000, 0.000, 0.000, 17:40:38.117
46, -4329.35, -4846.83, -4864.28, -4116.05, 0.000, 0.000, 0.000, 17:40:38.117
47, -4172.44, -4666.50, -4688.02, -3932.42, 0.000, 0.000, 0.000, 17:40:38.118
48, -4038.22, -4527.88, -4554.40, -3804.35, 0.000, 0.000, 0.000, 17:40:38.118
49, -4295.24, -4832.84, -4849.27, -4094.99, 0.000, 0.000, 0.000, 17:40:38.133
50, -4338.38, -4849.16, -4863.50, -4106.18, 0.000, 0.000, 0.000, 17:40:38.133
51, -4178.08, -4669.18, -4690.06, -3935.81, 0.000, 0.000, 0.000, 17:40:38.163
52, -4047.88, -4532.25, -4554.04, -3809.40, 0.000, 0.000, 0.000, 17:40:38.163
53, -4296.82, -4829.44, -4830.96, -4090.19, 0.000, 0.000, 0.000, 17:40:38.163
54, -4340.16, -4847.47, -4851.07, -4108.60, 0.000, 0.000, 0.000, 17:40:38.163
55, -4172.53, -4667.96, -4686.74, -3932.73, 0.000, 0.000, 0.000, 17:40:38.164
56, -4027.15, -4523.96, -4550.78, -3791.07, 0.000, 0.000, 0.000, 17:40:38.164
57, -4290.80, -4822.55, -4836.96, -4101.10, 0.000, 0.000, 0.000, 17:40:38.165
58, -4338.09, -4849.43, -4862.86, -4113.21, 0.000, 0.000, 0.000, 17:40:38.165
59, -4177.61, -4664.52, -4692.30, -3929.22, 0.000, 0.000, 0.000, 17:40:38.192
60, -4027.91, -4523.80, -4550.11, -3799.17, 0.000, 0.000, 0.000, 17:40:38.192
61, -4293.57, -4833.32, -4844.10, -4093.01, 0.000, 0.000, 0.000, 17:40:38.193
62, -4331.27, -4854.03, -4860.19, -4101.97, 0.000, 0.000, 0.000, 17:40:38.193
63, -4160.53, -4666.55, -4678.66, -3922.58, 0.000, 0.000, 0.000, 17:40:38.207
64, -4036.84, -4531.23, -4562.82, -3807.80, 0.000, 0.000, 0.000, 17:40:38.207
65, -4290.56, -4816.79, -4833.30, -4091.25, 0.000, 0.000, 0.000, 17:40:38.208
66, -4337.07, -4848.27, -4859.11, -4102.33, 0.000, 0.000, 0.000, 17:40:38.208
67, -4188.72, -4676.19, -4696.15, -3927.31, 0.000, 0.000, 0.000, 17:40:38.222
68, -4040.75, -4528.15, -4558.79, -3799.83, 0.000, 0.000, 0.000, 17:40:38.223
69, -4288.68, -4820.16, -4838.34, -4081.57, 0.000, 0.000, 0.000, 17:40:38.238
70, -4349.94, -4856.48, -4871.15, -4113.99, 0.000, 0.000, 0.000, 17:40:38.238
71, -4172.88, -4660.98, -4686.03, -3929.20, 0.000, 0.000, 0.000, 17:40:38.238
72, -4043.02, -4536.24, -4559.81, -3804.72, 0.000, 0.000, 0.000, 17:40:38.238
73, -4285.04, -4830.10, -4843.51, -4086.27, 0.000, 0.000, 0.000, 17:40:38.252
74, -4345.56, -4872.89, -4872.35, -4106.32, 0.000, 0.000, 0.000, 17:40:38.252
75, -4182.82, -4682.61, -4697.55, -3932.21, 0.000, 0.000, 0.000, 17:40:38.267
76, -4026.17, -4524.16, -4549.07, -3803.93, 0.000, 0.000, 0.000, 17:40:38.267
77, -4289.59, -4829.46, -4839.49, -4084.53, 0.000, 0.000, 0.000, 17:40:38.268
78, -4333.49, -4843.15, -4855.41, -4103.78, 0.000, 0.000, 0.000, 17:40:38.268
79, -4176.68, -4663.99, -4685.00, -3933.36, 0.000, 0.000, 0.000, 17:40:38.297
80, -4048.27, -4537.41, -4561.23, -3804.45, 0.000, 0.000, 0.000, 17:40:38.297
81, -4278.18, -4823.70, -4840.14, -4084.01, 0.000, 0.000, 0.000, 17:40:38.297
82, -4334.56, -4857.99, -4863.33, -4106.91, 0.000, 0.000, 0.000, 17:40:38.297
83, -4168.65, -4661.33, -4688.88, -3936.22, 0.000, 0.000, 0.000, 17:40:38.299
84, -4047.40, -4546.97, -4571.39, -3813.16, 0.000, 0.000, 0.000, 17:40:38.299
85, -4295.91, -4835.46, -4853.50, -4106.58, 0.000, 0.000, 0.000, 17:40:38.313
86, -4333.50, -4842.52, -4856.25, -4105.86, 0.000, 0.000, 0.000, 17:40:38.313
87, -4155.35, -4656.74, -4683.66, -3925.11, 0.000, 0.000, 0.000, 17:40:38.328
88, -4030.23, -4523.19, -4544.31, -3799.17, 0.000, 0.000, 0.000, 17:40:38.328
89, -4274.27, -4821.05, -4825.63, -4073.28, 0.000, 0.000, 0.000, 17:40:38.329
90, -4341.89, -4867.78, -4869.48, -4110.53, 0.000, 0.000, 0.000, 17:40:38.329
91, -4182.40, -4664.50, -4693.50, -3934.46, 0.000, 0.000, 0.000, 17:40:38.343
92, -4046.16, -4532.81, -4562.65, -3804.03, 0.000, 0.000, 0.000, 17:40:38.343
93, -4296.14, -4836.89, -4844.17, -4088.64, 0.000, 0.000, 0.000, 17:40:38.358
94, -4339.19, -4859.29, -4870.04, -4111.46, 0.000, 0.000, 0.000, 17:40:38.358
95, -4174.83, -4666.07, -4690.35, -3939.21, 0.000, 0.000, 0.000, 17:40:38.358
96, -4039.13, -4536.53, -4557.65, -3805.00, 0.000, 0.000, 0.000, 17:40:38.358
97, -4287.35, -4836.39, -4842.72, -4100.01, 0.000, 0.000, 0.000, 17:40:38.373
98, -4338.44, -4854.06, -4863.80, -4105.54, 0.000, 0.000, 0.000, 17:40:38.373
99, -4168.43, -4662.12, -4674.03, -3923.97, 0.000, 0.000, 0.000, 17:40:38.387
100, -4039.56, -4532.38, -4556.93, -3805.64, 0.000, 0.000, 0.000, 17:40:38.387
